Frequency,Impedance,Phase Angle,Temperature (Dry Bath)
10.0,2653.763,-23.74369,71.2582
21.544346900318832,2181.605,-23.51835,71.2652
46.41588833612777,1796.209,-23.48266,71.2586
100.0,1477.65,-24.08343,71.2655
215.44346900318823,1200.815,-25.4425,71.261
464.15888336127773,953.4912,-26.47977,71.2611
1000.0,747.5738,-26.24959,71.2563
2154.4346900318824,593.8398,-24.35322,71.2517
4641.588833612777,483.3584,-21.51159,71.2448
10000.0,408.6313,-18.14863,71.2648
