Frequency,Impedance,Phase Angle,Temperature (Dry Bath)
10.0,7900.312,-47.00947,71.0044
21.544346900318832,5369.028,-49.8047,71.0027
46.41588833612777,3458.278,-52.37009,71.0066
100.0,2178.209,-53.61106,71.0052
215.44346900318823,1362.043,-52.78909,70.9914
464.15888336127773,856.7166,-51.08448,70.997
1000.0,556.2125,-48.03849,71.0034
2154.4346900318824,377.5036,-43.85801,71.0076
4641.588833612777,266.8772,-40.07574,71.0078
10000.0,196.1355,-37.55579,71.0191
