Frequency,Impedance,Phase Angle,Temperature (Dry Bath)
10.0,39081.96,-47.82074,67.2104
21.544346900318832,30676.12,-45.3722,67.1892
46.41588833612777,22121.14,-40.59866,67.2022
100.0,16667.99,-37.13597,67.2027
215.44346900318823,12984.73,-37.04041,67.2253
464.15888336127773,9986.2,-40.22655,67.217
1000.0,7182.112,-46.79513,67.2332
2154.4346900318824,4780.608,-53.67835,67.226
4641.588833612777,2911.353,-61.01116,67.2265
10000.0,1658.577,-66.39611,67.2247
