Frequency,Impedance,Phase Angle,Temperature (Dry Bath)
10.0,1676.023,-12.52034,70.9767
21.544346900318832,1511.645,-11.57073,70.9807
46.41588833612777,1382.16,-10.47638,70.9844
100.0,1277.519,-9.806819,70.9779
215.44346900318823,1184.548,-9.839935,70.9617
464.15888336127773,1090.351,-10.45706,70.9776
1000.0,983.6555,-10.758,70.9808
2154.4346900318824,895.4758,-10.09055,70.9734
4641.588833612777,823.5845,-8.869744,70.9734
10000.0,769.0864,-7.97428,70.985
