Frequency,Impedance,Phase Angle,Temperature (Dry Bath)
10.0,780.5994,-26.69931,71.0566
21.544346900318832,609.7273,-25.9773,71.0617
46.41588833612777,487.5606,-22.58975,71.0523
100.0,413.6515,-18.44604,71.0538
215.44346900318823,367.5443,-15.99078,71.0662
464.15888336127773,332.639,-16.37468,71.0567
1000.0,295.4467,-19.71439,71.0574
2154.4346900318824,249.8134,-25.3794,71.066
4641.588833612777,195.7342,-32.4995,71.065
10000.0,140.1223,-38.30273,71.0562
