Frequency,Impedance,Phase Angle,Temperature (Dry Bath)
10.0,9413.045,-44.27334,67.1055
21.544346900318832,6795.335,-38.03694,67.1076
46.41588833612777,5181.388,-33.07597,67.1302
100.0,4050.964,-30.0991,67.1197
215.44346900318823,3203.946,-28.1682,67.115
464.15888336127773,2568.095,-26.5666,67.1099
1000.0,2058.858,-25.06228,67.1086
2154.4346900318824,1694.202,-23.41452,67.1066
4641.588833612777,1425.467,-22.48578,67.0895
10000.0,1220.421,-23.71145,67.1182
