Frequency,Impedance,Phase Angle,Temperature (Dry Bath)
10.0,1418.52,-36.81059,71.1534
21.544346900318832,1065.005,-36.88357,71.1673
46.41588833612777,751.0194,-35.7743,71.1568
100.0,544.332,-30.51871,71.1768
215.44346900318823,429.5466,-22.54671,71.1654
464.15888336127773,372.8557,-15.35634,71.1817
1000.0,342.578,-10.55358,71.1506
2154.4346900318824,324.2443,-7.752926,71.1501
4641.588833612777,309.5169,-6.327048,71.1578
10000.0,296.8213,-5.715026,71.1364
