Frequency,Impedance,Phase Angle,Temperature (Dry Bath)
10.0,1408.847,-63.94202,71.0277
21.544346900318832,802.5011,-64.55166,71.031
46.41588833612777,451.3325,-63.06015,71.0309
100.0,259.4291,-58.60731,71.0316
215.44346900318823,157.6666,-51.1122,71.0333
464.15888336127773,104.969,-41.57213,71.025
1000.0,77.26442,-31.86262,71.0344
2154.4346900318824,62.0958,-23.38342,71.0258
4641.588833612777,53.43413,-16.37652,71.0252
10000.0,48.46375,-10.95884,71.0217
