Frequency,Impedance,Phase Angle,Temperature (Dry Bath)
10.0,20061.52,-56.10877,67.167
21.544346900318832,13651.15,-55.77198,67.1682
46.41588833612777,8744.325,-52.1652,67.1659
100.0,5858.706,-48.34448,67.1613
215.44346900318823,3998.401,-45.35462,67.1467
464.15888336127773,2790.264,-41.93695,67.1589
1000.0,2037.628,-39.30344,67.1649
2154.4346900318824,1535.068,-40.63944,67.154
4641.588833612777,1092.816,-45.32073,67.1846
10000.0,723.6266,-50.00666,67.1619
