Frequency,Impedance,Phase Angle,Temperature (Dry Bath)
10.0,2791.247,-28.72405,71.138
21.544346900318832,2252.64,-32.60313,71.1397
46.41588833612777,1699.535,-38.72953,71.1435
100.0,1194.777,-45.7066,71.1208
215.44346900318823,776.116,-51.6666,71.1559
464.15888336127773,481.3309,-55.31571,71.1507
1000.0,293.5879,-56.90097,71.1513
2154.4346900318824,178.8094,-56.98871,71.167
4641.588833612777,108.0491,-55.53632,71.1805
10000.0,65.7613,-50.96334,71.1643
