Frequency,Impedance,Phase Angle,Temperature (Dry Bath)
10.0,4598020.0,-19.23033,65.7152
21.544346900318832,7170876.0,6.451183,65.7122
46.41588833612777,13922070.0,-20.14169,65.6998
100.0,1830356.0,42.25621,65.74
215.44346900318823,128906.6,74.01505,65.733
464.15888336127773,1176265.0,-83.60847,65.7273
1000.0,386306.8,-80.02333,65.7271
2154.4346900318824,242053.8,-72.86927,65.7301
4641.588833612777,128022.3,-84.0145,65.7114
10000.0,66156.79,-89.40188,65.6775
