Frequency,Impedance,Phase Angle,Temperature (Dry Bath)
10.0,808029.2,-30.20944,71.2746
21.544346900318832,644331.4,-29.13489,71.296
46.41588833612777,492611.4,-26.86577,71.2707
100.0,217912.9,10.50393,71.2755
215.44346900318823,17184.01,132.804,71.2767
464.15888336127773,300300.8,-27.41011,71.283
1000.0,292009.5,-21.57732,71.2859
2154.4346900318824,160560.8,-59.47594,71.2847
4641.588833612777,89126.74,-63.64512,71.2718
10000.0,50911.69,-68.59746,71.2672
