Frequency,Impedance,Phase Angle,Temperature (Dry Bath)
10.0,12435.77,-27.14284,71.1987
21.544346900318832,9979.852,-24.50355,71.1942
46.41588833612777,8200.594,-21.78669,71.18
100.0,6954.546,-19.16764,71.1786
215.44346900318823,6010.833,-16.63742,71.193
464.15888336127773,5262.844,-14.72995,71.1617
1000.0,4712.193,-13.19142,71.1798
2154.4346900318824,4295.986,-11.53381,71.1883
4641.588833612777,3898.386,-11.86349,71.184
10000.0,3578.797,-11.82479,71.1857
