Frequency,Impedance,Phase Angle,Temperature (Dry Bath)
10.0,7032038.0,8.12023,71.4985
21.544346900318832,3760958.0,-22.29708,71.4796
46.41588833612777,3868447.0,-33.03505,71.4927
100.0,340092.0,-70.37695,71.4917
215.44346900318823,546300.0,-87.64471,71.4836
464.15888336127773,1188416.0,-100.2547,71.4978
1000.0,278940.6,-71.43457,71.471
2154.4346900318824,240199.2,-89.28185,71.4887
4641.588833612777,150950.6,-77.62053,71.4858
10000.0,58474.04,-80.89654,71.4918
