Frequency,Impedance,Phase Angle,Temperature (Dry Bath)
10.0,402556.9,-22.29467,70.9209
21.544346900318832,342819.7,-19.81109,70.9184
46.41588833612777,275738.1,-20.04361,70.9185
100.0,155648.5,-27.69958,70.9158
215.44346900318823,193621.1,-22.38434,70.9158
464.15888336127773,173752.5,-42.25759,70.9177
1000.0,174319.7,-22.43382,70.9038
2154.4346900318824,123321.6,-14.26821,70.907
4641.588833612777,89899.92,-41.74842,70.9304
10000.0,54721.21,-68.72034,70.9233
