Frequency,Impedance,Phase Angle,Temperature (Dry Bath)
10.0,6027566.0,-31.90916,71.5508
21.544346900318832,7587530.0,-40.40173,71.5394
46.41588833612777,4565207.0,-21.81547,71.5307
100.0,824022.8,-49.70207,71.545
215.44346900318823,1980885.0,88.37645,71.5284
464.15888336127773,380483.9,-39.67976,71.5351
1000.0,471521.3,-58.36507,71.5293
2154.4346900318824,351687.6,-80.77956,71.5275
4641.588833612777,140626.7,-80.96858,71.5377
10000.0,76585.77,-82.08223,71.5218
