Frequency,Impedance,Phase Angle,Temperature (Dry Bath)
10.0,4659669.0,-14.6924,70.5825
21.544346900318832,4705100.0,-36.0031,70.597
46.41588833612777,6148530.0,-23.70281,70.5869
100.0,1722821.0,77.64525,70.5858
215.44346900318823,2671831.0,30.66318,70.5764
464.15888336127773,505307.2,-71.79938,70.5698
1000.0,472910.3,-27.87181,70.5953
2154.4346900318824,198932.1,-117.705,70.5866
4641.588833612777,123239.3,-88.26852,70.6034
10000.0,52681.06,-87.85605,70.6047
