Frequency,Impedance,Phase Angle,Temperature (Dry Bath)
10.0,10867440.0,-8.236247,71.2675
21.544346900318832,8729311.0,-5.194369,71.2867
46.41588833612777,5061212.0,-17.99852,71.2771
100.0,965582.6,-176.8077,71.2848
215.44346900318823,2748018.0,147.6095,71.2749
464.15888336127773,1389206.0,-38.3696,71.2817
1000.0,978677.4,-113.7765,71.2839
2154.4346900318824,460851.4,-109.7381,71.2587
4641.588833612777,302882.9,-86.12148,71.2962
10000.0,131676.6,-91.01511,71.296
