Frequency,Impedance,Phase Angle,Temperature (Dry Bath)
10.0,5985894.0,8.904695,65.697
21.544346900318832,5757987.0,-16.36234,65.6869
46.41588833612777,5854500.0,33.03859,65.676
100.0,2039369.0,-39.44031,65.6652
215.44346900318823,20946.2,-116.9009,65.7011
464.15888336127773,7328771.0,177.7371,65.6754
1000.0,310606.3,-88.69456,65.6664
2154.4346900318824,319287.4,-84.3334,65.6835
4641.588833612777,113814.2,-73.67501,65.669
10000.0,68525.55,-82.91875,65.6646
