Frequency,Impedance,Phase Angle,Temperature (Dry Bath)
10.0,13967730.0,-62.25521,66.2882
21.544346900318832,7895637.0,-26.21843,66.2815
46.41588833612777,4788689.0,-23.06038,66.2931
100.0,587191.8,55.09753,66.2873
215.44346900318823,5557152.0,-75.9551,66.2628
464.15888336127773,474362.8,-91.83227,66.2732
1000.0,337637.9,-74.62859,66.2805
2154.4346900318824,229325.3,-100.9072,66.2615
4641.588833612777,120083.9,-83.25035,66.2689
10000.0,59377.5,-81.48842,66.2741
