Frequency,Impedance,Phase Angle,Temperature (Dry Bath)
10.0,5294328.0,-3.239254,71.2614
21.544346900318832,5376458.0,0.5880313,71.2841
46.41588833612777,5364571.0,-11.92066,71.2913
100.0,613996.6,-63.3094,71.2921
215.44346900318823,1849083.0,136.4453,71.2937
464.15888336127773,1171582.0,148.3372,71.274
1000.0,575522.7,-127.1621,71.2802
2154.4346900318824,369259.0,-86.70566,71.2856
4641.588833612777,221689.4,-86.97373,71.2874
10000.0,89360.11,-86.64029,71.2961
