Frequency,Impedance,Phase Angle,Temperature (Dry Bath)
10.0,4410959.0,6.974916,65.6971
21.544346900318832,4772563.0,12.30337,65.6963
46.41588833612777,4213335.0,-3.047212,65.705
100.0,688793.6,4.038121,65.6933
215.44346900318823,278150.1,82.32876,65.7075
464.15888336127773,739402.1,-48.11272,65.6936
1000.0,347863.2,-61.70601,65.6798
2154.4346900318824,369273.8,-111.6219,65.6773
4641.588833612777,128561.3,-97.37517,65.692
10000.0,68839.14,-83.115,65.7159
