Frequency,Impedance,Phase Angle,Temperature (Dry Bath)
10.0,5668382.0,18.27566,66.3884
21.544346900318832,8013921.0,-22.78888,66.4035
46.41588833612777,3334693.0,-9.646463,66.3937
100.0,2037362.0,-60.25149,66.4016
215.44346900318823,1413544.0,-72.89823,66.3948
464.15888336127773,1108857.0,-101.4477,66.4189
1000.0,827143.9,-24.36775,66.4093
2154.4346900318824,219707.8,-77.09171,66.4005
4641.588833612777,122649.0,-83.24858,66.4115
10000.0,56950.34,-82.31015,66.4111
