Frequency,Impedance,Phase Angle,Temperature (Dry Bath)
10.0,289047.1,-24.72099,71.3446
21.544346900318832,233164.8,-21.41441,71.3425
46.41588833612777,200019.3,-20.44411,71.3532
100.0,149435.8,-0.008638493,71.348
215.44346900318823,147894.6,-26.78536,71.3503
464.15888336127773,111686.5,-5.559178,71.3452
1000.0,176813.3,-31.98723,71.3369
2154.4346900318824,95010.82,-32.86431,71.3462
4641.588833612777,71683.16,-48.7048,71.3233
10000.0,41727.93,-64.24721,71.3406
