Frequency,Impedance,Phase Angle,Temperature (Dry Bath)
10.0,6910771.0,-51.72905,71.1878
21.544346900318832,4489474.0,-3.788196,71.1604
46.41588833612777,4709335.0,-23.5085,71.1783
100.0,465241.7,-137.6213,71.1918
215.44346900318823,647136.2,113.6518,71.1718
464.15888336127773,533849.3,-57.29861,71.178
1000.0,205835.4,-77.42867,71.1725
2154.4346900318824,283163.7,-80.15236,71.1686
4641.588833612777,230192.4,-67.59122,71.1731
10000.0,61141.78,-74.90307,71.1685
