Frequency,Impedance,Phase Angle,Temperature (Dry Bath)
10.0,54253.4,-13.64793,70.8946
21.544346900318832,49591.1,-11.36689,70.9043
46.41588833612777,45935.93,-10.19198,70.9004
100.0,43556.86,-5.948615,70.9076
215.44346900318823,41328.79,-8.144679,70.904
464.15888336127773,38029.79,-12.03434,70.898
1000.0,35164.17,-9.669977,70.8968
2154.4346900318824,33955.14,-14.99708,70.9108
4641.588833612777,30059.31,-19.78362,70.9031
10000.0,25675.04,-30.4827,70.9242
