Frequency,Impedance,Phase Angle,Temperature (Dry Bath)
10.0,716654.2,-24.89041,70.9799
21.544346900318832,540142.0,-24.04875,70.9806
46.41588833612777,473305.3,-22.40857,70.9884
100.0,947730.3,-54.84392,70.9834
215.44346900318823,433591.8,-18.03977,71.0003
464.15888336127773,201693.9,-27.1228,70.9795
1000.0,177977.3,-32.97986,70.9855
2154.4346900318824,131236.2,-56.05822,70.9708
4641.588833612777,87635.65,-62.80721,70.99
10000.0,44540.09,-74.7079,71.0024
