Frequency,Impedance,Phase Angle,Temperature (Dry Bath)
10.0,3805618.0,-25.35101,70.4917
21.544346900318832,5495742.0,-22.25981,70.4961
46.41588833612777,4438981.0,-32.52975,70.5
100.0,1310977.0,116.9744,70.4991
215.44346900318823,849288.1,121.807,70.4871
464.15888336127773,855149.0,-20.5747,70.4881
1000.0,714353.8,128.7998,70.487
2154.4346900318824,290143.6,-57.73468,70.4972
4641.588833612777,121055.7,-81.76351,70.4902
10000.0,55028.17,-93.18892,70.5105
