Frequency,Impedance,Phase Angle,Temperature (Dry Bath)
10.0,5143603.0,-17.27579,66.3511
21.544346900318832,4145493.0,-20.63357,66.3528
46.41588833612777,4098472.0,-36.70906,66.3486
100.0,1546452.0,-69.81936,66.3556
215.44346900318823,572896.5,25.575,66.3431
464.15888336127773,709666.1,-10.03225,66.3488
1000.0,386831.6,-65.80475,66.3583
2154.4346900318824,265976.3,-98.23424,66.3445
4641.588833612777,127995.4,-86.8418,66.346
10000.0,60232.74,-85.24674,66.3539
