Frequency,Impedance,Phase Angle,Temperature (Dry Bath)
10.0,121207.4,-16.17777,71.1569
21.544346900318832,106913.8,-13.73316,71.1499
46.41588833612777,96385.66,-12.26064,71.1476
100.0,86600.73,-18.61123,71.1542
215.44346900318823,83483.92,-13.59326,71.15
464.15888336127773,77073.07,-8.440981,71.1621
1000.0,71683.24,-10.37753,71.1502
2154.4346900318824,62639.44,-21.7712,71.1379
4641.588833612777,53753.68,-34.92611,71.1498
10000.0,41934.07,-51.87889,71.1451
