Frequency,Impedance,Phase Angle,Temperature (Dry Bath)
10.0,178322.3,-15.51764,71.1223
21.544346900318832,156143.4,-14.52812,71.1288
46.41588833612777,142389.7,-14.33485,71.1168
100.0,88704.25,-2.171848,71.1381
215.44346900318823,98333.88,-28.66263,71.1435
464.15888336127773,100166.0,-1.72163,71.1202
1000.0,98500.76,-9.954209,71.1306
2154.4346900318824,120810.7,-16.72728,71.1391
4641.588833612777,71542.15,-21.83776,71.1393
10000.0,67825.03,-23.51043,71.14
