Frequency,Impedance,Phase Angle,Temperature (Dry Bath)
10.0,15580540.0,21.10638,71.2375
21.544346900318832,5230411.0,-8.592993,71.2359
46.41588833612777,2941511.0,-17.4296,71.2541
100.0,761576.9,64.24973,71.2463
215.44346900318823,36139.13,11.7835,71.2374
464.15888336127773,1001640.0,69.81992,71.2298
1000.0,385146.0,-97.95782,71.2339
2154.4346900318824,251193.7,-60.48008,71.2248
4641.588833612777,142018.6,-86.46148,71.2426
10000.0,55835.12,-85.80371,71.2417
