Frequency,Impedance,Phase Angle,Temperature (Dry Bath)
10.0,4049502.0,3.679454,70.8964
21.544346900318832,3625612.0,-4.00182,70.9051
46.41588833612777,3873053.0,-49.89329,70.9003
100.0,573780.8,-63.18732,70.9161
215.44346900318823,15642080.0,-136.4882,70.9059
464.15888336127773,649141.5,-138.1002,70.9058
1000.0,443714.4,-69.73163,70.9069
2154.4346900318824,160656.4,-75.96313,70.9019
4641.588833612777,94948.59,-78.00283,70.9032
10000.0,43156.59,-87.32895,70.9073
