Frequency,Impedance,Phase Angle,Temperature (Dry Bath)
10.0,2835755.0,3.03736,71.3191
21.544346900318832,2905820.0,-3.826475,71.3192
46.41588833612777,3028362.0,-12.39427,71.3153
100.0,324409.5,-0.8541236,71.3223
215.44346900318823,352191.2,165.1072,71.3415
464.15888336127773,478357.6,-82.46681,71.3227
1000.0,366236.3,-55.35676,71.3337
2154.4346900318824,268833.0,-80.93369,71.3213
4641.588833612777,119070.7,-75.82012,71.3333
10000.0,55724.06,-85.43796,71.3234
