Frequency,Impedance,Phase Angle,Temperature (Dry Bath)
10.0,410898.1,-25.88603,71.0323
21.544346900318832,338370.4,-23.73805,71.0226
46.41588833612777,287264.2,-20.71817,71.0386
100.0,205811.1,-43.44402,71.0169
215.44346900318823,181306.5,-29.21689,71.0114
464.15888336127773,189216.8,-42.5491,71.0082
1000.0,202922.4,-27.86578,71.0222
2154.4346900318824,121776.2,-37.34714,71.0164
4641.588833612777,88772.55,-62.13146,71.0207
10000.0,47516.45,-68.99289,71.0337
