Frequency,Impedance,Phase Angle,Temperature (Dry Bath)
10.0,6019382.0,18.7634,70.9382
21.544346900318832,4181752.0,-0.8658367,70.938
46.41588833612777,3357994.0,-37.7158,70.9232
100.0,792907.3,-61.76307,70.9379
215.44346900318823,352551.5,163.3088,70.9345
464.15888336127773,658438.9,-75.69653,70.9441
1000.0,624532.4,-159.7614,70.953
2154.4346900318824,322096.5,-111.8538,70.9543
4641.588833612777,121843.1,-82.1686,70.9531
10000.0,63920.45,-84.8105,70.9504
