Frequency,Impedance,Phase Angle,Temperature (Dry Bath)
10.0,170249.2,-11.99092,65.6876
21.544346900318832,156262.4,-10.83737,65.7033
46.41588833612777,144506.4,-9.803702,65.7096
100.0,117056.4,-7.21771,65.7108
215.44346900318823,11602.09,57.7591,65.6985
464.15888336127773,108615.9,-9.882782,65.7043
1000.0,99443.04,-19.13972,65.7208
2154.4346900318824,89996.71,-23.45778,65.7164
4641.588833612777,70447.25,-31.76783,65.7313
10000.0,53087.1,-56.60559,65.7247
