Frequency,Impedance,Phase Angle,Temperature (Dry Bath)
10.0,6747255.0,36.27296,71.4294
21.544346900318832,4861395.0,-11.15528,71.4394
46.41588833612777,4893055.0,-14.06763,71.4259
100.0,275943.0,100.1354,71.4508
215.44346900318823,489570.0,45.5245,71.4278
464.15888336127773,705080.8,-22.80558,71.4409
1000.0,1785114.0,-33.33794,71.4342
2154.4346900318824,376806.2,-34.3416,71.4281
4641.588833612777,116252.0,-86.63465,71.426
10000.0,59371.48,-92.36487,71.4274
