Frequency,Impedance,Phase Angle,Temperature (Dry Bath)
10.0,6356838.0,5.457986,66.4226
21.544346900318832,5453113.0,-5.392978,66.419
46.41588833612777,4127940.0,-24.03226,66.4296
100.0,816900.9,60.77172,66.4205
215.44346900318823,350725.8,-97.85734,66.4248
464.15888336127773,714823.1,-56.55844,66.4167
1000.0,1396679.0,-56.38865,66.4267
2154.4346900318824,236326.2,-85.30286,66.4159
4641.588833612777,128302.5,-79.52606,66.4182
10000.0,60648.05,-88.78222,66.4215
