Frequency,Impedance,Phase Angle,Temperature (Dry Bath)
10.0,70696.22,-10.22843,71.0321
21.544346900318832,65710.71,-8.630583,71.0453
46.41588833612777,61793.08,-7.484153,71.0555
100.0,66168.65,-3.006178,71.0486
215.44346900318823,52882.5,-10.57748,71.0569
464.15888336127773,51864.25,-3.269406,71.0469
1000.0,46160.3,2.746919,71.0574
2154.4346900318824,46618.27,-18.34345,71.0726
4641.588833612777,42030.26,-13.59439,71.0554
10000.0,36978.12,-36.59459,71.0692
