Frequency,Impedance,Phase Angle,Temperature (Dry Bath)
10.0,5043312.0,-8.489917,71.7493
21.544346900318832,6266119.0,-6.328455,71.7569
46.41588833612777,4501733.0,-9.261024,71.7631
100.0,287864.0,-57.46911,71.7769
215.44346900318823,681130.4,100.0223,71.7542
464.15888336127773,663469.3,-9.812134,71.7615
1000.0,555065.2,131.4173,71.75
2154.4346900318824,306462.6,-71.59917,71.7702
4641.588833612777,230279.9,-109.2719,71.7539
10000.0,125806.1,-86.44269,71.7678
