Frequency,Impedance,Phase Angle,Temperature (Dry Bath)
10.0,5605052.0,-23.51997,71.4165
21.544346900318832,5521790.0,-1.56282,71.4
46.41588833612777,8559014.0,5.047304,71.4351
100.0,4100146.0,-54.10585,71.414
215.44346900318823,3098150.0,167.528,71.4081
464.15888336127773,642717.8,-96.76904,71.3988
1000.0,937335.5,-76.84615,71.4155
2154.4346900318824,501597.0,-77.32173,71.4152
4641.588833612777,254589.9,-94.04119,71.4137
10000.0,131021.2,-79.18373,71.4235
