Frequency,Impedance,Phase Angle,Temperature (Dry Bath)
10.0,4852464.0,-6.543419,66.3668
21.544346900318832,5043658.0,-26.99041,66.3737
46.41588833612777,3851694.0,-7.197997,66.3747
100.0,1344816.0,152.3638,66.3749
215.44346900318823,532809.3,167.6886,66.3703
464.15888336127773,734153.7,-92.83591,66.3555
1000.0,380070.8,-91.08226,66.3613
2154.4346900318824,345935.2,-71.65134,66.3781
4641.588833612777,139834.7,-89.01432,66.3753
10000.0,75100.11,-81.74667,66.3717
