Frequency,Impedance,Phase Angle,Temperature (Dry Bath)
10.0,3894307.0,12.64115,71.2279
21.544346900318832,3684120.0,-1.004425,71.2278
46.41588833612777,5154890.0,-12.88657,71.2333
100.0,236978.5,-3.650218,71.2253
215.44346900318823,1901465.0,39.87273,71.2337
464.15888336127773,1093302.0,-8.336143,71.22
1000.0,554793.3,-55.32833,71.2407
2154.4346900318824,424404.4,-22.47772,71.2267
4641.588833612777,337496.4,-69.8594,71.2167
10000.0,167920.4,-80.70808,71.2245
