Frequency,Impedance,Phase Angle,Temperature (Dry Bath)
10.0,6107224.0,-14.74767,71.3086
21.544346900318832,6125028.0,-32.74394,71.3071
46.41588833612777,5498372.0,-24.03826,71.3264
100.0,1355119.0,70.35068,71.3179
215.44346900318823,599450.2,-15.47815,71.3175
464.15888336127773,540734.5,-51.79764,71.3105
1000.0,923704.4,-8.159659,71.3048
2154.4346900318824,255430.2,-103.2463,71.2963
4641.588833612777,165545.7,-86.27763,71.3172
10000.0,65802.58,-82.69005,71.3428
