Frequency,Impedance,Phase Angle,Temperature (Dry Bath)
10.0,79132.9,-14.94173,71.4766
21.544346900318832,70625.79,-12.74933,71.4742
46.41588833612777,63898.7,-12.03362,71.4708
100.0,62114.26,-11.48261,71.4626
215.44346900318823,55974.95,-11.89104,71.4761
464.15888336127773,46233.07,-8.952682,71.4859
1000.0,45211.5,-9.027204,71.4804
2154.4346900318824,43376.75,-16.88539,71.4781
4641.588833612777,38453.61,-12.44605,71.4809
10000.0,36944.9,-24.55201,71.4788
