Frequency,Impedance,Phase Angle,Temperature (Dry Bath)
10.0,33953.46,-10.86516,70.9293
21.544346900318832,31629.26,-9.390173,70.9232
46.41588833612777,29556.5,-8.853315,70.9211
100.0,26461.6,-10.84264,70.9177
215.44346900318823,25848.61,-8.440912,70.9327
464.15888336127773,24275.71,-9.541803,70.9197
1000.0,22846.14,-8.238399,70.9146
2154.4346900318824,21140.84,-10.28038,70.9346
4641.588833612777,20007.76,-15.01317,70.9285
10000.0,17683.73,-22.64181,70.9194
