Frequency,Impedance,Phase Angle,Temperature (Dry Bath)
10.0,9792083.0,-20.70931,71.4122
21.544346900318832,3441479.0,-10.97088,71.4119
46.41588833612777,4626596.0,-15.66457,71.4289
100.0,377114.4,34.95201,71.4227
215.44346900318823,1001056.0,-79.11724,71.4227
464.15888336127773,467278.8,-31.87842,71.4197
1000.0,619734.5,-41.82801,71.4225
2154.4346900318824,204020.8,-102.6257,71.4131
4641.588833612777,135735.1,-79.1589,71.4165
10000.0,75188.99,-87.74557,71.4135
