Frequency,Impedance,Phase Angle,Temperature (Dry Bath)
10.0,5444159.0,-11.77842,71.3397
21.544346900318832,5911269.0,-16.42539,71.3334
46.41588833612777,3893890.0,-29.83038,71.3315
100.0,1046681.0,-91.4352,71.3284
215.44346900318823,648894.5,111.9971,71.3276
464.15888336127773,1113278.0,-145.4411,71.3255
1000.0,220283.9,-74.63284,71.3575
2154.4346900318824,328898.0,-50.27372,71.3656
4641.588833612777,150994.2,-72.69634,71.3366
10000.0,65870.79,-88.18767,71.3406
