Frequency,Impedance,Phase Angle,Temperature (Dry Bath)
10.0,5948979.0,-1.981679,71.372
21.544346900318832,5387830.0,-12.19332,71.3525
46.41588833612777,5715406.0,-0.9543793,71.3527
100.0,636645.2,149.7413,71.3732
215.44346900318823,2965526.0,96.06844,71.3684
464.15888336127773,737829.5,-171.8412,71.3666
1000.0,830997.9,-65.96136,71.353
2154.4346900318824,871987.8,-95.84614,71.3701
4641.588833612777,326713.1,-67.86918,71.3736
10000.0,115701.7,-90.64273,71.3689
