Frequency,Impedance,Phase Angle,Temperature (Dry Bath)
10.0,93425.29,-15.1134,71.4996
21.544346900318832,83217.38,-13.32583,71.4915
46.41588833612777,75651.44,-11.97048,71.4852
100.0,63543.37,-6.795936,71.4915
215.44346900318823,58479.23,-9.440382,71.4878
464.15888336127773,54825.01,-9.621254,71.4687
1000.0,56763.97,-6.266055,71.4756
2154.4346900318824,52449.98,-18.15668,71.4745
4641.588833612777,43292.02,-22.20266,71.483
10000.0,39302.26,-29.8777,71.4929
