Frequency,Impedance,Phase Angle,Temperature (Dry Bath)
10.0,7647.167,-35.87238,71.3112
21.544346900318832,5764.372,-31.53368,71.305
46.41588833612777,4513.531,-27.24204,71.3124
100.0,3637.195,-23.13485,71.3151
215.44346900318823,3068.131,-19.22964,71.3062
464.15888336127773,2663.74,-16.03078,71.2993
1000.0,2412.19,-12.96786,71.3007
2154.4346900318824,2164.449,-11.50441,71.3145
4641.588833612777,1995.151,-9.688344,71.3127
10000.0,1863.543,-9.152314,71.302
