Frequency,Impedance,Phase Angle,Temperature (Dry Bath)
10.0,5537133.0,-17.01727,28.127
21.544346900318832,4489598.0,15.05428,28.1283
46.41588833612777,5022529.0,-5.2355,28.3039
100.0,567368.1,175.3546,28.2794
215.44346900318823,1407216.0,9.495692,28.1378
464.15888336127773,937827.1,-55.23799,28.1224
1000.0,772227.2,5.759915,28.3598
2154.4346900318824,501070.7,-92.86253,28.2563
4641.588833612777,403532.5,-55.80463,28.3034
10000.0,151548.5,-79.36322,27.7835
