Frequency,Impedance,Phase Angle,Temperature (Dry Bath)
10.0,4857664.0,-35.44643,66.4074
21.544346900318832,4705359.0,10.38085,66.4186
46.41588833612777,3717471.0,-36.79251,66.4216
100.0,373176.0,-23.94549,66.4141
215.44346900318823,1831127.0,-128.2825,66.4168
464.15888336127773,549396.0,-43.90235,66.4203
1000.0,576544.4,-68.4043,66.4186
2154.4346900318824,244086.0,-94.02839,66.4111
4641.588833612777,131361.7,-93.93924,66.4097
10000.0,62171.1,-86.12149,66.4135
