Frequency,Impedance,Phase Angle,Temperature (Dry Bath)
10.0,6125926.0,-44.11533,71.3309
21.544346900318832,6585641.0,-27.80159,71.3144
46.41588833612777,4703053.0,-33.71344,71.3126
100.0,491882.0,-46.28998,71.3177
215.44346900318823,1007595.0,-0.276365,71.3195
464.15888336127773,1050664.0,-93.97877,71.3153
1000.0,566549.1,-139.2119,71.3275
2154.4346900318824,353986.8,-60.49492,71.3119
4641.588833612777,137726.8,-84.52384,71.3255
10000.0,57947.18,-79.95861,71.3191
