Frequency,Impedance,Phase Angle,Temperature (Dry Bath)
10.0,4057418.0,1.711332,70.9736
21.544346900318832,5495421.0,17.50689,70.9792
46.41588833612777,5535760.0,-14.43123,70.988
100.0,1100570.0,7.693678,70.9614
215.44346900318823,2992553.0,-62.67518,70.9589
464.15888336127773,1832856.0,-146.5307,70.9617
1000.0,424930.2,-43.63391,70.969
2154.4346900318824,340197.0,-103.3826,70.9703
4641.588833612777,130046.8,-76.71613,70.9786
10000.0,60873.51,-90.86814,70.9742
