Frequency,Impedance,Phase Angle,Temperature (Dry Bath)
10.0,4435546.0,-29.25942,71.638
21.544346900318832,6037525.0,24.63233,71.6339
46.41588833612777,5788436.0,-13.37977,71.6351
100.0,706544.0,74.97973,71.6443
215.44346900318823,1164921.0,-80.99592,71.6305
464.15888336127773,3011514.0,-101.3515,71.6471
1000.0,1597613.0,-161.4118,71.6552
2154.4346900318824,1800786.0,-23.59391,71.6548
4641.588833612777,279198.3,-79.34872,71.6412
10000.0,169549.4,-85.8031,71.6366
