Frequency,Impedance,Phase Angle,Temperature (Dry Bath)
10.0,8492068.0,-19.14218,71.2031
21.544346900318832,4888578.0,4.385049,71.2098
46.41588833612777,7328548.0,-41.175,71.2026
100.0,4581932.0,-31.65981,71.2021
215.44346900318823,553853.6,-33.42456,71.1778
464.15888336127773,816049.3,-43.63003,71.2127
1000.0,433084.5,-89.36205,71.2194
2154.4346900318824,235904.6,-79.73521,71.1997
4641.588833612777,121855.8,-88.00398,71.1933
10000.0,64031.62,-75.63824,71.2088
