Frequency,Impedance,Phase Angle,Temperature (Dry Bath)
10.0,177114.3,-12.6998,66.3703
21.544346900318832,158391.5,-11.47411,66.3794
46.41588833612777,147172.5,-10.38374,66.3795
100.0,109761.9,-22.53212,66.3809
215.44346900318823,101855.3,14.50779,66.3676
464.15888336127773,113782.1,-10.42792,66.3679
1000.0,100561.0,-13.12254,66.3617
2154.4346900318824,95312.41,-22.6941,66.3819
4641.588833612777,82197.53,-36.10935,66.3793
10000.0,52825.92,-62.42544,66.3855
