Frequency,Impedance,Phase Angle,Temperature (Dry Bath)
10.0,3821293.0,-29.6111,71.2322
21.544346900318832,3547535.0,-14.11629,71.2336
46.41588833612777,4388624.0,-8.241095,71.2332
100.0,703209.6,-73.00032,71.2337
215.44346900318823,3571457.0,-88.1524,71.2233
464.15888336127773,514052.4,-75.80912,71.2274
1000.0,2753829.0,-48.10812,71.2017
2154.4346900318824,240313.0,-78.45738,71.2192
4641.588833612777,136538.8,-93.84048,71.2295
10000.0,56266.43,-79.83326,71.1938
