Frequency,Impedance,Phase Angle,Temperature (Dry Bath)
10.0,4332322.0,-19.32312,70.8653
21.544346900318832,4237965.0,-9.395877,70.8886
46.41588833612777,5361120.0,-20.52974,70.8826
100.0,434879.1,168.8721,70.8758
215.44346900318823,998536.5,-11.00652,70.8766
464.15888336127773,442921.7,-9.563483,70.8786
1000.0,920368.1,7.391766,70.8714
2154.4346900318824,480254.3,-104.3305,70.8915
4641.588833612777,113049.7,-101.2054,70.8948
10000.0,56746.43,-84.495,70.8852
