Frequency,Impedance,Phase Angle,Temperature (Dry Bath)
10.0,518946.5,-26.63854,66.2411
21.544346900318832,417697.4,-25.83163,66.2433
46.41588833612777,336804.6,-24.94179,66.2323
100.0,329696.2,-25.23512,66.2388
215.44346900318823,183964.6,-13.27272,66.2336
464.15888336127773,253184.7,-16.13976,66.2268
1000.0,239411.7,-55.46255,66.234
2154.4346900318824,123844.3,-38.2283,66.2309
4641.588833612777,98688.75,-55.73865,66.2284
10000.0,47559.73,-67.57769,66.2439
