Frequency,Impedance,Phase Angle,Temperature (Dry Bath)
10.0,12673.15,-26.44326,71.2646
21.544346900318832,10248.35,-23.82442,71.2709
46.41588833612777,8460.063,-21.27606,71.2529
100.0,7210.511,-18.18294,71.2714
215.44346900318823,6395.195,5.958031,71.2525
464.15888336127773,5527.451,-13.61164,71.2498
1000.0,4945.082,-12.65577,71.2398
2154.4346900318824,4481.468,-11.30647,71.2617
4641.588833612777,4114.018,-11.6124,71.2476
10000.0,3794.304,-12.24477,71.2713
