Frequency,Impedance,Phase Angle,Temperature (Dry Bath)
10.0,13543.94,-20.77318,70.8882
21.544346900318832,11643.69,-17.63121,70.8946
46.41588833612777,10201.66,-15.25651,70.8999
100.0,9151.449,-12.98053,70.8903
215.44346900318823,8167.654,-11.25904,70.8845
464.15888336127773,7614.835,-9.805587,70.9044
1000.0,6880.193,-8.667437,70.9085
2154.4346900318824,6439.253,-8.551082,70.8909
4641.588833612777,6158.478,-8.663574,70.9037
10000.0,5802.758,-10.66344,70.8868
