Frequency,Impedance,Phase Angle,Temperature (Dry Bath)
10.0,5344662.0,4.9832,25.7255
21.544346900318832,4571865.0,2.147163,25.938
46.41588833612777,5462372.0,-33.35691,26.1373
100.0,487835.4,2.885417,26.0234
215.44346900318823,1925900.0,-68.99355,25.8345
464.15888336127773,1183886.0,-148.224,26.208
1000.0,369253.4,46.22977,25.9907
2154.4346900318824,876034.5,-16.94018,26.0884
4641.588833612777,392279.5,-83.25767,26.0526
10000.0,141106.5,-77.61671,25.7738
