Frequency,Impedance,Phase Angle,Temperature (Dry Bath)
10.0,2344114.0,-7.647,66.4209
21.544346900318832,2150108.0,-8.061128,66.4182
46.41588833612777,1593426.0,-23.64521,66.4282
100.0,1225565.0,55.84407,66.425
215.44346900318823,438132.8,-19.03669,66.4119
464.15888336127773,2990977.0,9.271799,66.4238
1000.0,420499.2,-42.44004,66.432
2154.4346900318824,220587.4,-62.43096,66.4181
4641.588833612777,151924.7,-92.84178,66.4261
10000.0,60386.12,-80.56339,66.4256
