Frequency,Impedance,Phase Angle,Temperature (Dry Bath)
10.0,5991544.0,-15.0331,70.3904
21.544346900318832,10346820.0,-29.67164,70.4041
46.41588833612777,6796738.0,-9.219866,70.3989
100.0,648317.1,-18.58868,70.4039
215.44346900318823,648530.7,-141.6611,70.3921
464.15888336127773,893230.9,-93.86875,70.4051
1000.0,300147.3,-77.14696,70.4002
2154.4346900318824,253069.3,-75.78151,70.4026
4641.588833612777,140047.5,-81.68853,70.395
10000.0,57745.44,-81.62421,70.4201
