Frequency,Impedance,Phase Angle,Temperature (Dry Bath)
10.0,5548490.0,-13.2155,71.0576
21.544346900318832,6325581.0,-12.698,71.0413
46.41588833612777,3322187.0,-39.11971,71.0534
100.0,2137110.0,153.5835,71.0632
215.44346900318823,1117969.0,-110.6704,71.0441
464.15888336127773,529554.1,-50.77444,71.0413
1000.0,326695.7,-69.14616,71.047
2154.4346900318824,244706.4,-60.18413,71.0369
4641.588833612777,111380.8,-87.22681,71.0555
10000.0,53839.26,-95.58781,71.0394
