Frequency,Impedance,Phase Angle,Temperature (Dry Bath)
10.0,17627.09,-18.04296,71.3234
21.544346900318832,15367.44,-16.61186,71.3166
46.41588833612777,13492.77,-16.09144,71.2976
100.0,11604.44,-15.72491,71.3088
215.44346900318823,10651.76,-14.52774,71.3011
464.15888336127773,9293.452,-13.05744,71.308
1000.0,8470.679,-11.93456,71.3056
2154.4346900318824,7692.294,-11.03946,71.3161
4641.588833612777,7066.485,-10.57409,71.3129
10000.0,6555.194,-9.921132,71.3048
