Frequency,Impedance,Phase Angle,Temperature (Dry Bath)
10.0,23725.1,-19.65304,70.8848
21.544346900318832,20295.13,-17.59518,70.8863
46.41588833612777,17724.8,-15.6533,70.8988
100.0,15874.43,-14.68933,70.9031
215.44346900318823,14084.83,-10.86424,70.9163
464.15888336127773,13022.99,-11.6433,70.9082
1000.0,11688.4,-10.28816,70.9109
2154.4346900318824,10639.75,-9.707719,70.9157
4641.588833612777,10333.28,-12.13876,70.9207
10000.0,9505.1,-16.23433,70.8877
