Frequency,Impedance,Phase Angle,Temperature (Dry Bath)
10.0,1148069.0,-10.28482,65.7196
21.544346900318832,1064506.0,-11.05389,65.7212
46.41588833612777,1064531.0,-11.69119,65.7355
100.0,376527.7,5.7551,65.7373
215.44346900318823,184895.6,141.2854,65.7366
464.15888336127773,1714060.0,-164.585,65.7238
1000.0,220101.7,-68.63535,65.736
2154.4346900318824,206827.4,-73.68,65.7114
4641.588833612777,139384.2,-86.4945,65.7182
10000.0,65465.56,-79.56008,65.7146
