Frequency,Impedance,Phase Angle,Temperature (Dry Bath)
10.0,4907427.0,-1.925929,71.4793
21.544346900318832,4084969.0,-15.81598,71.4777
46.41588833612777,3994945.0,-10.96837,71.4737
100.0,577438.9,34.8964,71.4795
215.44346900318823,367240.3,-51.07205,71.4739
464.15888336127773,1070641.0,-79.99625,71.4633
1000.0,516774.0,-151.3258,71.4658
2154.4346900318824,294332.8,-84.18453,71.4825
4641.588833612777,142898.0,-90.27022,71.4647
10000.0,61277.94,-86.29014,71.4573
