Frequency,Impedance,Phase Angle,Temperature (Dry Bath)
10.0,3880480.0,6.632005,71.3148
21.544346900318832,7153070.0,-26.23012,71.3243
46.41588833612777,12910840.0,-16.59674,71.3211
100.0,597835.4,68.07278,71.3341
215.44346900318823,12606.16,126.7709,71.3071
464.15888336127773,537042.4,-34.25646,71.3009
1000.0,581674.3,-29.69468,71.3238
2154.4346900318824,233686.6,-66.76229,71.3292
4641.588833612777,103272.2,-88.59934,71.3168
10000.0,64557.55,-88.94262,71.3055
