Frequency,Impedance,Phase Angle,Temperature (Dry Bath)
10.0,4316426.0,-5.04919,71.5377
21.544346900318832,7165098.0,-9.853696,71.5358
46.41588833612777,4669763.0,-13.67447,71.5303
100.0,836365.9,26.81036,71.5297
215.44346900318823,606027.1,10.74389,71.5324
464.15888336127773,2938304.0,70.54891,71.5179
1000.0,1032126.0,-110.3481,71.5155
2154.4346900318824,366636.8,-36.53581,71.5259
4641.588833612777,258968.1,-74.3569,71.5203
10000.0,115991.4,-83.27113,71.5073
