Frequency,Impedance,Phase Angle,Temperature (Dry Bath)
10.0,5855046.0,-17.59248,65.6927
21.544346900318832,4688052.0,-22.20851,65.7164
46.41588833612777,5734755.0,-14.48746,65.7088
100.0,591462.6,-28.06172,65.7161
215.44346900318823,24050.73,-173.6486,65.7151
464.15888336127773,1058192.0,-92.72829,65.698
1000.0,385347.7,-66.92789,65.706
2154.4346900318824,227734.0,-68.3178,65.7299
4641.588833612777,174398.4,-92.531,65.7166
10000.0,80439.93,-88.73913,65.7141
