Frequency,Impedance,Phase Angle,Temperature (Dry Bath)
10.0,4381133.0,-17.56705,71.4052
21.544346900318832,5486642.0,-11.09839,71.4107
46.41588833612777,5439619.0,-3.388666,71.4095
100.0,569963.8,88.58487,71.4107
215.44346900318823,1311489.0,-108.8428,71.4217
464.15888336127773,668910.1,-30.23893,71.424
1000.0,936766.7,-113.9856,71.4157
2154.4346900318824,888568.0,-73.97341,71.4105
4641.588833612777,213594.3,-87.80359,71.3979
10000.0,114650.2,-82.98108,71.4285
