Frequency,Impedance,Phase Angle,Temperature (Dry Bath)
10.0,3022397.0,-22.91496,71.2908
21.544346900318832,1989612.0,-16.03421,71.2882
46.41588833612777,1723530.0,-25.26912,71.2949
100.0,802955.3,34.80696,71.2928
215.44346900318823,221234.9,9.072787,71.3028
464.15888336127773,690715.7,-72.92953,71.279
1000.0,725838.5,-79.87903,71.2778
2154.4346900318824,234675.4,-80.57204,71.2839
4641.588833612777,117009.9,-82.53569,71.2764
10000.0,59363.79,-82.1407,71.3019
