Frequency,Impedance,Phase Angle,Temperature (Dry Bath)
10.0,270149.3,-13.69084,71.0832
21.544346900318832,237280.8,-14.76468,71.096
46.41588833612777,215282.2,-15.05307,71.0896
100.0,216062.2,-3.206487,71.1044
215.44346900318823,159183.6,-52.19707,71.0993
464.15888336127773,98687.45,-28.1414,71.1111
1000.0,121150.2,-24.24358,71.1152
2154.4346900318824,121486.2,-17.09412,71.1046
4641.588833612777,87696.15,-35.51178,71.1301
10000.0,83750.16,-31.13246,71.1455
