Frequency,Impedance,Phase Angle,Temperature (Dry Bath)
10.0,169945.2,-12.06384,65.7131
21.544346900318832,156204.3,-11.30223,65.721
46.41588833612777,144790.3,-11.21836,65.7181
100.0,159132.5,-3.32477,65.724
215.44346900318823,18095.83,-142.4824,65.7213
464.15888336127773,123270.6,-14.28423,65.7245
1000.0,97712.82,-16.51841,65.7281
2154.4346900318824,99828.05,-19.03491,65.7125
4641.588833612777,76041.02,-37.66864,65.7382
10000.0,55585.64,-55.1599,65.7273
