Frequency,Impedance,Phase Angle,Temperature (Dry Bath)
10.0,6157134.0,10.06621,71.3363
21.544346900318832,5406821.0,-10.52972,71.3319
46.41588833612777,5202260.0,-22.91895,71.3393
100.0,1249292.0,-106.7468,71.348
215.44346900318823,1160461.0,-139.003,71.3235
464.15888336127773,4137145.0,-22.24192,71.3391
1000.0,423129.1,-28.67367,71.3538
2154.4346900318824,400791.2,-103.4702,71.3263
4641.588833612777,337415.3,-73.67268,71.3405
10000.0,146711.2,-78.81793,71.3301
