Frequency,Impedance,Phase Angle,Temperature (Dry Bath)
10.0,4503205.0,-14.91018,71.1791
21.544346900318832,7407552.0,9.01797,71.1988
46.41588833612777,4736619.0,-34.61073,71.1928
100.0,493013.4,78.82296,71.1848
215.44346900318823,864523.9,119.2018,71.1879
464.15888336127773,719335.6,76.16852,71.2048
1000.0,1399307.0,138.7309,71.1887
2154.4346900318824,329257.2,-118.2183,71.1899
4641.588833612777,128517.8,-81.56729,71.1886
10000.0,60022.17,-83.7888,71.1836
