Frequency,Impedance,Phase Angle,Temperature (Dry Bath)
10.0,5660058.0,32.87115,71.2298
21.544346900318832,4448246.0,15.41544,71.2312
46.41588833612777,5147832.0,-13.98618,71.2337
100.0,421856.3,-34.31392,71.2201
215.44346900318823,3093589.0,-53.9256,71.2339
464.15888336127773,862351.2,-17.03828,71.2396
1000.0,896180.7,-24.85338,71.2396
2154.4346900318824,998203.4,-130.9782,71.2227
4641.588833612777,319430.2,-85.37552,71.2237
10000.0,133346.0,-75.10862,71.2294
