Frequency,Impedance,Phase Angle,Temperature (Dry Bath)
10.0,5084377.0,29.09658,71.1655
21.544346900318832,9289926.0,-37.72033,71.1693
46.41588833612777,6313578.0,-32.73373,71.1755
100.0,1149273.0,-125.0103,71.1573
215.44346900318823,6388797.0,-40.62513,71.168
464.15888336127773,1133812.0,68.53063,71.1702
1000.0,199562.5,-109.7348,71.1856
2154.4346900318824,229158.1,-73.1394,71.1749
4641.588833612777,128840.9,-87.25289,71.181
10000.0,68243.91,-84.63544,71.1761
