Frequency,Impedance,Phase Angle,Temperature (Dry Bath)
10.0,179805.1,-12.53453,71.3781
21.544346900318832,160672.2,-11.84274,71.3716
46.41588833612777,149288.8,-11.54166,71.3617
100.0,130950.9,-19.98535,71.3743
215.44346900318823,159463.0,32.03752,71.3813
464.15888336127773,95632.09,-9.53477,71.3605
1000.0,115608.6,-24.25762,71.3766
2154.4346900318824,91268.54,-25.27084,71.3809
4641.588833612777,72744.36,-40.39222,71.3723
10000.0,48569.45,-57.00453,71.3635
