Frequency,Impedance,Phase Angle,Temperature (Dry Bath)
10.0,3773412.0,17.10657,71.4048
21.544346900318832,4992137.0,-11.86526,71.408
46.41588833612777,5111208.0,-13.32514,71.399
100.0,1325231.0,-21.13924,71.3887
215.44346900318823,1784765.0,162.9582,71.3881
464.15888336127773,1411726.0,-64.53973,71.4011
1000.0,1560569.0,-126.5795,71.3869
2154.4346900318824,488587.4,-69.64621,71.3828
4641.588833612777,249259.2,-98.67118,71.3887
10000.0,111829.3,-85.05343,71.4027
