Frequency,Impedance,Phase Angle,Temperature (Dry Bath)
10.0,46888.04,-20.44627,71.4388
21.544346900318832,40035.83,-19.86351,71.4487
46.41588833612777,33901.43,-19.8045,71.4482
100.0,28357.17,-19.87626,71.43
215.44346900318823,24195.12,-18.03917,71.44
464.15888336127773,21239.27,-16.31019,71.435
1000.0,18400.69,-15.62933,71.4562
2154.4346900318824,16614.36,-14.9039,71.429
4641.588833612777,14693.68,-13.93901,71.4331
10000.0,13520.4,-14.65841,71.435
