Frequency,Impedance,Phase Angle,Temperature (Dry Bath)
10.0,3975562.0,-27.71858,71.5232
21.544346900318832,3814501.0,-3.522732,71.497
46.41588833612777,5387863.0,8.299947,71.5167
100.0,404182.7,2.038221,71.5049
215.44346900318823,1668398.0,130.5242,71.5063
464.15888336127773,2685896.0,-9.246784,71.5233
1000.0,850974.4,-50.11098,71.5236
2154.4346900318824,987384.1,-4.454681,71.5196
4641.588833612777,205061.0,-84.01143,71.5165
10000.0,113743.0,-90.71609,71.5239
