Frequency,Impedance,Phase Angle,Temperature (Dry Bath)
10.0,400255.5,-22.36136,71.0753
21.544346900318832,319965.9,-23.58079,71.0743
46.41588833612777,264907.4,-21.21807,71.0586
100.0,133172.4,-15.82802,71.0478
215.44346900318823,189503.6,-11.77306,71.0611
464.15888336127773,171425.9,-21.66835,71.0679
1000.0,121604.5,-25.04861,71.0702
2154.4346900318824,118493.9,-40.44193,71.0583
4641.588833612777,76208.23,-48.75481,71.0724
10000.0,43457.12,-73.32188,71.0668
