Frequency,Impedance,Phase Angle,Temperature (Dry Bath)
10.0,1511776.0,-21.35437,70.9402
21.544346900318832,1158796.0,-23.02854,70.9367
46.41588833612777,1018494.0,-26.60907,70.9282
100.0,292560.3,-96.40567,70.9355
215.44346900318823,668421.7,-95.70866,70.9268
464.15888336127773,420670.7,-14.43885,70.9347
1000.0,713554.9,-27.75704,70.9333
2154.4346900318824,176613.3,-68.03068,70.9352
4641.588833612777,94230.72,-78.13151,70.9281
10000.0,50182.17,-78.44854,70.9173
