Frequency,Impedance,Phase Angle,Temperature (Dry Bath)
10.0,5577692.0,-7.386258,70.9022
21.544346900318832,4064695.0,-32.36866,70.9186
46.41588833612777,6621990.0,-15.73122,70.9055
100.0,896703.7,-46.96242,70.9061
215.44346900318823,502118.3,-77.22166,70.9062
464.15888336127773,967211.2,-116.236,70.9017
1000.0,490365.2,-164.52,70.9155
2154.4346900318824,271021.9,-97.60542,70.8992
4641.588833612777,118471.7,-85.02233,70.9009
10000.0,56044.39,-86.62005,70.9028
