Frequency,Impedance,Phase Angle,Temperature (Dry Bath)
10.0,80744.51,-11.6071,71.4303
21.544346900318832,73911.84,-9.9493,71.4153
46.41588833612777,68626.66,-8.585842,71.422
100.0,67837.23,-14.96334,71.4212
215.44346900318823,61381.49,-12.46468,71.4314
464.15888336127773,55582.09,-8.708933,71.4187
1000.0,57778.24,-11.79655,71.4206
2154.4346900318824,64249.72,0.3649082,71.4134
4641.588833612777,55144.44,-11.87297,71.4278
10000.0,43401.54,-32.19493,71.4336
