Frequency,Impedance,Phase Angle,Temperature (Dry Bath)
10.0,203992.4,-26.29062,66.3596
21.544346900318832,162829.1,-24.95018,66.3458
46.41588833612777,134934.6,-22.97277,66.3633
100.0,104792.2,-22.72553,66.3545
215.44346900318823,91974.75,-22.62911,66.3592
464.15888336127773,83459.2,-9.939501,66.3743
1000.0,73198.8,-15.95504,66.3747
2154.4346900318824,66435.29,-23.3379,66.3644
4641.588833612777,49877.95,-34.44901,66.3701
10000.0,34634.32,-52.18377,66.3718
