Frequency,Impedance,Phase Angle,Temperature (Dry Bath)
10.0,5345435.0,-23.43888,71.2746
21.544346900318832,3341009.0,-16.34473,71.2824
46.41588833612777,7072258.0,-16.29942,71.2876
100.0,613010.2,-98.12281,71.2906
215.44346900318823,896771.2,-131.0027,71.2828
464.15888336127773,1909668.0,40.33711,71.3122
1000.0,520814.4,-115.9508,71.2876
2154.4346900318824,336173.8,-85.54968,71.2871
4641.588833612777,129660.2,-70.06588,71.2965
10000.0,66809.04,-85.65271,71.3026
