Frequency,Impedance,Phase Angle,Temperature (Dry Bath)
10.0,4811666.0,-7.21971,71.1905
21.544346900318832,7240172.0,-8.705576,71.184
46.41588833612777,3598175.0,-30.77303,71.2019
100.0,1408871.0,-135.8746,71.1832
215.44346900318823,900997.6,56.80049,71.1663
464.15888336127773,1148528.0,-54.16482,71.1804
1000.0,992273.9,-72.672,71.1739
2154.4346900318824,399418.8,-83.28314,71.1763
4641.588833612777,147990.3,-72.47437,71.1721
10000.0,73139.9,-86.32487,71.1708
