Frequency,Impedance,Phase Angle,Temperature (Dry Bath)
10.0,24495.81,-20.13651,71.2445
21.544346900318832,20841.67,-17.68098,71.2389
46.41588833612777,18160.83,-15.61215,71.2549
100.0,15985.29,-13.90367,71.2474
215.44346900318823,14737.94,-12.85798,71.2469
464.15888336127773,13359.41,-11.46536,71.2557
1000.0,11901.35,-8.787969,71.2475
2154.4346900318824,11521.73,-10.18429,71.252
4641.588833612777,10725.31,-10.79508,71.2547
10000.0,10106.24,-15.75856,71.2543
