Frequency,Impedance,Phase Angle,Temperature (Dry Bath)
10.0,6155062.0,-27.42905,70.2328
21.544346900318832,4721811.0,-36.85681,70.2339
46.41588833612777,4066120.0,-32.13747,70.2629
100.0,348598.0,-40.13845,70.2569
215.44346900318823,654576.2,-179.6767,70.2333
464.15888336127773,586822.0,-33.03602,70.2287
1000.0,137780.6,-93.01428,70.2372
2154.4346900318824,308114.3,-82.23619,70.2549
4641.588833612777,135319.3,-71.43488,70.2482
10000.0,72064.26,-86.94436,70.2489
