Frequency,Impedance,Phase Angle,Temperature (Dry Bath)
10.0,2069027.0,-9.844783,71.3007
21.544346900318832,2109892.0,-15.999,71.3113
46.41588833612777,2481346.0,-24.93426,71.3062
100.0,2769672.0,-60.17634,71.3044
215.44346900318823,23039.44,-12.92494,71.3019
464.15888336127773,1991034.0,-97.15804,71.2974
1000.0,250650.1,-131.5477,71.3018
2154.4346900318824,252370.6,-78.98992,71.2932
4641.588833612777,109930.8,-80.33871,71.3119
10000.0,67989.35,-83.48045,71.3009
