Frequency,Impedance,Phase Angle,Temperature (Dry Bath)
10.0,7133486.0,28.28073,71.5356
21.544346900318832,5957312.0,4.556581,71.5315
46.41588833612777,6104528.0,-22.73918,71.5437
100.0,1746801.0,-56.38111,71.5441
215.44346900318823,788517.5,-85.29932,71.5313
464.15888336127773,638387.3,-9.923334,71.5403
1000.0,3025333.0,-116.8907,71.5381
2154.4346900318824,694723.7,-44.80279,71.5421
4641.588833612777,196076.7,-78.95662,71.5283
10000.0,148742.8,-83.67311,71.5422
