Frequency,Impedance,Phase Angle,Temperature (Dry Bath)
10.0,1253926.0,-12.95246,65.6448
21.544346900318832,1227009.0,-13.43029,65.6402
46.41588833612777,1023988.0,-19.06223,65.6633
100.0,1780213.0,-27.7221,65.6616
215.44346900318823,87458.84,104.6992,65.6524
464.15888336127773,238824.6,-56.09987,65.6543
1000.0,279137.9,-55.21716,65.6542
2154.4346900318824,197616.8,-69.77979,65.6544
4641.588833612777,125683.2,-87.83125,65.6545
10000.0,57509.8,-86.46504,65.6499
