Frequency,Impedance,Phase Angle,Temperature (Dry Bath)
10.0,3485827.0,11.08243,71.7251
21.544346900318832,5598754.0,-19.29646,71.7385
46.41588833612777,5639891.0,6.584414,71.7029
100.0,285173.1,-26.21681,71.7158
215.44346900318823,363789.8,-168.5484,71.7298
464.15888336127773,1819452.0,-106.2733,71.7237
1000.0,305934.5,-141.5739,71.738
2154.4346900318824,323727.1,-62.89607,71.7353
4641.588833612777,582772.1,-91.65959,71.71
10000.0,100180.1,-75.34483,71.7133
