Frequency,Impedance,Phase Angle,Temperature (Dry Bath)
10.0,133328.1,-18.30052,65.7561
21.544346900318832,116120.8,-17.00573,65.7494
46.41588833612777,100288.9,-16.60698,65.752
100.0,94466.49,-7.346515,65.7533
215.44346900318823,15316.91,-70.19652,65.7498
464.15888336127773,65339.49,-20.53217,65.7434
1000.0,59479.85,-22.44086,65.7419
2154.4346900318824,52470.56,-24.43486,65.7624
4641.588833612777,46154.07,-31.78939,65.7533
10000.0,31641.16,-40.17302,65.7455
