Frequency,Impedance,Phase Angle,Temperature (Dry Bath)
10.0,3803726.0,-25.84613,71.1021
21.544346900318832,7845156.0,-3.201551,71.121
46.41588833612777,5208382.0,-13.00687,71.1231
100.0,475464.6,-39.67217,71.1257
215.44346900318823,624404.5,71.88045,71.1219
464.15888336127773,349069.5,-45.5787,71.1203
1000.0,405654.2,-85.27687,71.1375
2154.4346900318824,292448.5,-86.17807,71.1335
4641.588833612777,129674.2,-85.90499,71.1314
10000.0,58100.15,-87.8724,71.1246
