Frequency,Impedance,Phase Angle,Temperature (Dry Bath)
10.0,10529710.0,-37.13006,71.2472
21.544346900318832,4688422.0,2.817285,71.258
46.41588833612777,5442418.0,-18.43505,71.2568
100.0,632864.3,-27.68103,71.2337
215.44346900318823,3525492.0,-105.2213,71.2454
464.15888336127773,812095.2,-155.5495,71.2575
1000.0,451220.0,-114.4651,71.2549
2154.4346900318824,303860.6,-107.0735,71.2431
4641.588833612777,127123.5,-79.85669,71.2347
10000.0,58086.51,-87.10785,71.2434
