Frequency,Impedance,Phase Angle,Temperature (Dry Bath)
10.0,4461871.0,-30.98156,71.0193
21.544346900318832,6534780.0,0.3498576,71.0289
46.41588833612777,6033391.0,-24.25623,71.0209
100.0,725216.9,141.8311,71.0291
215.44346900318823,964435.8,-13.62795,71.0313
464.15888336127773,614465.7,-30.5943,71.0228
1000.0,752956.1,-102.0734,71.023
2154.4346900318824,302636.6,-93.20383,71.0294
4641.588833612777,129093.8,-99.16109,71.0169
10000.0,81054.77,-96.61743,71.0163
