Frequency,Impedance,Phase Angle,Temperature (Dry Bath)
10.0,3604325.0,-6.240129,71.4661
21.544346900318832,5061751.0,-14.79814,71.4651
46.41588833612777,3727766.0,-38.33666,71.4725
100.0,442877.2,103.9286,71.4828
215.44346900318823,529591.6,-49.0841,71.4704
464.15888336127773,821403.7,-39.49284,71.4771
1000.0,513559.1,90.55115,71.4568
2154.4346900318824,372335.4,-77.92565,71.4664
4641.588833612777,127739.6,-87.78652,71.4587
10000.0,63494.17,-81.66688,71.4651
