Frequency,Impedance,Phase Angle,Temperature (Dry Bath)
10.0,1357834.0,-9.245955,65.6616
21.544346900318832,1292168.0,-11.28186,65.656
46.41588833612777,1100187.0,-14.99634,65.6604
100.0,437234.1,-22.24054,65.6505
215.44346900318823,17960.09,-105.6955,65.6647
464.15888336127773,348771.8,-22.65614,65.6285
1000.0,1003840.0,-81.53764,65.658
2154.4346900318824,240817.2,-59.14215,65.6517
4641.588833612777,128518.7,-72.07539,65.6404
10000.0,66952.61,-79.15047,65.6414
