Frequency,Impedance,Phase Angle,Temperature (Dry Bath)
10.0,4826039.0,15.76333,71.545
21.544346900318832,4768130.0,15.27663,71.5402
46.41588833612777,6207452.0,-17.68968,71.5609
100.0,385686.0,-17.88556,71.5452
215.44346900318823,571329.2,27.85676,71.5446
464.15888336127773,838982.4,-61.35849,71.564
1000.0,493637.6,-83.56959,71.5727
2154.4346900318824,367823.3,-107.2533,71.5551
4641.588833612777,228735.0,-91.38055,71.5437
10000.0,154992.4,-81.14784,71.5376
