Frequency,Impedance,Phase Angle,Temperature (Dry Bath)
10.0,6605167.0,-9.603882,70.6838
21.544346900318832,7120881.0,3.275987,70.6894
46.41588833612777,4202035.0,-31.37367,70.6864
100.0,548740.5,-50.31456,70.6892
215.44346900318823,397504.9,-22.78343,70.6799
464.15888336127773,1775462.0,60.88185,70.6763
1000.0,529361.6,-61.90456,70.6822
2154.4346900318824,157925.7,-93.56081,70.7007
4641.588833612777,110703.9,-79.23813,70.6824
10000.0,52989.97,-87.10901,70.6868
