Frequency,Impedance,Phase Angle,Temperature (Dry Bath)
10.0,2570464.0,-6.130119,71.2387
21.544346900318832,2156313.0,-15.33344,71.2333
46.41588833612777,2002759.0,-28.17088,71.2194
100.0,1148018.0,-174.0315,71.2225
215.44346900318823,645653.6,-152.4044,71.2228
464.15888336127773,544369.2,129.2663,71.2253
1000.0,216823.2,-74.18452,71.2347
2154.4346900318824,292083.4,-81.90338,71.2268
4641.588833612777,136273.4,-65.76404,71.2157
10000.0,65683.17,-92.02238,71.2397
