Frequency,Impedance,Phase Angle,Temperature (Dry Bath)
10.0,10120.93,-25.79307,70.5946
21.544346900318832,8246.773,-22.61129,70.6189
46.41588833612777,6914.801,-19.73052,70.6316
100.0,5891.789,-16.47714,70.5974
215.44346900318823,5229.526,-14.86851,70.6156
464.15888336127773,4716.909,-12.77919,70.6077
1000.0,4304.871,-11.81194,70.5981
2154.4346900318824,3933.919,-9.611928,70.6128
4641.588833612777,3693.368,-9.450225,70.6033
10000.0,3448.787,-10.49394,70.6048
