Frequency,Impedance,Phase Angle,Temperature (Dry Bath)
10.0,5840151.0,-20.32703,71.3719
21.544346900318832,4234733.0,-8.128627,71.3712
46.41588833612777,3968124.0,4.147355,71.3583
100.0,983813.2,-119.958,71.3657
215.44346900318823,533756.3,-18.36265,71.3571
464.15888336127773,876177.7,-135.6384,71.3656
1000.0,534038.1,-49.59354,71.3642
2154.4346900318824,406976.0,-71.79705,71.3788
4641.588833612777,160993.8,-80.78718,71.3727
10000.0,96274.66,-85.34093,71.3806
