Frequency,Impedance,Phase Angle,Temperature (Dry Bath)
10.0,10130000.0,-5.748472,71.5386
21.544346900318832,6835027.0,-17.85796,71.5299
46.41588833612777,6036543.0,-15.46184,71.5213
100.0,1311345.0,-107.3064,71.518
215.44346900318823,3593230.0,-131.6396,71.5207
464.15888336127773,1074344.0,-165.6338,71.5285
1000.0,465377.6,-107.6259,71.5365
2154.4346900318824,1026654.0,-119.8403,71.5291
4641.588833612777,299575.5,-93.44811,71.5384
10000.0,120356.9,-89.30846,71.5287
