Frequency,Impedance,Phase Angle,Temperature (Dry Bath)
10.0,227988.1,-23.49454,71.3199
21.544346900318832,189396.5,-22.68446,71.3138
46.41588833612777,159101.9,-20.04467,71.3185
100.0,104809.1,-3.90433,71.3379
215.44346900318823,113895.0,-25.70794,71.3248
464.15888336127773,99208.33,-24.01229,71.3152
1000.0,75846.78,-34.96026,71.3304
2154.4346900318824,67883.6,-24.75089,71.325
4641.588833612777,57005.43,-41.50183,71.3207
10000.0,38690.74,-52.3733,71.3103
