Frequency,Impedance,Phase Angle,Temperature (Dry Bath)
10.0,4310430.0,-13.01995,71.3063
21.544346900318832,4877451.0,4.581128,71.3102
46.41588833612777,4838977.0,-7.147984,71.3085
100.0,837449.6,-30.69728,71.3182
215.44346900318823,585366.3,-87.12046,71.3139
464.15888336127773,1671186.0,155.6841,71.3147
1000.0,397067.4,-51.35306,71.3018
2154.4346900318824,277420.0,-84.91247,71.311
4641.588833612777,132822.0,-78.6609,71.3067
10000.0,62619.7,-86.67768,71.3096
