Frequency,Impedance,Phase Angle,Temperature (Dry Bath)
10.0,4041358.0,-13.37511,65.7115
21.544346900318832,6175436.0,-0.8494173,65.734
46.41588833612777,6777594.0,2.113506,65.7362
100.0,5410914.0,49.94282,65.7226
215.44346900318823,19693.83,108.7252,65.732
464.15888336127773,1493215.0,-43.38935,65.7322
1000.0,288852.1,-87.88856,65.7212
2154.4346900318824,313729.4,-68.45494,65.7256
4641.588833612777,136882.7,-97.5988,65.7241
10000.0,66458.92,-87.20941,65.7337
