Frequency,Impedance,Phase Angle,Temperature (Dry Bath)
10.0,4127927.0,-4.170592,71.1595
21.544346900318832,3419806.0,-3.148327,71.1758
46.41588833612777,8984543.0,-31.39256,71.1827
100.0,778471.6,48.35009,71.1644
215.44346900318823,462607.3,-50.07777,71.1744
464.15888336127773,617386.5,-95.26601,71.1745
1000.0,323770.3,-91.65698,71.1655
2154.4346900318824,360137.2,-103.2578,71.1725
4641.588833612777,139451.0,-93.92681,71.1698
10000.0,57503.34,-88.5898,71.1697
