Frequency,Impedance,Phase Angle,Temperature (Dry Bath)
10.0,408494.5,-24.127,65.7488
21.544346900318832,335524.8,-24.92381,65.7518
46.41588833612777,260169.0,-26.95599,65.7369
100.0,174980.8,-28.158,65.7337
215.44346900318823,53842.09,95.40586,65.7251
464.15888336127773,146359.6,-13.73955,65.7394
1000.0,141218.1,-23.80323,65.7535
2154.4346900318824,105174.1,-37.27271,65.7341
4641.588833612777,71864.5,-46.51916,65.735
10000.0,49311.11,-62.05802,65.7238
