Frequency,Impedance,Phase Angle,Temperature (Dry Bath)
10.0,92613.27,-25.47746,71.1333
21.544346900318832,74762.57,-25.96566,71.1356
46.41588833612777,60383.02,-26.28594,71.1262
100.0,43556.56,-34.41356,71.1431
215.44346900318823,33952.6,-28.70666,71.1297
464.15888336127773,27310.35,-31.82247,71.1326
1000.0,21499.17,-29.65157,71.1405
2154.4346900318824,17118.58,-31.08644,71.1411
4641.588833612777,13315.96,-25.92638,71.1301
10000.0,10979.2,-24.93112,71.146
