Frequency,Impedance,Phase Angle,Temperature (Dry Bath)
10.0,4032327.0,-3.306277,69.7423
21.544346900318832,6064437.0,9.040514,69.75
46.41588833612777,3833477.0,-15.24942,69.7326
100.0,1042551.0,45.20984,69.7405
215.44346900318823,1726895.0,-85.40209,69.7358
464.15888336127773,1386806.0,-27.0917,69.7536
1000.0,398378.2,137.4893,69.7469
2154.4346900318824,420374.7,-80.29186,69.7345
4641.588833612777,118907.1,-74.07543,69.7418
10000.0,53899.37,-89.77856,69.7421
