Frequency,Impedance,Phase Angle,Temperature (Dry Bath)
10.0,4706657.0,-11.87905,66.3167
21.544346900318832,5192545.0,-32.23035,66.3126
46.41588833612777,3995192.0,-11.01437,66.3191
100.0,363635.0,-98.30607,66.3227
215.44346900318823,5547514.0,107.9336,66.3311
464.15888336127773,1395617.0,-53.1767,66.3199
1000.0,417519.9,-101.1814,66.3301
2154.4346900318824,307019.2,-84.02774,66.3288
4641.588833612777,165375.2,-79.48316,66.3233
10000.0,69177.72,-79.48289,66.3296
