Frequency,Impedance,Phase Angle,Temperature (Dry Bath)
10.0,7273479.0,-24.09569,71.0507
21.544346900318832,6325201.0,-14.49445,71.0572
46.41588833612777,5431360.0,-30.35627,71.0609
100.0,397326.3,-25.6897,71.0321
215.44346900318823,804364.4,-88.22419,71.0509
464.15888336127773,1699567.0,-51.20922,71.0502
1000.0,686507.6,-25.72151,71.0463
2154.4346900318824,208910.8,-118.8615,71.0337
4641.588833612777,183635.1,-80.93702,71.0327
10000.0,72726.24,-81.04576,71.0486
