Frequency,Impedance,Phase Angle,Temperature (Dry Bath)
10.0,5622851.0,-6.12587,70.5902
21.544346900318832,4048716.0,-9.007646,70.6038
46.41588833612777,5853727.0,-8.749481,70.6033
100.0,788971.7,92.18315,70.5993
215.44346900318823,585090.4,-41.21222,70.6033
464.15888336127773,836177.4,-41.77077,70.6082
1000.0,540983.8,44.36549,70.6033
2154.4346900318824,231816.4,-48.97403,70.5898
4641.588833612777,137695.2,-79.68872,70.5919
10000.0,74394.0,-78.90644,70.5917
