Frequency,Impedance,Phase Angle,Temperature (Dry Bath)
10.0,3550217.0,1.902042,70.8274
21.544346900318832,9609499.0,-32.1546,70.8427
46.41588833612777,3884612.0,-31.48623,70.8305
100.0,733454.6,-111.0989,70.8353
215.44346900318823,818597.9,0.09663187,70.845
464.15888336127773,1433457.0,-119.6352,70.8344
1000.0,235100.0,-76.40643,70.8448
2154.4346900318824,323777.2,-56.44631,70.8467
4641.588833612777,148161.4,-83.06241,70.8496
10000.0,62049.53,-87.45348,70.8389
