Frequency,Impedance,Phase Angle,Temperature (Dry Bath)
10.0,6878592.0,-15.03762,70.7246
21.544346900318832,3526347.0,-8.382205,70.7277
46.41588833612777,4732765.0,-35.70758,70.7434
100.0,647193.9,19.2727,70.7198
215.44346900318823,868575.6,1.343794,70.7206
464.15888336127773,304210.0,-88.50026,70.7308
1000.0,117978.3,-47.56785,70.7223
2154.4346900318824,310999.4,-81.80402,70.7293
4641.588833612777,196631.3,-88.68258,70.7326
10000.0,59113.53,-83.5917,70.7283
