Frequency,Impedance,Phase Angle,Temperature (Dry Bath)
10.0,177783.2,-13.2408,66.4302
21.544346900318832,160006.5,-10.73256,66.4318
46.41588833612777,144642.7,-11.43645,66.4152
100.0,121930.4,-14.06432,66.4336
215.44346900318823,126804.8,-7.938022,66.4101
464.15888336127773,111456.5,-12.22195,66.4205
1000.0,119583.7,-6.433127,66.4343
2154.4346900318824,108246.1,-17.28762,66.409
4641.588833612777,76248.06,-35.35324,66.4093
10000.0,48779.5,-52.00268,66.4221
