Frequency,Impedance,Phase Angle,Temperature (Dry Bath)
10.0,1421376.0,-3.022929,65.7765
21.544346900318832,1243612.0,-15.64627,65.8087
46.41588833612777,1107734.0,-14.40824,65.8235
100.0,396169.0,-62.99569,65.8139
215.44346900318823,34691.77,-144.9619,65.8394
464.15888336127773,1870151.0,-121.1964,65.8258
1000.0,538764.1,-29.09347,65.8155
2154.4346900318824,199597.7,-87.68005,65.8376
4641.588833612777,142760.3,-56.41427,65.8249
10000.0,67755.63,-86.32939,65.8389
