Frequency,Impedance,Phase Angle,Temperature (Dry Bath)
10.0,5343405.0,-10.76677,70.7544
21.544346900318832,3446432.0,-11.63562,70.7572
46.41588833612777,5019995.0,-31.77966,70.7423
100.0,843234.4,99.91052,70.76
215.44346900318823,2212416.0,-61.60823,70.7737
464.15888336127773,1585343.0,-70.36135,70.733
1000.0,244223.1,-49.63333,70.7504
2154.4346900318824,230512.4,-106.3392,70.7531
4641.588833612777,145541.1,-96.64106,70.7488
10000.0,63054.44,-91.77993,70.7431
