Frequency,Impedance,Phase Angle,Temperature (Dry Bath)
10.0,5842721.0,-10.86435,71.3545
21.544346900318832,5754199.0,-35.09255,71.3547
46.41588833612777,6542309.0,-47.2789,71.3559
100.0,1425810.0,-118.1775,71.3692
215.44346900318823,31167.76,-96.93183,71.3543
464.15888336127773,410239.2,-85.55014,71.3494
1000.0,324151.3,-39.81494,71.3524
2154.4346900318824,268074.8,-76.54799,71.3478
4641.588833612777,136235.1,-92.62442,71.352
10000.0,76255.73,-83.87162,71.3637
