Frequency,Impedance,Phase Angle,Temperature (Dry Bath)
10.0,5292232.0,7.808417,71.4988
21.544346900318832,8777578.0,5.734687,71.501
46.41588833612777,4508724.0,-24.71369,71.5088
100.0,397986.7,-107.574,71.5073
215.44346900318823,870641.3,10.06606,71.5009
464.15888336127773,617003.7,-9.861101,71.5036
1000.0,256234.1,-87.4316,71.4985
2154.4346900318824,337390.4,-111.2924,71.5039
4641.588833612777,116192.4,-73.09731,71.4891
10000.0,55662.72,-88.90275,71.4899
