Frequency,Impedance,Phase Angle,Temperature (Dry Bath)
10.0,5975525.0,-12.32418,70.9386
21.544346900318832,4894644.0,-22.17164,70.946
46.41588833612777,5230946.0,-18.17062,70.9439
100.0,1059697.0,-110.0606,70.94
215.44346900318823,1192047.0,-27.4967,70.9483
464.15888336127773,503420.7,135.9014,70.9427
1000.0,341080.5,-90.94242,70.9356
2154.4346900318824,518133.8,-60.74885,70.9399
4641.588833612777,168854.8,-81.59676,70.9436
10000.0,124148.9,-75.10056,70.9131
