Frequency,Impedance,Phase Angle,Temperature (Dry Bath)
10.0,5773533.0,-14.24177,71.1884
21.544346900318832,3369935.0,6.045725,71.1924
46.41588833612777,4508796.0,-4.280889,71.1971
100.0,362037.7,-14.73352,71.2073
215.44346900318823,433482.4,-88.04965,71.2014
464.15888336127773,530219.0,-43.75752,71.1979
1000.0,537020.5,-179.8558,71.2002
2154.4346900318824,447050.5,-85.74792,71.1847
4641.588833612777,117328.3,-81.11364,71.2036
10000.0,60163.23,-88.51032,71.1976
