Frequency,Impedance,Phase Angle,Temperature (Dry Bath)
10.0,8703.241,-28.05441,70.6747
21.544346900318832,6865.283,-26.98859,70.6637
46.41588833612777,5465.251,-25.31925,70.6812
100.0,4434.827,-23.04296,70.6828
215.44346900318823,3692.567,-19.95937,70.6645
464.15888336127773,3130.035,-17.21185,70.6591
1000.0,2752.665,-14.60055,70.6651
2154.4346900318824,2461.142,-12.78571,70.6741
4641.588833612777,2240.8,-11.7633,70.6817
10000.0,2069.892,-11.56623,70.6696
