Frequency,Impedance,Phase Angle,Temperature (Dry Bath)
10.0,5252816.0,-8.66257,71.2492
21.544346900318832,5625061.0,-6.013602,71.251
46.41588833612777,3658332.0,-32.99708,71.259
100.0,609282.8,-49.24997,71.2601
215.44346900318823,873075.9,-145.2284,71.261
464.15888336127773,1515758.0,-20.13414,71.2608
1000.0,905266.7,-63.62259,71.2487
2154.4346900318824,289577.2,-74.36804,71.2536
4641.588833612777,133038.8,-86.20776,71.2582
10000.0,60774.63,-89.3612,71.2422
