Frequency,Impedance,Phase Angle,Temperature (Dry Bath)
10.0,161389.9,-8.922776,66.2059
21.544346900318832,153538.8,-8.585126,66.1924
46.41588833612777,141792.1,-8.177231,66.1954
100.0,124742.4,-7.712895,66.1798
215.44346900318823,112025.4,-4.0675,66.1812
464.15888336127773,108955.4,-5.676974,66.1799
1000.0,102456.0,-21.8279,66.1843
2154.4346900318824,90672.33,-16.07287,66.1733
4641.588833612777,82965.71,-47.94293,66.1948
10000.0,43029.03,-61.56019,66.1879
