Frequency,Impedance,Phase Angle,Temperature (Dry Bath)
10.0,4435945.0,-5.478718,71.2672
21.544346900318832,7661019.0,-32.87903,71.2783
46.41588833612777,5584398.0,-40.65527,71.2574
100.0,544811.1,30.62008,71.2699
215.44346900318823,1039173.0,-46.3239,71.2813
464.15888336127773,2541704.0,-51.58395,71.2537
1000.0,1060750.0,0.9191014,71.266
2154.4346900318824,224203.4,-92.47867,71.2622
4641.588833612777,109842.0,-83.36317,71.2454
10000.0,60416.77,-82.96606,71.2577
