Frequency,Impedance,Phase Angle,Temperature (Dry Bath)
10.0,111605.3,-13.41481,71.4302
21.544346900318832,100573.9,-12.60208,71.4287
46.41588833612777,91454.61,-11.32702,71.4425
100.0,81929.52,-8.206481,71.441
215.44346900318823,69542.83,-7.557708,71.4345
464.15888336127773,66897.44,-0.3755161,71.4372
1000.0,64359.23,-13.23809,71.4429
2154.4346900318824,66340.47,-27.66964,71.4307
4641.588833612777,43451.56,-20.84394,71.4508
10000.0,45053.39,-35.10374,71.4378
