Frequency,Impedance,Phase Angle,Temperature (Dry Bath)
10.0,180090.5,-12.43951,71.2711
21.544346900318832,160340.9,-12.07989,71.2856
46.41588833612777,145845.9,-11.99942,71.2745
100.0,110192.2,-3.678829,71.2665
215.44346900318823,116556.6,-12.86371,71.2638
464.15888336127773,116850.3,-14.08353,71.2668
1000.0,112999.3,-17.61084,71.2653
2154.4346900318824,76369.29,-26.19955,71.2546
4641.588833612777,75040.43,-34.53913,71.2554
10000.0,51200.7,-55.90589,71.2511
