Frequency,Impedance,Phase Angle,Temperature (Dry Bath)
10.0,162543.3,-8.080121,65.8422
21.544346900318832,150892.7,-7.374462,65.84
46.41588833612777,142054.3,-7.110558,65.8371
100.0,159026.6,-1.654737,65.8302
215.44346900318823,16643.81,60.42728,65.831
464.15888336127773,123919.7,-18.53581,65.8298
1000.0,112690.9,-15.13151,65.851
2154.4346900318824,94625.94,-24.15571,65.8424
4641.588833612777,74612.48,-49.20911,65.8386
10000.0,49467.7,-59.20655,65.8408
