Frequency,Impedance,Phase Angle,Temperature (Dry Bath)
10.0,3265918.0,-13.41882,70.9794
21.544346900318832,8134495.0,31.60754,70.9737
46.41588833612777,4292145.0,-26.10523,70.9898
100.0,437623.8,16.89885,70.9799
215.44346900318823,487626.6,-176.9487,70.9818
464.15888336127773,873399.1,-152.7927,70.9723
1000.0,2592259.0,139.6256,71.008
2154.4346900318824,359050.3,-63.48689,70.9792
4641.588833612777,138059.0,-80.42655,70.9825
10000.0,62063.85,-85.49047,70.977
