Frequency,Impedance,Phase Angle,Temperature (Dry Bath)
10.0,84620.62,-13.9742,71.0985
21.544346900318832,76610.64,-12.22386,71.1016
46.41588833612777,69575.16,-11.16151,71.1164
100.0,60738.15,-14.00551,71.0966
215.44346900318823,57113.09,-8.163639,71.1008
464.15888336127773,57139.42,-12.04554,71.1015
1000.0,53022.01,-11.13181,71.1046
2154.4346900318824,46134.15,-17.10481,71.1122
4641.588833612777,41580.38,-32.66261,71.1127
10000.0,32138.16,-41.47057,71.1057
