Frequency,Impedance,Phase Angle,Temperature (Dry Bath)
10.0,12543.99,-26.31983,71.2629
21.544346900318832,10161.56,-23.73948,71.2257
46.41588833612777,8410.749,-21.08706,71.2344
100.0,7273.552,-19.57589,71.2432
215.44346900318823,6264.622,-16.89845,71.2334
464.15888336127773,5495.569,-13.79502,71.2466
1000.0,4853.192,-12.99927,71.2502
2154.4346900318824,4460.131,-11.89878,71.2388
4641.588833612777,4080.584,-11.53,71.2186
10000.0,3778.124,-12.17375,71.2362
