Frequency,Impedance,Phase Angle,Temperature (Dry Bath)
10.0,7596138.0,11.88894,71.1133
21.544346900318832,3965764.0,-21.3814,71.1096
46.41588833612777,4084576.0,-31.85887,71.1061
100.0,505767.5,23.66245,71.1012
215.44346900318823,873440.7,-18.54381,71.1055
464.15888336127773,2172524.0,-68.33004,71.1129
1000.0,426018.8,-78.61417,71.096
2154.4346900318824,262989.1,-86.47988,71.116
4641.588833612777,182743.5,-112.0047,71.1135
10000.0,65168.35,-83.37175,71.1037
