Frequency,Impedance,Phase Angle,Temperature (Dry Bath)
10.0,4383578.0,-3.270481,71.2672
21.544346900318832,5132942.0,2.235284,71.2639
46.41588833612777,5290643.0,-23.99402,71.2619
100.0,320014.8,-10.72803,71.2736
215.44346900318823,766268.9,119.9681,71.2743
464.15888336127773,1094338.0,-21.24591,71.2846
1000.0,720517.2,-52.439,71.2655
2154.4346900318824,355519.3,-80.05175,71.2766
4641.588833612777,146336.6,-81.61921,71.268
10000.0,67142.13,-79.6438,71.2705
