Frequency,Impedance,Phase Angle,Temperature (Dry Bath)
10.0,3783900.0,-0.6973806,71.4325
21.544346900318832,4642993.0,-2.625534,71.4501
46.41588833612777,3872391.0,1.027001,71.4295
100.0,836480.0,100.0855,71.4548
215.44346900318823,833012.6,-108.079,71.4703
464.15888336127773,769027.1,-54.77262,71.4438
1000.0,718663.6,-66.95814,71.4439
2154.4346900318824,453477.8,-66.35529,71.4482
4641.588833612777,181926.7,-90.9371,71.4544
10000.0,94622.34,-80.1739,71.4662
