Frequency,Impedance,Phase Angle,Temperature (Dry Bath)
10.0,8977870.0,16.98833,71.329
21.544346900318832,14152050.0,-16.84114,71.33
46.41588833612777,6275103.0,-5.579865,71.3402
100.0,923905.3,51.32403,71.327
215.44346900318823,822463.4,3.674233,71.351
464.15888336127773,1782615.0,22.28041,71.3335
1000.0,628247.6,-11.78228,71.3443
2154.4346900318824,522670.4,-69.74891,71.3495
4641.588833612777,280164.6,-93.55531,71.3383
10000.0,171650.1,-89.93632,71.3313
