Frequency,Impedance,Phase Angle,Temperature (Dry Bath)
10.0,184918.5,-28.07304,65.6974
21.544346900318832,149153.5,-23.58319,65.695
46.41588833612777,122478.0,-22.42096,65.7115
100.0,93627.93,-7.665711,65.7014
215.44346900318823,83063.15,-19.33542,65.7008
464.15888336127773,80072.53,-17.84705,65.6977
1000.0,66157.08,-15.78447,65.6964
2154.4346900318824,63050.57,-25.05093,65.694
4641.588833612777,49631.69,-30.95263,65.7134
10000.0,34541.3,-44.95209,65.6862
