Frequency,Impedance,Phase Angle,Temperature (Dry Bath)
10.0,5239394.0,-8.969457,70.7707
21.544346900318832,3107537.0,-11.12304,70.7986
46.41588833612777,2953056.0,-29.58581,70.7891
100.0,496984.0,-35.20625,70.7832
215.44346900318823,450092.2,-35.98987,70.7789
464.15888336127773,2653465.0,-52.15736,70.772
1000.0,469913.2,85.99252,70.8102
2154.4346900318824,235814.1,-121.1945,70.7811
4641.588833612777,163385.8,-87.29659,70.7749
10000.0,55578.58,-81.76931,70.7873
