Frequency,Impedance,Phase Angle,Temperature (Dry Bath)
10.0,2115209.0,-7.965738,66.298
21.544346900318832,2133374.0,-26.20919,66.2873
46.41588833612777,1693398.0,-26.80291,66.2765
100.0,1004709.0,21.5302,66.2984
215.44346900318823,124534.7,-98.61725,66.2925
464.15888336127773,616861.8,-42.92795,66.2667
1000.0,633886.8,-73.28465,66.2905
2154.4346900318824,267538.7,-91.41798,66.2846
4641.588833612777,120236.0,-75.94733,66.2873
10000.0,69786.22,-80.93951,66.2704
