Frequency,Impedance,Phase Angle,Temperature (Dry Bath)
10.0,535534.8,-23.22601,66.1269
21.544346900318832,448920.9,-25.78509,66.1287
46.41588833612777,346881.4,-24.09446,66.1496
100.0,276446.9,8.397501,66.1316
215.44346900318823,323160.1,-13.68248,66.1321
464.15888336127773,169813.0,-13.95598,66.1482
1000.0,117242.9,-46.03789,66.146
2154.4346900318824,170761.1,-43.82893,66.1387
4641.588833612777,79890.49,-46.11684,66.1651
10000.0,52823.17,-65.67804,66.1491
