Frequency,Impedance,Phase Angle,Temperature (Dry Bath)
10.0,23731.45,-19.75649,70.9991
21.544346900318832,20344.18,-17.52,70.9634
46.41588833612777,17665.23,-15.65195,70.9928
100.0,15377.65,-13.07349,70.9666
215.44346900318823,14137.58,-13.91637,70.955
464.15888336127773,12677.46,-11.1191,70.992
1000.0,11449.57,-10.18335,70.9738
2154.4346900318824,10948.96,-9.128354,70.9838
4641.588833612777,10226.83,-11.22647,70.9659
10000.0,9540.707,-14.66143,70.9776
