Frequency,Impedance,Phase Angle,Temperature (Dry Bath)
10.0,3653008.0,-28.58513,70.8686
21.544346900318832,5410537.0,10.47148,70.8848
46.41588833612777,4200040.0,-28.31945,70.884
100.0,404576.3,92.53376,70.8834
215.44346900318823,535692.9,-66.7335,70.8873
464.15888336127773,2357862.0,-113.0105,70.8887
1000.0,450657.4,-147.0668,70.8825
2154.4346900318824,243291.1,-85.42135,70.8842
4641.588833612777,132317.0,-85.32837,70.898
10000.0,65300.87,-90.38485,70.871
