Frequency,Impedance,Phase Angle,Temperature (Dry Bath)
10.0,175128.2,-12.18734,71.1765
21.544346900318832,161609.1,-11.25993,71.1778
46.41588833612777,145623.9,-12.04083,71.1795
100.0,139381.9,-19.52778,71.1818
215.44346900318823,124003.7,-8.988927,71.191
464.15888336127773,108896.2,-10.2752,71.1991
1000.0,94792.22,-24.76682,71.1978
2154.4346900318824,95620.16,-27.30368,71.1917
4641.588833612777,71729.89,-32.58965,71.1813
10000.0,47414.81,-54.00375,71.1799
