Frequency,Impedance,Phase Angle,Temperature (Dry Bath)
10.0,5315734.0,-17.70638,71.2218
21.544346900318832,4392828.0,-27.52905,71.2147
46.41588833612777,4131139.0,-26.62189,71.2139
100.0,1620305.0,-44.2953,71.2159
215.44346900318823,1519736.0,-117.1939,71.2008
464.15888336127773,610115.0,-102.0884,71.2111
1000.0,493394.8,-48.55226,71.2014
2154.4346900318824,370791.3,-95.39823,71.2238
4641.588833612777,124605.0,-88.89386,71.1869
10000.0,55107.05,-84.17129,71.2041
