Frequency,Impedance,Phase Angle,Temperature (Dry Bath)
10.0,4947384.0,15.92251,66.1917
21.544346900318832,5990953.0,-6.893365,66.1823
46.41588833612777,4219712.0,-20.17713,66.1689
100.0,1672794.0,14.62426,66.1657
215.44346900318823,596393.2,107.5635,66.1684
464.15888336127773,1000929.0,-106.1566,66.1628
1000.0,420323.4,-60.73059,66.1518
2154.4346900318824,344110.8,-99.09728,66.1497
4641.588833612777,138558.6,-79.56404,66.1543
10000.0,62672.47,-79.70361,66.1462
