Frequency,Impedance,Phase Angle,Temperature (Dry Bath)
10.0,4582112.0,-0.3456102,71.4863
21.544346900318832,7054179.0,-2.387651,71.4877
46.41588833612777,7085670.0,-24.42756,71.4793
100.0,494569.3,-4.44571,71.4939
215.44346900318823,716214.7,-91.37993,71.4921
464.15888336127773,1476194.0,-49.8924,71.4831
1000.0,435790.4,-136.5273,71.4853
2154.4346900318824,270433.8,-76.48585,71.4836
4641.588833612777,118158.4,-74.15574,71.4818
10000.0,60978.63,-85.29022,71.4799
