Frequency,Impedance,Phase Angle,Temperature (Dry Bath)
10.0,174783.6,-12.24722,66.2984
21.544346900318832,160031.8,-11.64412,66.2891
46.41588833612777,146501.8,-10.71901,66.2852
100.0,133879.4,-23.34581,66.3015
215.44346900318823,106680.1,-19.82262,66.3018
464.15888336127773,115279.1,-4.908347,66.3241
1000.0,92005.78,-19.7063,66.3213
2154.4346900318824,85489.02,-17.92917,66.3228
4641.588833612777,72265.44,-35.34041,66.327
10000.0,49877.68,-48.69579,66.329
