Frequency,Impedance,Phase Angle,Temperature (Dry Bath)
10.0,510554.3,-23.55918,70.4677
21.544346900318832,414336.7,-24.86816,70.4732
46.41588833612777,323215.3,-24.01197,70.4562
100.0,133893.0,-31.63251,70.4712
215.44346900318823,279894.0,-28.3923,70.4514
464.15888336127773,300090.8,4.406971,70.4636
1000.0,158451.4,-12.04545,70.4429
2154.4346900318824,118251.0,-34.80376,70.4581
4641.588833612777,98792.17,-44.54213,70.4591
10000.0,62959.68,-80.03877,70.4653
