Frequency,Impedance,Phase Angle,Temperature (Dry Bath)
10.0,134333.5,-17.99498,66.3652
21.544346900318832,116282.7,-17.175,66.3679
46.41588833612777,100608.3,-15.75509,66.3626
100.0,91928.39,-22.17432,66.3633
215.44346900318823,98984.32,-7.446766,66.3855
464.15888336127773,70170.45,-18.64859,66.3777
1000.0,66327.76,-20.85748,66.3678
2154.4346900318824,52581.57,-22.00703,66.3793
4641.588833612777,41171.3,-33.8724,66.373
10000.0,31532.95,-45.36108,66.3737
