Frequency,Impedance,Phase Angle,Temperature (Dry Bath)
10.0,74890.85,-11.44894,70.9
21.544346900318832,69887.98,-9.430125,70.912
46.41588833612777,64868.6,-8.285627,70.8977
100.0,56531.76,-7.790301,70.9044
215.44346900318823,60744.03,-7.904091,70.9148
464.15888336127773,56528.88,-3.425424,70.8982
1000.0,48775.43,-8.796234,70.9142
2154.4346900318824,52593.41,-9.633524,70.9052
4641.588833612777,52166.61,-24.15438,70.9066
10000.0,41193.63,-26.84956,70.9218
