Frequency,Impedance,Phase Angle,Temperature (Dry Bath)
10.0,4109826.0,-7.571475,71.2439
21.544346900318832,6870677.0,-17.45987,71.2465
46.41588833612777,4263650.0,-13.41705,71.2524
100.0,559573.5,21.32843,71.2586
215.44346900318823,410699.0,-99.34115,71.2431
464.15888336127773,2882497.0,160.938,71.2404
1000.0,2468264.0,-79.95469,71.2424
2154.4346900318824,260740.5,-97.85951,71.244
4641.588833612777,152451.1,-88.87302,71.2584
10000.0,64995.87,-87.32624,71.2492
