Frequency,Impedance,Phase Angle,Temperature (Dry Bath)
10.0,3585588.0,12.50076,71.4615
21.544346900318832,7107804.0,-21.71361,71.4452
46.41588833612777,4123145.0,-22.18315,71.4514
100.0,415568.7,-113.1189,71.4435
215.44346900318823,3026618.0,-58.66727,71.4549
464.15888336127773,3250363.0,132.7432,71.4345
1000.0,1963305.0,-50.67576,71.4609
2154.4346900318824,431114.5,-85.10127,71.443
4641.588833612777,235468.0,-69.89609,71.4526
10000.0,124984.7,-88.28138,71.445
