Frequency,Impedance,Phase Angle,Temperature (Dry Bath)
10.0,153227.0,-10.40121,71.1293
21.544346900318832,140504.5,-9.510572,71.1183
46.41588833612777,132020.0,-10.1914,71.1149
100.0,103778.4,-17.39184,71.1182
215.44346900318823,112935.4,-5.19513,71.1302
464.15888336127773,103875.4,-12.06314,71.1191
1000.0,99308.02,-16.87695,71.1271
2154.4346900318824,100937.6,-21.63865,71.1045
4641.588833612777,67819.95,-49.03242,71.1228
10000.0,39595.94,-59.8629,71.1226
