Frequency,Impedance,Phase Angle,Temperature (Dry Bath)
10.0,4966274.0,9.905585,65.6327
21.544346900318832,3301038.0,-36.55589,65.6138
46.41588833612777,4183927.0,-17.6297,65.6321
100.0,1343183.0,42.96666,65.6195
215.44346900318823,230880.0,-151.87,65.6279
464.15888336127773,697324.9,67.92137,65.6317
1000.0,3027187.0,46.08972,65.6291
2154.4346900318824,292737.3,-60.89338,65.6583
4641.588833612777,139285.8,-77.04237,65.6441
10000.0,68655.92,-86.05378,65.6432
