Frequency,Impedance,Phase Angle,Temperature (Dry Bath)
10.0,3804702.0,-17.74071,71.2201
21.544346900318832,2503205.0,-28.30738,71.231
46.41588833612777,2289899.0,-24.03702,71.2337
100.0,498795.7,-96.1288,71.2405
215.44346900318823,364412.9,81.63483,71.225
464.15888336127773,617736.8,-58.51336,71.2295
1000.0,714549.2,-136.0386,71.2302
2154.4346900318824,225313.8,-87.39831,71.2377
4641.588833612777,152489.6,-82.23723,71.2203
10000.0,58198.87,-109.066,71.224
