Frequency,Impedance,Phase Angle,Temperature (Dry Bath)
10.0,5538636.0,-10.65185,65.8115
21.544346900318832,3574095.0,-21.27894,65.8356
46.41588833612777,6988465.0,-30.39679,65.8174
100.0,905821.4,-96.38333,65.8301
215.44346900318823,160798.4,-143.5891,65.8312
464.15888336127773,715731.4,-57.73697,65.8362
1000.0,316113.9,-77.82642,65.8402
2154.4346900318824,235739.8,-97.52362,65.843
4641.588833612777,159273.6,-76.66339,65.852
10000.0,78586.58,-74.87626,65.8505
