Frequency,Impedance,Phase Angle,Temperature (Dry Bath)
10.0,15344.89,-18.33671,71.1882
21.544346900318832,13334.73,-17.06174,71.186
46.41588833612777,11660.18,-16.51375,71.1857
100.0,10195.05,-14.40197,71.1913
215.44346900318823,9017.033,-14.52625,71.1944
464.15888336127773,8229.199,-13.4012,71.1943
1000.0,7284.733,-11.65956,71.1775
2154.4346900318824,6661.85,-10.32414,71.1832
4641.588833612777,6079.425,-10.44121,71.1981
10000.0,5775.362,-11.91073,71.1961
