Frequency,Impedance,Phase Angle,Temperature (Dry Bath)
10.0,1258433.0,-6.227062,71.8612
21.544346900318832,1191167.0,-8.515616,71.8647
46.41588833612777,1029073.0,-12.33169,71.8616
100.0,324892.1,-60.28774,71.8589
215.44346900318823,337555.6,-96.36001,71.8482
464.15888336127773,250381.7,-6.65669,71.8711
1000.0,368385.4,-164.2374,71.8664
2154.4346900318824,236558.6,-4.949483,71.864
4641.588833612777,364643.8,56.71966,71.8616
10000.0,97203.75,-55.02473,71.8664
