Frequency,Impedance,Phase Angle,Temperature (Dry Bath)
10.0,11924.75,-41.33521,71.3491
21.544346900318832,8462.743,-38.27959,71.3554
46.41588833612777,6143.781,-34.35868,71.3379
100.0,4650.641,-29.03132,71.3512
215.44346900318823,3710.675,-24.12788,71.3464
464.15888336127773,3125.09,-19.67478,71.3451
1000.0,2700.822,-16.38978,71.3276
2154.4346900318824,2383.754,-13.99076,71.3658
4641.588833612777,2157.009,-11.98035,71.3441
10000.0,1974.275,-10.05745,71.3431
