Frequency,Impedance,Phase Angle,Temperature (Dry Bath)
10.0,9162800.0,31.12095,71.3329
21.544346900318832,8152494.0,-35.27421,71.3487
46.41588833612777,5017767.0,-34.32631,71.3466
100.0,634560.4,-177.4727,71.3443
215.44346900318823,254190.0,-165.6503,71.3489
464.15888336127773,2275472.0,-64.56683,71.3227
1000.0,234595.1,-146.1063,71.3357
2154.4346900318824,347241.2,-58.2176,71.3336
4641.588833612777,136399.7,-83.50252,71.3495
10000.0,65050.03,-82.09141,71.34
