Frequency,Impedance,Phase Angle,Temperature (Dry Bath)
10.0,7618.389,-36.09442,71.317
21.544346900318832,5733.916,-31.69006,71.3234
46.41588833612777,4481.064,-27.44908,71.3322
100.0,3628.49,-22.95735,71.3211
215.44346900318823,3040.097,-19.35964,71.3416
464.15888336127773,2643.795,-15.81239,71.3322
1000.0,2337.126,-13.38545,71.324
2154.4346900318824,2137.145,-11.52412,71.3065
4641.588833612777,1966.591,-9.60761,71.3154
10000.0,1832.904,-8.993474,71.2987
