Frequency,Impedance,Phase Angle,Temperature (Dry Bath)
10.0,6796318.0,-25.97162,65.8397
21.544346900318832,4404831.0,-10.96686,65.8542
46.41588833612777,4543109.0,-16.56201,65.8534
100.0,838400.0,-136.4094,65.8511
215.44346900318823,5487.496,-163.2563,65.8435
464.15888336127773,2472767.0,-179.0999,65.8598
1000.0,449737.1,-117.7326,65.8502
2154.4346900318824,247188.3,-86.64425,65.8567
4641.588833612777,221319.6,-67.08229,65.8485
10000.0,76464.01,-97.37769,65.8713
