Frequency,Impedance,Phase Angle,Temperature (Dry Bath)
10.0,4612574.0,-4.253267,71.0815
21.544346900318832,4321426.0,4.288318,71.0801
46.41588833612777,3581875.0,-28.97775,71.0867
100.0,758828.2,11.45951,71.0661
215.44346900318823,1126527.0,136.8409,71.0744
464.15888336127773,988055.2,26.50334,71.088
1000.0,342413.4,-93.87789,71.0806
2154.4346900318824,279035.7,-88.24891,71.075
4641.588833612777,101515.0,-89.51936,71.0825
10000.0,62602.48,-86.29881,71.086
