Frequency,Impedance,Phase Angle,Temperature (Dry Bath)
10.0,8287765.0,7.157373,65.6813
21.544346900318832,4381328.0,-13.37876,65.6849
46.41588833612777,3043931.0,-33.94838,65.6767
100.0,1062407.0,-111.4577,65.6867
215.44346900318823,61427.88,-176.8479,65.6716
464.15888336127773,1830355.0,121.021,65.6731
1000.0,799799.7,164.3862,65.6806
2154.4346900318824,258359.2,-63.48593,65.6801
4641.588833612777,138971.6,-74.92214,65.6809
10000.0,75965.27,-90.72499,65.6795
