Frequency,Impedance,Phase Angle,Temperature (Dry Bath)
10.0,5215766.0,0.4880107,71.5522
21.544346900318832,4649136.0,-13.30766,71.5502
46.41588833612777,5346112.0,-38.04998,71.548
100.0,630339.8,-17.84024,71.5542
215.44346900318823,928389.1,151.4911,71.5526
464.15888336127773,1940683.0,-8.149206,71.5518
1000.0,655651.3,-55.06495,71.5514
2154.4346900318824,222976.7,-79.39629,71.5513
4641.588833612777,112430.2,-78.78029,71.5532
10000.0,55019.02,-85.35299,71.5493
