Frequency,Impedance,Phase Angle,Temperature (Dry Bath)
10.0,4539651.0,-31.17698,71.3323
21.544346900318832,4678858.0,-8.807159,71.3314
46.41588833612777,3936168.0,-37.9054,71.3175
100.0,380897.3,-13.12905,71.3268
215.44346900318823,446151.6,-63.92962,71.3435
464.15888336127773,690776.2,-61.17716,71.3226
1000.0,206717.2,-56.82478,71.3427
2154.4346900318824,247654.5,-46.72655,71.3465
4641.588833612777,111482.8,-78.37803,71.3288
10000.0,66127.89,-90.55135,71.3347
