Frequency,Impedance,Phase Angle,Temperature (Dry Bath)
10.0,4877063.0,1.068887,71.3201
21.544346900318832,5969163.0,-14.96472,71.3349
46.41588833612777,6681952.0,-34.71921,71.3292
100.0,438970.0,-12.32758,71.3196
215.44346900318823,1372158.0,-59.54202,71.326
464.15888336127773,1181751.0,-71.87282,71.3314
1000.0,767525.0,-51.59065,71.331
2154.4346900318824,269008.2,-77.86712,71.3145
4641.588833612777,110148.8,-84.43843,71.3189
10000.0,63798.04,-83.06331,71.3221
