Frequency,Impedance,Phase Angle,Temperature (Dry Bath)
10.0,5562937.0,-2.16415,70.9976
21.544346900318832,4120084.0,15.91265,70.9999
46.41588833612777,4449709.0,-15.92513,70.9994
100.0,323448.6,7.839458,71.0018
215.44346900318823,952962.0,60.74736,71.0191
464.15888336127773,752383.2,-0.1322793,70.9975
1000.0,355231.4,-86.34739,71.0107
2154.4346900318824,565596.4,12.81869,71.0096
4641.588833612777,322398.4,-101.4296,71.0046
10000.0,111066.6,-70.06167,71.0238
