Frequency,Impedance,Phase Angle,Temperature (Dry Bath)
10.0,4335617.0,-9.069101,70.9523
21.544346900318832,4255560.0,-16.71972,70.9478
46.41588833612777,4397974.0,-33.38873,70.9246
100.0,474866.7,125.7291,70.9416
215.44346900318823,1875643.0,66.90497,70.9451
464.15888336127773,1221088.0,-49.2513,70.9407
1000.0,426145.8,-55.56019,70.9453
2154.4346900318824,206817.9,-83.93294,70.9491
4641.588833612777,100689.2,-85.34653,70.9346
10000.0,61910.48,-89.23685,70.9472
