Frequency,Impedance,Phase Angle,Temperature (Dry Bath)
10.0,186143.8,-26.68481,65.7136
21.544346900318832,149687.2,-24.77004,65.7203
46.41588833612777,123403.1,-22.97919,65.7314
100.0,93872.55,-24.47865,65.7097
215.44346900318823,19528.99,-92.52628,65.7294
464.15888336127773,85352.82,-16.86978,65.7274
1000.0,64362.67,-18.96119,65.7323
2154.4346900318824,61247.71,-23.2466,65.7198
4641.588833612777,44589.03,-34.61459,65.7132
10000.0,36754.36,-47.24613,65.7228
