Frequency,Impedance,Phase Angle,Temperature (Dry Bath)
10.0,36688.38,-13.9402,70.7002
21.544346900318832,33494.56,-12.07261,70.6922
46.41588833612777,30820.5,-11.02418,70.6944
100.0,27813.29,-11.33446,70.6917
215.44346900318823,26561.28,-8.68205,70.6871
464.15888336127773,23794.27,-9.236647,70.6921
1000.0,22794.01,-12.92515,70.6992
2154.4346900318824,20496.42,-11.96649,70.7036
4641.588833612777,18890.92,-15.27807,70.6941
10000.0,17378.32,-24.79587,70.6893
