Frequency,Impedance,Phase Angle,Temperature (Dry Bath)
10.0,6276608.0,14.09109,66.3945
21.544346900318832,5849925.0,-23.22928,66.3846
46.41588833612777,5064548.0,-19.83935,66.4025
100.0,2206852.0,-143.8448,66.3858
215.44346900318823,803207.5,-77.60322,66.3802
464.15888336127773,1528016.0,-46.89587,66.3769
1000.0,355502.4,-97.71078,66.3694
2154.4346900318824,367170.9,-62.23893,66.3606
4641.588833612777,142540.4,-81.21023,66.3735
10000.0,71980.08,-76.93176,66.3661
