Frequency,Impedance,Phase Angle,Temperature (Dry Bath)
10.0,3419198.0,-1.098401,70.8591
21.544346900318832,4169979.0,-19.42003,70.8656
46.41588833612777,3263121.0,-23.78659,70.85
100.0,3501964.0,39.60705,70.8728
215.44346900318823,409787.9,-56.81246,70.8539
464.15888336127773,789851.5,7.93563,70.8472
1000.0,664653.8,-45.92539,70.8392
2154.4346900318824,270550.0,-58.23769,70.8555
4641.588833612777,133650.7,-106.1514,70.852
10000.0,63847.85,-95.07474,70.8535
