Frequency,Impedance,Phase Angle,Temperature (Dry Bath)
10.0,4270111.0,-22.62815,71.4038
21.544346900318832,8332519.0,-6.536784,71.4107
46.41588833612777,5648485.0,-13.40641,71.4115
100.0,829562.9,80.25417,71.3967
215.44346900318823,30124.77,-175.0398,71.4064
464.15888336127773,854473.2,-79.42658,71.4222
1000.0,322021.3,-123.5564,71.4042
2154.4346900318824,376092.3,-102.5149,71.4024
4641.588833612777,116583.9,-99.58365,71.4145
10000.0,69312.54,-82.00504,71.4112
