Frequency,Impedance,Phase Angle,Temperature (Dry Bath)
10.0,9856526.0,-14.13498,71.3486
21.544346900318832,4363807.0,4.320485,71.3647
46.41588833612777,7094519.0,-23.18793,71.3604
100.0,469456.4,3.314558,71.3591
215.44346900318823,2936484.0,-70.36387,71.3389
464.15888336127773,2962550.0,12.52564,71.3646
1000.0,1073464.0,-88.93526,71.3568
2154.4346900318824,258519.2,-84.82402,71.363
4641.588833612777,107409.9,-79.00003,71.3543
10000.0,58907.57,-83.16517,71.3578
