Frequency,Impedance,Phase Angle,Temperature (Dry Bath)
10.0,4076444.0,7.164771,70.6427
21.544346900318832,4233692.0,-19.67421,70.6445
46.41588833612777,5085439.0,-37.79807,70.6339
100.0,590644.3,-61.37946,70.6336
215.44346900318823,1035456.0,-37.46406,70.6197
464.15888336127773,658769.1,-29.65838,70.6305
1000.0,156434.2,-38.33096,70.6504
2154.4346900318824,244648.2,-97.30453,70.6481
4641.588833612777,128612.3,-99.08729,70.632
10000.0,59466.25,-85.17536,70.6414
