Frequency,Impedance,Phase Angle,Temperature (Dry Bath)
10.0,6728787.0,-30.90219,71.0955
21.544346900318832,13602300.0,-0.8477973,71.0724
46.41588833612777,5080675.0,-16.31821,71.0797
100.0,1082579.0,-37.74334,71.0833
215.44346900318823,898552.8,-58.28881,71.0667
464.15888336127773,692829.9,-73.67836,71.0907
1000.0,672691.0,-91.66774,71.0731
2154.4346900318824,362732.8,-77.74647,71.082
4641.588833612777,139188.7,-84.60434,71.102
10000.0,63385.36,-91.98231,71.0981
