Frequency,Impedance,Phase Angle,Temperature (Dry Bath)
10.0,786978.2,-28.31608,71.4127
21.544346900318832,549643.2,-27.44569,71.4376
46.41588833612777,474458.6,-24.99801,71.4402
100.0,241131.2,-3.799232,71.4472
215.44346900318823,340277.3,-118.2726,71.4574
464.15888336127773,234361.7,-25.7372,71.4619
1000.0,186401.6,-16.89849,71.4761
2154.4346900318824,235980.6,-33.24963,71.4488
4641.588833612777,116081.0,-65.78935,71.4645
10000.0,53210.37,-68.4121,71.4441
