Frequency,Impedance,Phase Angle,Temperature (Dry Bath)
10.0,7388592.0,4.823517,70.8392
21.544346900318832,10838120.0,-14.83591,70.8145
46.41588833612777,5915806.0,-30.17077,70.8394
100.0,865307.8,-83.48302,70.8277
215.44346900318823,2136262.0,-48.46511,70.8357
464.15888336127773,1198529.0,-121.9657,70.8179
1000.0,175961.6,-113.2192,70.8215
2154.4346900318824,314550.6,-85.34672,70.8316
4641.588833612777,93217.12,-82.76628,70.8055
10000.0,60015.55,-85.04621,70.8166
