Frequency,Impedance,Phase Angle,Temperature (Dry Bath)
10.0,4798269.0,-34.41754,71.269
21.544346900318832,2985176.0,-20.92878,71.259
46.41588833612777,2373458.0,-18.33053,71.2625
100.0,622617.6,-26.88133,71.2666
215.44346900318823,363675.5,-59.18229,71.2599
464.15888336127773,2548093.0,-88.36971,71.268
1000.0,287250.5,-113.5843,71.2729
2154.4346900318824,321627.8,-82.50259,71.2533
4641.588833612777,143548.1,-85.20287,71.253
10000.0,70320.22,-83.7285,71.2569
