Frequency,Impedance,Phase Angle,Temperature (Dry Bath)
10.0,5389500.0,4.392383,71.4823
21.544346900318832,6704104.0,27.43363,71.4763
46.41588833612777,4138430.0,-13.65221,71.4769
100.0,2341810.0,-16.54645,71.4895
215.44346900318823,1117361.0,36.4484,71.4762
464.15888336127773,1152633.0,-79.57203,71.4664
1000.0,1400898.0,-70.06128,71.4698
2154.4346900318824,547946.1,-82.93457,71.4669
4641.588833612777,142871.4,-102.5473,71.4656
10000.0,109472.3,-90.38644,71.4583
