Frequency,Impedance,Phase Angle,Temperature (Dry Bath)
10.0,14783.36,-19.52984,71.0787
21.544346900318832,12731.85,-16.65056,71.0672
46.41588833612777,11236.82,-14.60227,71.0729
100.0,9987.979,-12.96249,71.0835
215.44346900318823,9192.38,-10.81879,71.0795
464.15888336127773,8319.13,-11.2168,71.0652
1000.0,7757.374,-9.47138,71.078
2154.4346900318824,7229.791,-10.21602,71.0699
4641.588833612777,6816.972,-10.03585,71.0728
10000.0,6309.208,-12.83043,71.0705
