Frequency,Impedance,Phase Angle,Temperature (Dry Bath)
10.0,242213.2,-18.89597,72.1394
21.544346900318832,208055.4,-17.91407,72.1579
46.41588833612777,178249.8,-19.02796,72.1692
100.0,182022.3,6.948431,72.1598
215.44346900318823,120345.4,-19.22885,72.163
464.15888336127773,134200.8,-5.098238,72.1674
1000.0,84947.74,-11.78197,72.1533
2154.4346900318824,79721.15,-30.08378,72.1528
4641.588833612777,68288.2,-27.23572,72.1618
10000.0,59785.64,-22.88573,72.1729
