Frequency,Impedance,Phase Angle,Temperature (Dry Bath)
10.0,40782.88,-13.35103,71.258
21.544346900318832,36625.92,-12.13845,71.254
46.41588833612777,33314.85,-11.06712,71.258
100.0,31940.43,-6.404204,71.2453
215.44346900318823,28040.46,-10.84057,71.27
464.15888336127773,26122.44,-7.684588,71.2606
1000.0,23637.41,-9.51798,71.2384
2154.4346900318824,23427.75,-6.813337,71.2559
4641.588833612777,22199.49,-7.524417,71.2433
10000.0,20510.52,-10.26625,71.2511
