Frequency,Impedance,Phase Angle,Temperature (Dry Bath)
10.0,4204390.0,0.7333507,71.3428
21.544346900318832,5503854.0,16.58916,71.335
46.41588833612777,8186455.0,-29.29385,71.3431
100.0,594595.9,-42.63145,71.3343
215.44346900318823,2188280.0,55.4891,71.3237
464.15888336127773,567772.8,-51.53293,71.3197
1000.0,340220.4,-54.59058,71.3325
2154.4346900318824,264811.0,-22.83902,71.3292
4641.588833612777,371706.0,-53.14895,71.3279
10000.0,138175.2,-100.5371,71.3251
