Frequency,Impedance,Phase Angle,Temperature (Dry Bath)
10.0,20670.89,-29.20678,70.6198
21.544346900318832,16333.21,-26.86853,70.6207
46.41588833612777,13124.45,-24.74612,70.6259
100.0,11012.99,-21.18822,70.6157
215.44346900318823,9135.961,-20.04151,70.6303
464.15888336127773,7837.324,-17.46578,70.6346
1000.0,6958.535,-13.74204,70.6386
2154.4346900318824,6260.008,-11.79439,70.6261
4641.588833612777,5818.789,-11.27988,70.6367
10000.0,5381.391,-12.62303,70.6383
