Frequency,Impedance,Phase Angle,Temperature (Dry Bath)
10.0,6892.269,-28.36637,70.4636
21.544346900318832,5450.491,-26.21732,70.4828
46.41588833612777,4414.503,-23.57281,70.4625
100.0,3638.987,-21.30144,70.4601
215.44346900318823,3125.392,-17.81584,70.4772
464.15888336127773,2721.384,-15.16777,70.474
1000.0,2431.469,-12.88293,70.481
2154.4346900318824,2202.665,-11.05998,70.4732
4641.588833612777,2037.7,-10.32558,70.4786
10000.0,1901.747,-10.28164,70.4829
