Frequency,Impedance,Phase Angle,Temperature (Dry Bath)
10.0,2494890.0,-12.89304,66.4185
21.544346900318832,2262089.0,-29.47977,66.4023
46.41588833612777,1613619.0,-17.94083,66.4242
100.0,912222.0,86.41758,66.4131
215.44346900318823,183302.5,-69.43968,66.42
464.15888336127773,1098590.0,-68.12536,66.416
1000.0,570879.2,163.5099,66.4293
2154.4346900318824,242887.1,-59.19209,66.4103
4641.588833612777,131454.9,-76.72467,66.3963
10000.0,65779.54,-90.54995,66.4142
