Frequency,Impedance,Phase Angle,Temperature (Dry Bath)
10.0,24398.38,-19.94123,71.1794
21.544346900318832,20845.64,-17.70367,71.1736
46.41588833612777,18148.18,-15.73304,71.1727
100.0,16352.38,-16.07727,71.1669
215.44346900318823,14761.06,-10.74597,71.1804
464.15888336127773,13346.99,-9.863368,71.1659
1000.0,12171.3,-9.76551,71.18
2154.4346900318824,11294.35,-9.607405,71.1701
4641.588833612777,11080.14,-11.1152,71.1766
10000.0,10094.87,-17.10555,71.1818
