Frequency,Impedance,Phase Angle,Temperature (Dry Bath)
10.0,5433784.0,-24.16231,65.7071
21.544346900318832,5516405.0,-8.128208,65.7186
46.41588833612777,3482473.0,-22.72439,65.7051
100.0,866602.8,-64.42271,65.7036
215.44346900318823,869540.5,-63.35757,65.7038
464.15888336127773,1037093.0,-62.94806,65.7046
1000.0,2116344.0,-87.93602,65.7153
2154.4346900318824,306971.8,-76.39016,65.7056
4641.588833612777,138995.0,-78.63936,65.6919
10000.0,76627.77,-80.76547,65.7175
