Frequency,Impedance,Phase Angle,Temperature (Dry Bath)
10.0,3957792.0,-14.35919,71.686
21.544346900318832,3932055.0,-22.8658,71.6834
46.41588833612777,5384539.0,0.4008753,71.6962
100.0,1060521.0,-155.7812,71.6856
215.44346900318823,2552933.0,15.33001,71.6981
464.15888336127773,643423.3,160.7369,71.68
1000.0,1569983.0,-99.10924,71.6828
2154.4346900318824,329285.3,-168.2284,71.6967
4641.588833612777,183018.0,-81.29079,71.6914
10000.0,174900.9,-68.36436,71.6788
