Frequency,Impedance,Phase Angle,Temperature (Dry Bath)
10.0,157897.9,-8.863206,65.7529
21.544346900318832,149645.7,-8.497001,65.7661
46.41588833612777,138349.7,-7.64578,65.7684
100.0,112787.6,-13.03676,65.7589
215.44346900318823,150994.7,-9.944673,65.7761
464.15888336127773,127649.8,-14.28953,65.7905
1000.0,108392.9,-17.30787,65.7732
2154.4346900318824,87309.42,-19.27893,65.7767
4641.588833612777,60953.57,-40.25356,65.7763
10000.0,52362.67,-60.97116,65.7826
