Frequency,Impedance,Phase Angle,Temperature (Dry Bath)
10.0,4806198.0,-17.97286,71.3025
21.544346900318832,5875423.0,-6.897161,71.3035
46.41588833612777,4542847.0,-10.71237,71.2882
100.0,524962.4,-125.1916,71.3003
215.44346900318823,1145478.0,-99.40712,71.2964
464.15888336127773,410325.3,-50.01259,71.2992
1000.0,194354.7,-88.39589,71.3063
2154.4346900318824,172444.6,-106.5722,71.3013
4641.588833612777,123561.8,-80.15437,71.3176
10000.0,59587.09,-84.88889,71.3112
