Frequency,Impedance,Phase Angle,Temperature (Dry Bath)
10.0,3598209.0,1.962384,66.3758
21.544346900318832,3651537.0,-11.92017,66.3729
46.41588833612777,3930662.0,-41.53799,66.3818
100.0,484819.7,106.5344,66.372
215.44346900318823,259931.7,-21.4453,66.3921
464.15888336127773,1671997.0,-84.724,66.3951
1000.0,320348.5,-118.0447,66.3786
2154.4346900318824,212257.3,-99.69042,66.3916
4641.588833612777,130734.6,-88.39641,66.3749
10000.0,66492.35,-93.08271,66.3921
