Frequency,Impedance,Phase Angle,Temperature (Dry Bath)
10.0,121764.7,-27.03824,71.7855
21.544346900318832,96928.79,-28.33487,71.7774
46.41588833612777,77044.8,-29.28071,71.7699
100.0,63602.05,-23.6556,71.749
215.44346900318823,51757.16,-28.72503,71.7787
464.15888336127773,35891.43,-33.27158,71.7915
1000.0,25747.47,-35.25179,71.7765
2154.4346900318824,20757.08,-24.8558,71.7707
4641.588833612777,15974.73,-20.99742,71.7575
10000.0,14581.29,-19.27561,71.7793
