Frequency,Impedance,Phase Angle,Temperature (Dry Bath)
10.0,2517184.0,-16.97062,71.1859
21.544346900318832,3338046.0,-8.396206,71.1969
46.41588833612777,2389978.0,-32.54281,71.1899
100.0,501720.7,-88.67008,71.1792
215.44346900318823,907530.1,-35.34673,71.1821
464.15888336127773,626557.3,-5.89818,71.1988
1000.0,629359.6,-76.57798,71.1895
2154.4346900318824,221495.8,-65.3324,71.18
4641.588833612777,211169.2,-89.26617,71.1865
10000.0,65108.83,-86.0474,71.1818
