Frequency,Impedance,Phase Angle,Temperature (Dry Bath)
10.0,4204802.0,5.389447,71.1021
21.544346900318832,3915762.0,-15.10061,71.1088
46.41588833612777,6543853.0,-34.0184,71.1115
100.0,269880.3,-42.56714,71.1146
215.44346900318823,622868.6,21.36413,71.124
464.15888336127773,807624.7,-57.42895,71.1159
1000.0,1430654.0,-110.6959,71.1077
2154.4346900318824,207857.0,-82.56245,71.1188
4641.588833612777,138736.1,-108.8971,71.0983
10000.0,64271.28,-91.61391,71.1018
