Frequency,Impedance,Phase Angle,Temperature (Dry Bath)
10.0,230444.5,-15.11371,71.3185
21.544346900318832,199844.2,-15.7492,71.3359
46.41588833612777,177992.1,-13.7571,71.3384
100.0,119104.6,-17.7157,71.3336
215.44346900318823,155851.0,-23.38473,71.3149
464.15888336127773,173769.0,-14.9225,71.3379
1000.0,75334.55,7.697673,71.3334
2154.4346900318824,108471.2,-21.64546,71.318
4641.588833612777,74862.22,-29.20953,71.3292
10000.0,70825.01,-51.93948,71.32
