Frequency,Impedance,Phase Angle,Temperature (Dry Bath)
10.0,14436.22,-19.97053,71.316
21.544346900318832,12400.94,-17.22166,71.3343
46.41588833612777,10904.7,-14.94814,71.3201
100.0,10094.26,-12.55133,71.3227
215.44346900318823,8736.295,-11.2921,71.3304
464.15888336127773,8206.447,-10.69494,71.3162
1000.0,7380.386,-10.12449,71.3223
2154.4346900318824,6894.125,-9.616979,71.3198
4641.588833612777,6425.539,-10.00447,71.3269
10000.0,6075.397,-12.66687,71.3283
