Frequency,Impedance,Phase Angle,Temperature (Dry Bath)
10.0,890466.3,-6.665145,71.0825
21.544346900318832,789165.5,-5.565967,71.093
46.41588833612777,759436.4,-7.790812,71.0809
100.0,344092.6,-8.85942,71.0804
215.44346900318823,516796.2,-54.08664,71.0823
464.15888336127773,480438.0,-6.584538,71.0894
1000.0,177834.3,-3.473896,71.0778
2154.4346900318824,252985.5,-52.83419,71.0889
4641.588833612777,189616.7,-78.52611,71.0761
10000.0,138052.2,-74.70962,71.068
