Frequency,Impedance,Phase Angle,Temperature (Dry Bath)
10.0,6955551.0,2.484313,71.083
21.544346900318832,5005075.0,5.261888,71.0485
46.41588833612777,5298732.0,-8.385178,71.0582
100.0,1176385.0,-29.82151,71.079
215.44346900318823,647586.1,50.97466,71.0607
464.15888336127773,252457.6,-72.95055,71.0701
1000.0,446444.0,-52.72368,71.069
2154.4346900318824,285498.9,-91.58189,71.0643
4641.588833612777,128927.6,-81.02696,71.0564
10000.0,62477.88,-84.42498,71.0699
