Frequency,Impedance,Phase Angle,Temperature (Dry Bath)
10.0,217136.1,-25.55887,71.4003
21.544346900318832,175218.8,-23.65887,71.4165
46.41588833612777,142383.6,-21.90415,71.4205
100.0,118370.2,-11.99135,71.4031
215.44346900318823,108687.1,-10.71618,71.4288
464.15888336127773,94804.24,-22.01527,71.4176
1000.0,67659.12,-12.63359,71.4031
2154.4346900318824,69531.67,-32.11964,71.4099
4641.588833612777,48440.26,-40.80179,71.4247
10000.0,34368.99,-44.89432,71.4247
