Frequency,Impedance,Phase Angle,Temperature (Dry Bath)
10.0,5815511.0,4.442016,71.1904
21.544346900318832,3078269.0,-26.05141,71.2064
46.41588833612777,5576782.0,-19.5263,71.1941
100.0,713365.7,70.75716,71.1843
215.44346900318823,795928.6,176.273,71.1885
464.15888336127773,566421.3,-60.82049,71.1876
1000.0,336664.0,-65.83152,71.1947
2154.4346900318824,206397.2,-58.00596,71.1911
4641.588833612777,131791.1,-99.10217,71.1831
10000.0,52665.38,-85.04034,71.1927
