Frequency,Impedance,Phase Angle,Temperature (Dry Bath)
10.0,5443872.0,-3.149466,70.9418
21.544346900318832,5018669.0,-17.03307,70.9272
46.41588833612777,4712756.0,-26.48159,70.9476
100.0,3292802.0,147.7829,70.931
215.44346900318823,884386.3,47.85987,70.9344
464.15888336127773,2458443.0,-1.279891,70.9309
1000.0,260998.1,-70.84356,70.9431
2154.4346900318824,424526.6,-86.14341,70.9355
4641.588833612777,123632.9,-87.01046,70.9449
10000.0,63922.45,-84.94468,70.9232
