Frequency,Impedance,Phase Angle,Temperature (Dry Bath)
10.0,8472891.0,-42.4912,71.0506
21.544346900318832,3515417.0,-6.843312,71.0635
46.41588833612777,4566838.0,-15.00882,71.0696
100.0,2440874.0,86.96935,71.0374
215.44346900318823,8654163.0,115.5939,71.0592
464.15888336127773,781576.9,-63.86738,71.0499
1000.0,395102.4,-37.79604,71.0551
2154.4346900318824,297929.0,-72.22585,71.041
4641.588833612777,105953.7,-78.24163,71.0714
10000.0,60927.19,-86.85226,71.0629
