Frequency,Impedance,Phase Angle,Temperature (Dry Bath)
10.0,3781880.0,-0.08765509,71.0667
21.544346900318832,7108254.0,-8.150128,71.0747
46.41588833612777,4908344.0,-23.3949,71.0668
100.0,1490098.0,-22.48352,71.0767
215.44346900318823,3772948.0,75.11269,71.0755
464.15888336127773,356627.2,-63.59858,71.043
1000.0,440318.1,-79.92121,71.0469
2154.4346900318824,317279.8,-113.9037,71.0605
4641.588833612777,138695.8,-92.53587,71.0693
10000.0,63483.47,-85.67777,71.077
