Frequency,Impedance,Phase Angle,Temperature (Dry Bath)
10.0,537933.3,-15.94009,70.9173
21.544346900318832,481521.0,-16.90114,70.9133
46.41588833612777,412055.9,-14.72629,70.9168
100.0,554268.8,-74.0054,70.9124
215.44346900318823,349988.7,14.56649,70.9035
464.15888336127773,268694.5,-23.79753,70.9067
1000.0,240985.1,-44.42932,70.9093
2154.4346900318824,223750.9,-66.71247,70.9092
4641.588833612777,113676.5,-66.8574,70.9188
10000.0,51472.53,-78.65596,70.9119
