Frequency,Impedance,Phase Angle,Temperature (Dry Bath)
10.0,4618141.0,1.745554,71.1886
21.544346900318832,3914420.0,-4.134758,71.1844
46.41588833612777,3620552.0,-35.02047,71.1998
100.0,424100.2,83.68068,71.195
215.44346900318823,702640.2,8.732381,71.1903
464.15888336127773,375728.4,-99.11017,71.1896
1000.0,428206.4,-98.69051,71.187
2154.4346900318824,235341.4,-84.52923,71.2129
4641.588833612777,131630.0,-79.48774,71.2038
10000.0,62064.45,-84.47184,71.1934
