Frequency,Impedance,Phase Angle,Temperature (Dry Bath)
10.0,4312833.0,-29.67338,71.2322
21.544346900318832,3643824.0,4.464017,71.2658
46.41588833612777,4324340.0,-25.46747,71.2307
100.0,1572270.0,-98.78184,71.2363
215.44346900318823,534552.5,66.04992,71.2401
464.15888336127773,593646.8,-68.17806,71.2397
1000.0,1404412.0,-42.03456,71.2305
2154.4346900318824,598645.8,-128.5699,71.2499
4641.588833612777,224375.4,-65.55555,71.2333
10000.0,128362.4,-66.37279,71.252
