Frequency,Impedance,Phase Angle,Temperature (Dry Bath)
10.0,5856681.0,-20.54491,71.0286
21.544346900318832,3968264.0,1.618329,71.0305
46.41588833612777,4839206.0,-15.02204,71.0293
100.0,370481.0,-72.88266,71.0174
215.44346900318823,1536904.0,-52.68255,71.0125
464.15888336127773,566479.0,-79.40458,71.0119
1000.0,643905.2,-80.76144,71.0095
2154.4346900318824,321018.2,-81.76964,71.0224
4641.588833612777,172581.5,-101.8041,71.0194
10000.0,64327.51,-88.49842,71.0231
