Frequency,Impedance,Phase Angle,Temperature (Dry Bath)
10.0,5409913.0,16.63711,71.1291
21.544346900318832,8213937.0,0.7564364,71.1351
46.41588833612777,5239734.0,-30.93935,71.1423
100.0,703542.5,85.94252,71.1409
215.44346900318823,1529506.0,-35.41671,71.1216
464.15888336127773,2432277.0,-87.52823,71.1381
1000.0,733171.2,-83.18735,71.1377
2154.4346900318824,324865.6,-69.39017,71.1532
4641.588833612777,107816.0,-81.39534,71.1356
10000.0,58037.95,-87.89189,71.16
