Frequency,Impedance,Phase Angle,Temperature (Dry Bath)
10.0,5130199.0,5.467914,71.35
21.544346900318832,4433387.0,-30.08845,71.3491
46.41588833612777,15950500.0,30.77407,71.3615
100.0,479564.3,-69.81668,71.3571
215.44346900318823,26531.96,33.50176,71.3413
464.15888336127773,2120562.0,103.1185,71.3491
1000.0,359919.9,-110.2144,71.3573
2154.4346900318824,258398.9,-92.66453,71.3376
4641.588833612777,137799.7,-73.00716,71.3511
10000.0,66677.92,-82.45269,71.3631
