Frequency,Impedance,Phase Angle,Temperature (Dry Bath)
10.0,4969862.0,-18.32171,65.7497
21.544346900318832,4888615.0,-8.952719,65.7416
46.41588833612777,6241869.0,71.90426,65.7316
100.0,478812.2,-40.59862,65.7442
215.44346900318823,697758.0,123.2769,65.7295
464.15888336127773,1222359.0,-109.9023,65.7349
1000.0,797256.9,-43.7337,65.75
2154.4346900318824,191832.5,-72.65202,65.7359
4641.588833612777,130539.4,-84.55504,65.7373
10000.0,63698.57,-85.20656,65.7421
