Frequency,Impedance,Phase Angle,Temperature (Dry Bath)
10.0,4300953.0,-10.25531,70.503
21.544346900318832,7057148.0,23.59046,70.49
46.41588833612777,5486618.0,-28.35527,70.5058
100.0,379651.8,-47.23287,70.5147
215.44346900318823,1093314.0,38.49199,70.507
464.15888336127773,610313.6,-103.8315,70.4951
1000.0,371988.9,-55.55187,70.5091
2154.4346900318824,340738.9,-88.1204,70.498
4641.588833612777,129697.0,-79.12087,70.505
10000.0,65688.6,-84.32013,70.5016
