Frequency,Impedance,Phase Angle,Temperature (Dry Bath)
10.0,1084963.0,-5.91601,71.8487
21.544346900318832,1046016.0,-12.67358,71.848
46.41588833612777,996910.6,-9.010837,71.8574
100.0,410982.3,-16.01904,71.8474
215.44346900318823,1074680.0,-133.7019,71.8419
464.15888336127773,233802.3,-44.22637,71.848
1000.0,358525.4,-89.18073,71.83
2154.4346900318824,206671.9,-98.01584,71.842
4641.588833612777,260566.0,-57.48724,71.8358
10000.0,117147.2,-59.50436,71.8437
