Frequency,Impedance,Phase Angle,Temperature (Dry Bath)
10.0,12180.8,-23.39867,71.5666
21.544346900318832,9946.02,-23.88347,71.5621
46.41588833612777,8075.05,-23.55846,71.5605
100.0,6590.4,-22.07351,71.5529
215.44346900318823,5580.294,-19.67292,71.5584
464.15888336127773,4769.564,-17.86693,71.5576
1000.0,4138.852,-15.77679,71.574
2154.4346900318824,3683.577,-14.24393,71.5655
4641.588833612777,3227.865,-12.79166,71.5518
10000.0,2974.005,-12.27253,71.5555
