Frequency,Impedance,Phase Angle,Temperature (Dry Bath)
10.0,5495947.0,21.40478,70.4308
21.544346900318832,4049783.0,-13.89807,70.42
46.41588833612777,4649701.0,-19.26261,70.4365
100.0,384646.7,29.18414,70.4264
215.44346900318823,448728.2,-138.1179,70.4455
464.15888336127773,477581.9,-129.5457,70.4509
1000.0,837489.1,76.89178,70.462
2154.4346900318824,186046.8,-85.38336,70.4284
4641.588833612777,114912.7,-91.71435,70.4424
10000.0,58887.98,-85.11287,70.4493
