Frequency,Impedance,Phase Angle,Temperature (Dry Bath)
10.0,22911.79,-21.42722,66.385
21.544346900318832,19332.95,-18.39834,66.3577
46.41588833612777,16779.98,-15.36009,66.3618
100.0,14939.59,-11.28437,66.3506
215.44346900318823,13844.91,-13.01419,66.3546
464.15888336127773,12895.74,-9.686703,66.3634
1000.0,11913.93,-7.9725,66.3501
2154.4346900318824,11198.81,-9.051962,66.3462
4641.588833612777,10634.67,-10.0216,66.3608
10000.0,10117.36,-15.73068,66.3364
