Frequency,Impedance,Phase Angle,Temperature (Dry Bath)
10.0,6963909.0,-14.01093,71.4548
21.544346900318832,5830520.0,-10.26526,71.4415
46.41588833612777,5837270.0,-3.823825,71.4297
100.0,469338.4,95.19078,71.4538
215.44346900318823,1372276.0,-67.45953,71.4401
464.15888336127773,1030777.0,-14.72411,71.4457
1000.0,1392044.0,-116.7352,71.4218
2154.4346900318824,302537.4,-85.55542,71.4279
4641.588833612777,217191.7,-61.97506,71.4115
10000.0,127112.9,-86.27919,71.4207
