Frequency,Impedance,Phase Angle,Temperature (Dry Bath)
10.0,6461274.0,5.047439,71.3323
21.544346900318832,5747886.0,-28.89818,71.3253
46.41588833612777,4523692.0,3.619069,71.3469
100.0,1064394.0,42.19221,71.3332
215.44346900318823,13757.88,-28.96886,71.329
464.15888336127773,817736.7,-95.27076,71.355
1000.0,1296952.0,-98.0217,71.3536
2154.4346900318824,343379.1,-101.4352,71.335
4641.588833612777,147299.3,-95.9201,71.3436
10000.0,66025.49,-79.40806,71.3666
