Frequency,Impedance,Phase Angle,Temperature (Dry Bath)
10.0,491172.2,-13.5405,71.2349
21.544346900318832,450994.9,-15.93327,71.233
46.41588833612777,402282.2,-13.13016,71.2518
100.0,249987.2,-50.89659,71.2436
215.44346900318823,312151.5,-20.50066,71.2357
464.15888336127773,257960.2,-12.18542,71.2423
1000.0,185017.6,-34.62532,71.244
2154.4346900318824,168963.4,-49.50446,71.2231
4641.588833612777,121774.8,-69.91157,71.2413
10000.0,54791.04,-73.37273,71.2442
