Frequency,Impedance,Phase Angle,Temperature (Dry Bath)
10.0,5768678.0,18.10921,71.5109
21.544346900318832,4841698.0,-1.472867,71.5017
46.41588833612777,5275742.0,-25.2902,71.5061
100.0,1308251.0,121.3553,71.501
215.44346900318823,2139680.0,-30.08468,71.501
464.15888336127773,800616.7,-25.91699,71.5155
1000.0,881414.5,-74.69376,71.5172
2154.4346900318824,1167385.0,-98.99439,71.4962
4641.588833612777,318116.7,-83.28819,71.5041
10000.0,121696.7,-90.75125,71.5101
