Frequency,Impedance,Phase Angle,Temperature (Dry Bath)
10.0,7494636.0,-21.01514,71.0852
21.544346900318832,8802892.0,20.43642,71.0735
46.41588833612777,4684527.0,-18.39464,71.0773
100.0,344080.4,15.4692,71.0753
215.44346900318823,945117.4,71.3093,71.0856
464.15888336127773,1858450.0,31.26133,71.0841
1000.0,336713.2,-122.2532,71.0734
2154.4346900318824,608192.6,130.1806,71.0657
4641.588833612777,227563.9,-43.67351,71.0958
10000.0,142144.4,-113.1865,71.0952
