Frequency,Impedance,Phase Angle,Temperature (Dry Bath)
10.0,5500055.0,11.53986,71.27
21.544346900318832,4124296.0,-11.683,71.2528
46.41588833612777,5101467.0,-10.961,71.2645
100.0,1542912.0,18.16699,71.2575
215.44346900318823,1000205.0,145.4155,71.2717
464.15888336127773,1036944.0,-104.072,71.2652
1000.0,605244.5,-81.54828,71.2537
2154.4346900318824,498795.2,-73.11556,71.2612
4641.588833612777,268244.8,-75.0492,71.255
10000.0,156783.6,-79.74155,71.2821
