Frequency,Impedance,Phase Angle,Temperature (Dry Bath)
10.0,289336.0,-24.55994,71.3095
21.544346900318832,236470.2,-22.21424,71.2908
46.41588833612777,198117.0,-19.41779,71.2967
100.0,146350.7,-20.24969,71.3069
215.44346900318823,138106.7,-19.38854,71.3077
464.15888336127773,145798.5,-12.00212,71.2861
1000.0,140536.8,-12.50159,71.3026
2154.4346900318824,91861.72,-32.63217,71.3004
4641.588833612777,72895.76,-48.13644,71.2913
10000.0,43580.74,-60.46544,71.2943
