Frequency,Impedance,Phase Angle,Temperature (Dry Bath)
10.0,4162422.0,-15.44545,71.2369
21.544346900318832,5526049.0,-18.86364,71.2272
46.41588833612777,4589147.0,-18.4381,71.2479
100.0,1492342.0,-80.27541,71.2444
215.44346900318823,952680.2,-141.5024,71.2361
464.15888336127773,2351027.0,-161.6536,71.2309
1000.0,633264.2,-79.88233,71.2323
2154.4346900318824,464375.3,-102.0343,71.2362
4641.588833612777,278982.3,-83.89242,71.2577
10000.0,141389.9,-91.88062,71.2337
