Frequency,Impedance,Phase Angle,Temperature (Dry Bath)
10.0,4910344.0,16.39465,71.3897
21.544346900318832,4888183.0,0.5093748,71.3949
46.41588833612777,4173869.0,-22.88155,71.3872
100.0,1551041.0,97.46425,71.3904
215.44346900318823,711176.8,-14.52308,71.3923
464.15888336127773,626161.7,20.84185,71.3693
1000.0,988850.6,32.63342,71.3904
2154.4346900318824,378414.8,-80.46432,71.3896
4641.588833612777,295792.0,-75.46048,71.3925
10000.0,91842.88,-88.86655,71.3813
