Frequency,Impedance,Phase Angle,Temperature (Dry Bath)
10.0,7501485.0,12.45634,71.251
21.544346900318832,4994195.0,-28.51256,71.2557
46.41588833612777,4284257.0,-29.41671,71.2577
100.0,863481.8,11.90379,71.2687
215.44346900318823,997898.7,-5.714275,71.2549
464.15888336127773,675562.7,-66.36838,71.2465
1000.0,468082.7,-51.49796,71.2535
2154.4346900318824,270691.4,-98.01254,71.2561
4641.588833612777,130826.6,-100.451,71.2495
10000.0,60861.59,-79.96632,71.2574
