Frequency,Impedance,Phase Angle,Temperature (Dry Bath)
10.0,224641.9,-26.4973,71.4504
21.544346900318832,177133.4,-23.78617,71.4184
46.41588833612777,149551.2,-21.79848,71.4173
100.0,134074.9,-7.297056,71.4136
215.44346900318823,18647.02,-72.72107,71.4124
464.15888336127773,85472.81,-22.73743,71.4301
1000.0,66922.87,-25.71484,71.4231
2154.4346900318824,65186.58,-22.8796,71.4044
4641.588833612777,52822.49,-37.08827,71.4183
10000.0,36523.95,-49.8096,71.4058
