Frequency,Impedance,Phase Angle,Temperature (Dry Bath)
10.0,3569325.0,-0.5926097,70.4268
21.544346900318832,2057414.0,-12.76589,70.4332
46.41588833612777,2129198.0,-16.00645,70.4135
100.0,429871.0,3.728633,70.417
215.44346900318823,3299958.0,161.0903,70.4192
464.15888336127773,237990.5,-85.27642,70.4186
1000.0,701358.7,-132.6934,70.4072
2154.4346900318824,254107.0,-101.3295,70.4109
4641.588833612777,132832.8,-81.80968,70.4091
10000.0,69276.08,-84.22859,70.4227
