Frequency,Impedance,Phase Angle,Temperature (Dry Bath)
10.0,6185066.0,21.31927,71.1899
21.544346900318832,7884674.0,-44.69073,71.1837
46.41588833612777,3774388.0,-30.09871,71.1879
100.0,537939.7,-5.924774,71.1853
215.44346900318823,1313931.0,-155.7167,71.1859
464.15888336127773,906067.8,28.61377,71.1697
1000.0,530489.3,-81.39922,71.179
2154.4346900318824,262014.5,-91.5557,71.1764
4641.588833612777,135518.5,-77.18526,71.1768
10000.0,73962.25,-88.83224,71.1795
