Frequency,Impedance,Phase Angle,Temperature (Dry Bath)
10.0,137321.4,-18.24417,66.3453
21.544346900318832,117326.0,-17.89187,66.3382
46.41588833612777,101681.6,-16.81732,66.3325
100.0,93821.82,-8.856418,66.357
215.44346900318823,75560.92,-21.31725,66.3552
464.15888336127773,64692.25,-21.22854,66.3404
1000.0,57429.05,-12.38916,66.3447
2154.4346900318824,56597.52,-33.27927,66.3647
4641.588833612777,47104.27,-38.85543,66.3683
10000.0,33014.29,-45.28279,66.3508
