Frequency,Impedance,Phase Angle,Temperature (Dry Bath)
10.0,6693501.0,-8.513268,71.5352
21.544346900318832,5153036.0,8.937713,71.5392
46.41588833612777,6999060.0,-6.195773,71.533
100.0,648662.1,-47.47369,71.5405
215.44346900318823,791065.4,126.1623,71.5461
464.15888336127773,440996.5,-65.06109,71.5535
1000.0,693579.4,-94.21214,71.5481
2154.4346900318824,418812.5,-77.815,71.5396
4641.588833612777,197657.2,-88.64304,71.5459
10000.0,116141.8,-88.33177,71.5535
