Frequency,Impedance,Phase Angle,Temperature (Dry Bath)
10.0,134737.1,-19.23315,66.3461
21.544346900318832,113983.5,-18.12271,66.36
46.41588833612777,97588.07,-16.7641,66.3454
100.0,104969.0,-16.07198,66.3723
215.44346900318823,87286.75,-32.72118,66.3505
464.15888336127773,66223.18,-14.14527,66.3605
1000.0,60169.52,-17.91147,66.3639
2154.4346900318824,50194.01,-27.44352,66.3772
4641.588833612777,44034.1,-35.52378,66.3522
10000.0,31313.12,-46.05499,66.3667
