Frequency,Impedance,Phase Angle,Temperature (Dry Bath)
10.0,6249247.0,25.30147,71.2406
21.544346900318832,13011340.0,-22.70897,71.2359
46.41588833612777,6318259.0,-19.27272,71.2261
100.0,490214.4,-113.8098,71.2309
215.44346900318823,572868.4,-154.0841,71.2212
464.15888336127773,635803.0,-87.5328,71.2377
1000.0,619421.6,47.25634,71.2293
2154.4346900318824,356734.3,-8.26183,71.2335
4641.588833612777,279326.9,-78.02265,71.2215
10000.0,144591.6,-79.10053,71.2243
