Frequency,Impedance,Phase Angle,Temperature (Dry Bath)
10.0,4300272.0,-31.20484,70.9371
21.544346900318832,4396488.0,-4.699468,70.9547
46.41588833612777,4071572.0,-24.24273,70.929
100.0,328852.4,-81.76757,70.9568
215.44346900318823,940834.7,-57.4952,70.9478
464.15888336127773,898636.8,44.29331,70.9541
1000.0,434349.9,-58.89603,70.9609
2154.4346900318824,252847.3,-74.06864,70.9439
4641.588833612777,121885.5,-72.93444,70.9561
10000.0,65388.58,-82.5098,70.9526
