Frequency,Impedance,Phase Angle,Temperature (Dry Bath)
10.0,189223.8,-20.29867,65.6417
21.544346900318832,160911.2,-17.66178,65.6507
46.41588833612777,138791.4,-15.34188,65.6516
100.0,115936.8,-29.32318,65.6512
215.44346900318823,31981.9,-87.36392,65.6514
464.15888336127773,107036.8,-11.08222,65.6436
1000.0,90030.94,-16.94322,65.6591
2154.4346900318824,89139.26,-30.0511,65.6439
4641.588833612777,67580.83,-38.79951,65.6473
10000.0,41144.25,-48.76837,65.6657
