Frequency,Impedance,Phase Angle,Temperature (Dry Bath)
10.0,5826801.0,-19.60123,71.2403
21.544346900318832,6063219.0,0.2449016,71.2321
46.41588833612777,6070432.0,-10.64408,71.2203
100.0,773676.2,-82.61549,71.2179
215.44346900318823,1139412.0,-155.0764,71.2444
464.15888336127773,3774049.0,38.98526,71.22
1000.0,490088.9,-127.4059,71.2217
2154.4346900318824,706858.7,-11.6466,71.221
4641.588833612777,270252.2,-94.0354,71.2265
10000.0,116738.0,-85.0388,71.2261
