Frequency,Impedance,Phase Angle,Temperature (Dry Bath)
10.0,141776.1,-13.44904,71.0242
21.544346900318832,125821.4,-12.56635,71.0182
46.41588833612777,115158.8,-13.41396,71.0244
100.0,117721.7,-10.44127,71.0325
215.44346900318823,92672.83,-15.18002,71.0267
464.15888336127773,92093.05,-21.94388,71.02
1000.0,70916.61,-28.06806,71.0323
2154.4346900318824,65267.57,-28.17603,71.0162
4641.588833612777,48034.91,-42.38264,71.0169
10000.0,32976.65,-58.04274,71.0211
