Frequency,Impedance,Phase Angle,Temperature (Dry Bath)
10.0,10789210.0,-25.00224,70.9405
21.544346900318832,6554143.0,-24.95307,70.9362
46.41588833612777,5274306.0,-10.15125,70.9341
100.0,592881.5,29.06409,70.9238
215.44346900318823,373455.6,-67.29254,70.9242
464.15888336127773,347088.3,-66.00734,70.9233
1000.0,502932.1,-140.6523,70.9225
2154.4346900318824,182187.6,-96.32875,70.9279
4641.588833612777,104463.7,-84.28452,70.9171
10000.0,43546.8,-81.00155,70.9071
