Frequency,Impedance,Phase Angle,Temperature (Dry Bath)
10.0,135135.5,-18.10784,66.2359
21.544346900318832,116271.9,-17.75826,66.2525
46.41588833612777,100931.1,-15.93871,66.2347
100.0,69842.78,-15.19897,66.2511
215.44346900318823,112640.1,-4.759881,66.2414
464.15888336127773,78109.6,-1.86639,66.2432
1000.0,55052.96,-17.86101,66.2414
2154.4346900318824,50779.04,-23.74371,66.2359
4641.588833612777,42181.47,-35.67973,66.2362
10000.0,30709.82,-40.1843,66.2352
