Frequency,Impedance,Phase Angle,Temperature (Dry Bath)
10.0,4556605.0,-22.7375,70.9436
21.544346900318832,8241619.0,-26.96886,70.9473
46.41588833612777,6647997.0,-15.40538,70.9352
100.0,1335452.0,-62.88584,70.9626
215.44346900318823,1170833.0,-108.4778,70.9458
464.15888336127773,2444945.0,-125.265,70.9484
1000.0,399643.3,-88.07813,70.9448
2154.4346900318824,323302.1,-83.65717,70.9601
4641.588833612777,123064.6,-86.3853,70.9459
10000.0,66876.98,-85.79946,70.9519
