Frequency,Impedance,Phase Angle,Temperature (Dry Bath)
10.0,3853437.0,-14.14885,71.0073
21.544346900318832,4184579.0,6.621243,71.0071
46.41588833612777,3194316.0,-37.63995,71.0294
100.0,687284.4,-91.28204,71.0071
215.44346900318823,620530.8,45.7025,71.0251
464.15888336127773,402221.7,-68.66041,71.0186
1000.0,358997.5,-98.0165,71.0286
2154.4346900318824,278549.6,-90.3977,71.0171
4641.588833612777,164131.7,-81.93725,71.0181
10000.0,59182.09,-86.74637,71.026
