Frequency,Impedance,Phase Angle,Temperature (Dry Bath)
10.0,4779858.0,-2.497245,71.2852
21.544346900318832,9617732.0,-19.60754,71.2994
46.41588833612777,4803462.0,-8.103678,71.2848
100.0,7962531.0,-80.21831,71.2815
215.44346900318823,1152118.0,160.3825,71.2778
464.15888336127773,1643169.0,-75.33579,71.2834
1000.0,320469.0,-78.24521,71.2654
2154.4346900318824,781669.1,-96.40937,71.2832
4641.588833612777,286231.7,-90.25903,71.2796
10000.0,163818.6,-85.08726,71.2681
