Frequency,Impedance,Phase Angle,Temperature (Dry Bath)
10.0,3851453.0,-6.824012,71.3181
21.544346900318832,3902041.0,-19.82743,71.3115
46.41588833612777,5142891.0,-24.44298,71.3216
100.0,1027724.0,110.9416,71.3174
215.44346900318823,589916.0,-97.4533,71.3173
464.15888336127773,351016.5,-85.91807,71.3247
1000.0,324019.2,-127.1661,71.3132
2154.4346900318824,429954.1,-101.2255,71.331
4641.588833612777,164130.1,-85.05663,71.3179
10000.0,61378.97,-89.53272,71.3178
