Frequency,Impedance,Phase Angle,Temperature (Dry Bath)
10.0,4125483.0,-18.2822,71.2919
21.544346900318832,4287942.0,-15.23678,71.2916
46.41588833612777,5599177.0,-18.46105,71.3158
100.0,591850.5,-42.47413,71.3041
215.44346900318823,478275.3,-14.44028,71.294
464.15888336127773,1022407.0,-2.201453,71.2973
1000.0,679904.5,174.9349,71.2886
2154.4346900318824,288667.1,-100.4212,71.2752
4641.588833612777,131700.8,-78.80744,71.2803
10000.0,71500.07,-89.741,71.281
