Frequency,Impedance,Phase Angle,Temperature (Dry Bath)
10.0,7716633.0,13.29867,65.8375
21.544346900318832,4051371.0,-27.96359,65.8275
46.41588833612777,5129674.0,-19.40735,65.8345
100.0,544650.4,-32.67267,65.8377
215.44346900318823,506084.6,48.63443,65.8396
464.15888336127773,1463388.0,-29.99953,65.8219
1000.0,574122.7,-70.84399,65.8245
2154.4346900318824,296389.4,-48.37343,65.8305
4641.588833612777,142841.5,-82.37253,65.8289
10000.0,64004.9,-86.33714,65.8208
