Frequency,Impedance,Phase Angle,Temperature (Dry Bath)
10.0,4939413.0,-12.01867,71.2554
21.544346900318832,6863649.0,3.275714,71.2527
46.41588833612777,4661177.0,-34.15572,71.2347
100.0,436039.3,-47.08903,71.2563
215.44346900318823,999030.2,70.16284,71.2431
464.15888336127773,601149.2,-95.45847,71.2657
1000.0,220118.7,-75.9175,71.2562
2154.4346900318824,281568.1,-91.07306,71.255
4641.588833612777,107539.0,-74.4394,71.2484
10000.0,65722.73,-89.18029,71.2398
