Frequency,Impedance,Phase Angle,Temperature (Dry Bath)
10.0,2362355.0,-21.44873,66.368
21.544346900318832,1806343.0,-20.70803,66.3651
46.41588833612777,1438610.0,-21.74559,66.3604
100.0,965949.3,-136.1806,66.3488
215.44346900318823,463406.7,-107.4328,66.3651
464.15888336127773,873874.5,-44.72188,66.3575
1000.0,396175.2,-20.29862,66.3777
2154.4346900318824,258510.7,-86.93702,66.3552
4641.588833612777,166948.9,-64.11682,66.3525
10000.0,75758.06,-81.78605,66.3586
