Frequency,Impedance,Phase Angle,Temperature (Dry Bath)
10.0,160942.4,-10.19773,71.3179
21.544346900318832,150645.7,-8.322087,71.3191
46.41588833612777,141649.1,-8.738132,71.3304
100.0,117248.3,-15.53875,71.3266
215.44346900318823,110561.9,12.10343,71.3009
464.15888336127773,149934.1,-9.064271,71.3147
1000.0,90487.92,-32.13602,71.3076
2154.4346900318824,86826.47,-22.25173,71.3108
4641.588833612777,78935.39,-48.42682,71.3208
10000.0,42980.16,-63.55062,71.3242
