Frequency,Impedance,Phase Angle,Temperature (Dry Bath)
10.0,15065.43,-26.12274,71.4765
21.544346900318832,11999.85,-26.80984,71.48
46.41588833612777,9461.186,-26.98036,71.4783
100.0,7387.135,-25.41206,71.4821
215.44346900318823,5993.052,-24.54102,71.4803
464.15888336127773,4904.116,-22.21356,71.4776
1000.0,4067.48,-19.35946,71.4677
2154.4346900318824,3500.382,-17.03644,71.4743
4641.588833612777,3050.766,-15.19574,71.4805
10000.0,2737.008,-14.31654,71.4678
