Frequency,Impedance,Phase Angle,Temperature (Dry Bath)
10.0,31691.13,-13.61966,28.8891
21.544346900318832,28474.42,-12.14869,28.9588
46.41588833612777,25881.93,-11.2172,28.7933
100.0,23591.28,-11.73424,28.9993
215.44346900318823,22087.77,-9.366689,28.5433
464.15888336127773,20105.3,-7.804453,29.0101
1000.0,18947.31,-7.762759,28.7229
2154.4346900318824,17737.77,-8.707173,28.9363
4641.588833612777,16760.1,-9.26954,29.0516
10000.0,15823.83,-10.8822,29.0407
