Frequency,Impedance,Phase Angle,Temperature (Dry Bath)
10.0,5665967.0,20.15732,71.4658
21.544346900318832,4322650.0,-25.28137,71.4524
46.41588833612777,4637106.0,-39.61521,71.4438
100.0,540437.9,-127.8268,71.4476
215.44346900318823,736657.4,-79.05532,71.4667
464.15888336127773,2033841.0,-71.91048,71.4605
1000.0,977453.6,-137.993,71.4434
2154.4346900318824,356516.5,-68.18329,71.4531
4641.588833612777,128629.1,-90.13937,71.4456
10000.0,62195.0,-88.00128,71.4435
