Frequency,Impedance,Phase Angle,Temperature (Dry Bath)
10.0,32184.45,-14.60277,71.5423
21.544346900318832,28603.19,-13.23485,71.5578
46.41588833612777,25830.11,-12.11303,71.5371
100.0,23739.82,-8.665304,71.5509
215.44346900318823,21712.71,-10.73931,71.554
464.15888336127773,20096.03,-9.545497,71.56
1000.0,18481.06,-9.569327,71.5596
2154.4346900318824,17190.05,-11.53959,71.5517
4641.588833612777,15427.23,-13.84432,71.5514
10000.0,14350.36,-17.05146,71.5415
