Frequency,Impedance,Phase Angle,Temperature (Dry Bath)
10.0,4538908.0,1.169151,71.6276
21.544346900318832,3171960.0,4.429706,71.6204
46.41588833612777,6437594.0,-16.66942,71.6324
100.0,979159.3,-51.32308,71.6343
215.44346900318823,1645547.0,90.88056,71.6298
464.15888336127773,2201384.0,-137.0219,71.6187
1000.0,997395.4,-108.2051,71.6234
2154.4346900318824,504685.9,-86.14184,71.6249
4641.588833612777,253616.7,-92.9133,71.6212
10000.0,134854.1,-77.15516,71.6134
