Frequency,Impedance,Phase Angle,Temperature (Dry Bath)
10.0,7712144.0,29.09044,65.8685
21.544346900318832,6522002.0,7.213934,65.8631
46.41588833612777,4570981.0,5.14102,65.8707
100.0,336006.6,56.35393,65.8666
215.44346900318823,9997.417,41.44117,65.8745
464.15888336127773,594408.2,-59.28238,65.8674
1000.0,361044.9,-51.92098,65.8806
2154.4346900318824,235972.2,-93.46139,65.8674
4641.588833612777,165235.4,-88.10535,65.8795
10000.0,81550.69,-85.10871,65.8807
