Frequency,Impedance,Phase Angle,Temperature (Dry Bath)
10.0,53197.26,-16.76252,70.7958
21.544346900318832,47164.67,-14.93099,70.7835
46.41588833612777,42480.39,-13.72946,70.8029
100.0,38230.46,-11.94509,70.8027
215.44346900318823,36536.98,-11.25301,70.7962
464.15888336127773,31303.72,-13.53808,70.7878
1000.0,29106.68,-9.682162,70.7882
2154.4346900318824,25639.44,-14.78023,70.7963
4641.588833612777,23562.42,-17.15189,70.7977
10000.0,20951.19,-25.41767,70.7725
