Frequency,Impedance,Phase Angle,Temperature (Dry Bath)
10.0,12585.01,-26.25642,71.2713
21.544346900318832,10167.05,-23.69714,71.2494
46.41588833612777,8405.098,-21.07506,71.2628
100.0,7106.919,-17.65876,71.2678
215.44346900318823,6074.175,-16.32031,71.2542
464.15888336127773,5499.924,-13.62748,71.2497
1000.0,4923.882,-12.473,71.2663
2154.4346900318824,4514.663,-11.45188,71.2564
4641.588833612777,4134.719,-11.08742,71.2561
10000.0,3844.599,-12.14544,71.2636
