Frequency,Impedance,Phase Angle,Temperature (Dry Bath)
10.0,21152390.0,-8.512013,71.1967
21.544346900318832,5806356.0,-14.47388,71.1959
46.41588833612777,4881996.0,-27.78392,71.1816
100.0,1341682.0,174.7163,71.1767
215.44346900318823,1745627.0,121.3175,71.2005
464.15888336127773,1011712.0,-45.166,71.1996
1000.0,415848.7,-101.8018,71.1894
2154.4346900318824,428701.9,-105.2765,71.1832
4641.588833612777,306252.2,-88.2909,71.189
10000.0,118062.0,-84.98126,71.1793
