Frequency,Impedance,Phase Angle,Temperature (Dry Bath)
10.0,9684689.0,-6.275193,72.2617
21.544346900318832,3773039.0,2.062796,72.2831
46.41588833612777,4603021.0,1.680101,72.2644
100.0,281952.2,-1.921598,72.2502
215.44346900318823,807280.6,24.15017,72.2621
464.15888336127773,404888.0,69.88411,72.2627
1000.0,941294.7,-81.80287,72.2578
2154.4346900318824,329763.4,-96.49988,72.2584
4641.588833612777,350713.4,-102.6834,72.2596
10000.0,177157.7,-101.8861,72.2571
