Frequency,Impedance,Phase Angle,Temperature (Dry Bath)
10.0,4747907.0,-5.518178,70.5268
21.544346900318832,12057620.0,-23.57728,70.5253
46.41588833612777,4117304.0,-21.93417,70.5305
100.0,539274.4,147.2596,70.5277
215.44346900318823,1363462.0,-52.009,70.5439
464.15888336127773,570338.7,-99.52923,70.5309
1000.0,238353.5,-28.6831,70.5354
2154.4346900318824,237891.1,-98.71704,70.5388
4641.588833612777,169501.3,-88.35324,70.5303
10000.0,68980.64,-95.70116,70.5187
