Frequency,Impedance,Phase Angle,Temperature (Dry Bath)
10.0,1394914.0,-28.36532,71.1951
21.544346900318832,1172746.0,-20.44978,71.1836
46.41588833612777,943672.9,-17.97752,71.2084
100.0,323484.2,24.8957,71.1983
215.44346900318823,646274.2,-34.76203,71.1871
464.15888336127773,444986.2,-17.68961,71.1832
1000.0,303687.8,-36.10324,71.1874
2154.4346900318824,242694.9,-64.84046,71.1959
4641.588833612777,121296.8,-77.18482,71.2087
10000.0,60358.5,-87.88819,71.1876
