Frequency,Impedance,Phase Angle,Temperature (Dry Bath)
10.0,214888.3,-26.0064,66.3919
21.544346900318832,172226.4,-24.61156,66.3806
46.41588833612777,141710.4,-21.73699,66.3717
100.0,127516.4,-16.62389,66.3791
215.44346900318823,97541.14,1.415451,66.3787
464.15888336127773,80500.37,-17.73634,66.3878
1000.0,77306.56,-26.72091,66.3736
2154.4346900318824,70392.74,-25.15056,66.368
4641.588833612777,46478.23,-41.47784,66.3623
10000.0,35157.15,-50.27479,66.3663
