Frequency,Impedance,Phase Angle,Temperature (Dry Bath)
10.0,6316717.0,13.04297,71.3921
21.544346900318832,4406619.0,-18.74271,71.4046
46.41588833612777,3803313.0,-20.13217,71.3938
100.0,427656.0,99.1763,71.4008
215.44346900318823,394831.1,-60.29828,71.4117
464.15888336127773,1519785.0,-19.06044,71.378
1000.0,448568.5,-102.4708,71.41
2154.4346900318824,289033.9,-93.11573,71.4134
4641.588833612777,182812.0,-80.55508,71.4003
10000.0,64810.32,-82.28317,71.4028
