Frequency,Impedance,Phase Angle,Temperature (Dry Bath)
10.0,162189.6,-9.215549,65.6831
21.544346900318832,153839.7,-7.104843,65.6766
46.41588833612777,144069.8,-7.249144,65.6724
100.0,151623.3,11.68027,65.6913
215.44346900318823,86745.25,-16.83173,65.6775
464.15888336127773,107108.4,-12.2824,65.6738
1000.0,98158.54,-27.43879,65.6668
2154.4346900318824,105840.7,-32.91423,65.6487
4641.588833612777,75705.74,-42.65444,65.6811
10000.0,45822.36,-57.4721,65.6789
