Frequency,Impedance,Phase Angle,Temperature (Dry Bath)
10.0,16165.28,-20.24109,70.938
21.544346900318832,13911.91,-17.32911,70.9437
46.41588833612777,12198.95,-15.2196,70.9449
100.0,11070.07,-14.33953,70.9445
215.44346900318823,9799.636,-11.78555,70.9376
464.15888336127773,9046.502,-10.73303,70.9443
1000.0,8257.866,-9.814914,70.9388
2154.4346900318824,7638.657,-8.934988,70.9424
4641.588833612777,7101.942,-10.15727,70.9391
10000.0,6882.984,-12.06217,70.9428
