Frequency,Impedance,Phase Angle,Temperature (Dry Bath)
10.0,7862400.0,-20.24535,71.0811
21.544346900318832,6216401.0,-7.668573,71.0589
46.41588833612777,4872929.0,-18.27296,71.0777
100.0,579799.3,-4.740082,71.0691
215.44346900318823,481099.6,-31.68675,71.0688
464.15888336127773,1443430.0,-112.5971,71.0788
1000.0,446529.7,-90.14562,71.0572
2154.4346900318824,188812.7,-75.64078,71.0811
4641.588833612777,100852.7,-80.32947,71.0596
10000.0,54097.85,-87.39247,71.0669
