Frequency,Impedance,Phase Angle,Temperature (Dry Bath)
10.0,4172830.0,2.005358,65.8344
21.544346900318832,6251089.0,-33.87416,65.8478
46.41588833612777,4386472.0,5.42683,65.8466
100.0,709629.8,-129.3677,65.8373
215.44346900318823,18414.17,84.04082,65.8635
464.15888336127773,638858.0,-10.9064,65.8471
1000.0,487988.0,-120.933,65.8578
2154.4346900318824,223584.7,-85.62878,65.8367
4641.588833612777,133670.8,-84.47855,65.8161
10000.0,68133.23,-86.51164,65.8352
