Frequency,Impedance,Phase Angle,Temperature (Dry Bath)
10.0,7187.446,-36.99396,71.131
21.544346900318832,5359.709,-33.03112,71.137
46.41588833612777,4140.76,-29.06107,71.1409
100.0,3316.513,-24.98094,71.1245
215.44346900318823,2730.162,-20.78284,71.1337
464.15888336127773,2341.046,-17.21094,71.1358
1000.0,2066.626,-13.97817,71.137
2154.4346900318824,1868.671,-11.56261,71.1341
4641.588833612777,1722.651,-9.787847,71.1322
10000.0,1604.045,-9.272359,71.135
