Frequency,Impedance,Phase Angle,Temperature (Dry Bath)
10.0,8012556.0,2.754897,70.6456
21.544346900318832,5488174.0,-11.3736,70.6561
46.41588833612777,5151546.0,3.500728,70.6338
100.0,465046.4,-142.9215,70.6494
215.44346900318823,959189.5,-60.19362,70.6443
464.15888336127773,762086.1,-51.0765,70.6443
1000.0,206729.2,-18.98271,70.6162
2154.4346900318824,271489.4,-81.58146,70.6152
4641.588833612777,105776.2,-85.37994,70.6323
10000.0,56267.97,-87.8293,70.6255
