Frequency,Impedance,Phase Angle,Temperature (Dry Bath)
10.0,5883056.0,-23.25909,71.3057
21.544346900318832,7352148.0,-5.404725,71.3027
46.41588833612777,4234533.0,-13.37619,71.3114
100.0,454522.2,42.70338,71.2933
215.44346900318823,4182245.0,-7.553096,71.2913
464.15888336127773,665207.3,158.942,71.2906
1000.0,505717.8,-65.42977,71.3059
2154.4346900318824,507222.2,-88.54796,71.2968
4641.588833612777,232666.2,-105.6944,71.3113
10000.0,100542.0,-86.01803,71.3113
