Frequency,Impedance,Phase Angle,Temperature (Dry Bath)
10.0,5110599.0,-22.68498,70.8876
21.544346900318832,4461157.0,-8.065945,70.8982
46.41588833612777,5101649.0,-24.62875,70.9042
100.0,334417.3,47.48035,70.8931
215.44346900318823,828032.9,-126.9358,70.8948
464.15888336127773,3518540.0,-132.8051,70.8853
1000.0,662696.1,-93.26283,70.8996
2154.4346900318824,229783.7,-69.71996,70.8914
4641.588833612777,116408.5,-80.29796,70.8988
10000.0,58271.04,-88.34134,70.8937
