Frequency,Impedance,Phase Angle,Temperature (Dry Bath)
10.0,13234.42,-27.64685,71.1426
21.544346900318832,10561.4,-24.94342,71.1249
46.41588833612777,8650.534,-22.26371,71.1312
100.0,7191.612,-19.25171,71.1364
215.44346900318823,6344.702,-16.7361,71.1122
464.15888336127773,5499.975,-14.97737,71.1239
1000.0,4888.804,-13.07135,71.1145
2154.4346900318824,4430.144,-12.33705,71.1251
4641.588833612777,4035.197,-12.2423,71.1283
10000.0,3706.856,-12.78256,71.108
