Frequency,Impedance,Phase Angle,Temperature (Dry Bath)
10.0,4598340.0,-28.03291,70.76
21.544346900318832,3331210.0,-23.11438,70.7578
46.41588833612777,3903938.0,-37.77067,70.7613
100.0,590554.4,40.66604,70.7508
215.44346900318823,774046.7,-47.8035,70.763
464.15888336127773,1971047.0,85.35283,70.7589
1000.0,1056138.0,-81.28626,70.7568
2154.4346900318824,298843.9,-102.8746,70.7665
4641.588833612777,112678.0,-85.82618,70.7626
10000.0,63059.59,-89.03483,70.7567
