Frequency,Impedance,Phase Angle,Temperature (Dry Bath)
10.0,4259072.0,0.1871588,65.7887
21.544346900318832,4087979.0,-16.47748,65.7758
46.41588833612777,4226456.0,-10.07443,65.7798
100.0,1068241.0,-121.1554,65.7897
215.44346900318823,13985.3,-92.34451,65.7853
464.15888336127773,794140.8,-153.8172,65.7908
1000.0,752906.8,-60.00099,65.7748
2154.4346900318824,248823.6,-95.8594,65.7865
4641.588833612777,136554.0,-74.1418,65.7764
10000.0,60673.65,-86.48094,65.7833
