Frequency,Impedance,Phase Angle,Temperature (Dry Bath)
10.0,2643868.0,-26.15179,66.1517
21.544346900318832,2065732.0,-20.59904,66.1561
46.41588833612777,2101312.0,-17.31686,66.1565
100.0,566989.8,-161.5109,66.1437
215.44346900318823,156690.3,-93.5462,66.1386
464.15888336127773,763011.9,-13.17304,66.1637
1000.0,513763.4,-98.4417,66.1546
2154.4346900318824,365573.0,-59.64597,66.1498
4641.588833612777,132058.2,-82.76968,66.1437
10000.0,70733.15,-86.33547,66.142
