Frequency,Impedance,Phase Angle,Temperature (Dry Bath)
10.0,24763.96,-20.11973,71.3827
21.544346900318832,21080.98,-17.82547,71.3974
46.41588833612777,18357.6,-15.52475,71.3961
100.0,15672.18,-12.24792,71.3888
215.44346900318823,9597.856,25.25983,71.3987
464.15888336127773,13416.95,-9.998476,71.3821
1000.0,12590.5,-10.64107,71.371
2154.4346900318824,11754.79,-10.18403,71.3797
4641.588833612777,11209.12,-11.16302,71.3868
10000.0,10432.16,-15.34309,71.386
