Frequency,Impedance,Phase Angle,Temperature (Dry Bath)
10.0,5986854.0,3.368074,70.6725
21.544346900318832,5312202.0,-25.19508,70.6723
46.41588833612777,6987975.0,-35.90005,70.6681
100.0,673501.7,55.04005,70.6914
215.44346900318823,575930.0,-11.34708,70.6744
464.15888336127773,996589.9,-137.3473,70.6667
1000.0,227862.7,126.5414,70.6816
2154.4346900318824,283658.9,-104.2834,70.6853
4641.588833612777,137939.3,-73.07038,70.6758
10000.0,59843.28,-86.41521,70.6751
