Frequency,Impedance,Phase Angle,Temperature (Dry Bath)
10.0,24353.52,-19.96536,71.1833
21.544346900318832,20825.66,-17.81465,71.1819
46.41588833612777,18158.51,-15.70795,71.1927
100.0,15936.71,-13.01767,71.1826
215.44346900318823,14522.27,-12.9242,71.1758
464.15888336127773,13364.46,-10.61157,71.1816
1000.0,12011.23,-9.475433,71.1853
2154.4346900318824,11430.55,-9.616486,71.1858
4641.588833612777,11151.18,-11.26254,71.1774
10000.0,10012.7,-14.38892,71.1858
