Frequency,Impedance,Phase Angle,Temperature (Dry Bath)
10.0,4869001.0,-9.921732,70.9126
21.544346900318832,6019203.0,-19.86312,70.9309
46.41588833612777,5538434.0,-23.29676,70.9216
100.0,517328.6,-26.60199,70.9025
215.44346900318823,564216.7,-48.25172,70.929
464.15888336127773,1648278.0,-73.61509,70.9253
1000.0,327416.0,-114.501,70.9355
2154.4346900318824,301688.3,-83.27054,70.9142
4641.588833612777,122383.0,-85.52186,70.9163
10000.0,69989.33,-91.04671,70.9206
