Frequency,Impedance,Phase Angle,Temperature (Dry Bath)
10.0,3069272.0,6.963813,71.0301
21.544346900318832,6518756.0,-1.028093,71.0291
46.41588833612777,4088758.0,-29.19596,71.042
100.0,395090.4,-74.47958,71.0367
215.44346900318823,441954.7,-60.33884,71.0318
464.15888336127773,963410.9,-152.3257,71.0503
1000.0,448097.4,-99.90214,71.0436
2154.4346900318824,440731.6,-98.07034,71.0412
4641.588833612777,144976.6,-93.50642,71.0286
10000.0,63175.91,-84.7227,71.0293
