Frequency,Impedance,Phase Angle,Temperature (Dry Bath)
10.0,185887.9,-20.25656,65.788
21.544346900318832,160823.4,-18.41531,65.7841
46.41588833612777,141575.8,-17.22865,65.8021
100.0,113174.9,-25.41036,65.792
215.44346900318823,10729.49,72.5174,65.7897
464.15888336127773,103297.0,-19.33157,65.7867
1000.0,91779.74,-23.52566,65.8001
2154.4346900318824,66926.27,-28.70131,65.7772
4641.588833612777,50357.25,-34.92179,65.806
10000.0,38521.82,-54.46956,65.8129
