Frequency,Impedance,Phase Angle,Temperature (Dry Bath)
10.0,2404320.0,-29.24429,66.3841
21.544346900318832,2008839.0,-16.4421,66.3862
46.41588833612777,1668665.0,-24.76698,66.3896
100.0,970417.7,83.32497,66.3922
215.44346900318823,331734.4,-60.68354,66.3858
464.15888336127773,646924.8,-32.02664,66.3804
1000.0,352685.0,0.3632987,66.3867
2154.4346900318824,217827.4,-81.70845,66.3952
4641.588833612777,149336.3,-91.52982,66.3777
10000.0,61468.31,-79.25304,66.3945
