Frequency,Impedance,Phase Angle,Temperature (Dry Bath)
10.0,8509279.0,-22.32229,66.3786
21.544346900318832,5375144.0,-12.14285,66.3697
46.41588833612777,4674717.0,-39.20432,66.3733
100.0,342083.2,-117.5738,66.3865
215.44346900318823,448788.4,-107.6484,66.3816
464.15888336127773,940742.9,74.44621,66.3891
1000.0,333112.1,-39.1147,66.3628
2154.4346900318824,315990.7,-62.57331,66.3698
4641.588833612777,131613.5,-87.13695,66.3764
10000.0,64627.49,-86.23974,66.3772
