Frequency,Impedance,Phase Angle,Temperature (Dry Bath)
10.0,3643502.0,20.72536,66.405
21.544346900318832,6841845.0,-7.416465,66.3998
46.41588833612777,3607546.0,-5.487286,66.4064
100.0,1534958.0,156.0274,66.4042
215.44346900318823,191271.3,-74.36569,66.4018
464.15888336127773,612093.6,-79.29328,66.4011
1000.0,473329.9,-96.95142,66.4081
2154.4346900318824,209893.0,-80.0499,66.3916
4641.588833612777,125831.0,-81.24737,66.4054
10000.0,64214.03,-88.10679,66.3935
