Frequency,Impedance,Phase Angle,Temperature (Dry Bath)
10.0,1883738.0,-20.52977,70.938
21.544346900318832,1420271.0,-27.53657,70.9375
46.41588833612777,1115733.0,-19.73351,70.9407
100.0,716373.3,34.01181,70.9328
215.44346900318823,4895330.0,-50.28158,70.9503
464.15888336127773,787660.2,-32.0744,70.9377
1000.0,272198.3,-81.53663,70.9279
2154.4346900318824,224303.6,-74.90716,70.9443
4641.588833612777,101486.5,-65.52498,70.9291
10000.0,63398.54,-78.93675,70.9448
