Frequency,Impedance,Phase Angle,Temperature (Dry Bath)
10.0,163521.8,-8.905302,66.3802
21.544346900318832,150127.5,-8.151297,66.3555
46.41588833612777,141922.3,-8.016861,66.3711
100.0,108992.8,-35.99623,66.3618
215.44346900318823,118523.7,-9.177861,66.3685
464.15888336127773,119982.0,-7.481538,66.368
1000.0,106034.8,-20.09628,66.3689
2154.4346900318824,105221.6,-24.78532,66.3764
4641.588833612777,76616.9,-43.30295,66.3636
10000.0,45202.92,-64.24738,66.3843
