Frequency,Impedance,Phase Angle,Temperature (Dry Bath)
10.0,66778.83,-10.83249,71.2218
21.544346900318832,62159.21,-9.171707,71.2236
46.41588833612777,58311.39,-7.65637,71.2235
100.0,60620.11,-5.732935,71.2216
215.44346900318823,54102.82,0.9830974,71.2145
464.15888336127773,46911.79,1.278158,71.2344
1000.0,40094.16,-9.681489,71.2221
2154.4346900318824,50147.28,-9.552217,71.2245
4641.588833612777,39515.58,-14.26473,71.2434
10000.0,35533.53,-31.95352,71.222
