Frequency,Impedance,Phase Angle,Temperature (Dry Bath)
10.0,11634740.0,-24.55034,71.4845
21.544346900318832,5492166.0,-1.637403,71.5013
46.41588833612777,4063130.0,-44.05449,71.4835
100.0,819926.1,172.7981,71.4878
215.44346900318823,620984.5,-1.28718,71.4981
464.15888336127773,2302212.0,168.6953,71.5
1000.0,850761.0,-51.9527,71.4875
2154.4346900318824,171460.6,-77.90079,71.5
4641.588833612777,197093.6,-80.13145,71.496
10000.0,49096.92,-86.08845,71.4926
