Frequency,Impedance,Phase Angle,Temperature (Dry Bath)
10.0,4978242.0,26.437,71.2309
21.544346900318832,3084792.0,-22.04455,71.2519
46.41588833612777,5339114.0,-39.41369,71.2384
100.0,479877.4,71.52944,71.2606
215.44346900318823,7920848.0,39.84042,71.257
464.15888336127773,718897.7,-115.704,71.2502
1000.0,455041.1,-134.6499,71.2651
2154.4346900318824,304855.8,-73.15766,71.2451
4641.588833612777,133276.3,-90.43408,71.2656
10000.0,66289.81,-85.67412,71.2533
