Frequency,Impedance,Phase Angle,Temperature (Dry Bath)
10.0,4616813.0,14.54646,71.4491
21.544346900318832,4503870.0,-29.05472,71.4255
46.41588833612777,3771343.0,-39.17252,71.4469
100.0,1389881.0,-28.8576,71.4539
215.44346900318823,511598.2,-116.6821,71.451
464.15888336127773,808085.7,-149.5392,71.4531
1000.0,1129062.0,177.5183,71.4528
2154.4346900318824,322165.4,-38.97095,71.4503
4641.588833612777,130374.4,-79.39338,71.4691
10000.0,63352.23,-83.81701,71.4768
