Frequency,Impedance,Phase Angle,Temperature (Dry Bath)
10.0,20529.85,-21.96091,71.4902
21.544346900318832,17000.27,-21.24845,71.4982
46.41588833612777,14155.77,-20.30905,71.4905
100.0,12248.02,-17.30327,71.4893
215.44346900318823,10365.73,-17.13875,71.499
464.15888336127773,9200.022,-14.53919,71.5064
1000.0,8125.87,-11.76668,71.4909
2154.4346900318824,7437.173,-10.27816,71.4889
4641.588833612777,6930.03,-10.56656,71.4914
10000.0,6408.342,-10.49535,71.4868
