Frequency,Impedance,Phase Angle,Temperature (Dry Bath)
10.0,3803283.0,-10.94468,66.4221
21.544346900318832,6211311.0,-22.72718,66.4125
46.41588833612777,4063888.0,-29.30223,66.4277
100.0,809523.9,-31.84517,66.4152
215.44346900318823,191570.3,-98.70212,66.4147
464.15888336127773,1022714.0,-30.51802,66.4123
1000.0,797366.9,-73.36151,66.416
2154.4346900318824,246413.4,-86.55339,66.4146
4641.588833612777,154139.0,-64.27922,66.4117
10000.0,62263.76,-88.58912,66.4227
