Frequency,Impedance,Phase Angle,Temperature (Dry Bath)
10.0,173039.8,-12.21862,66.3012
21.544346900318832,158514.8,-10.78669,66.2941
46.41588833612777,146255.8,-10.40945,66.2893
100.0,125362.2,-13.66295,66.2863
215.44346900318823,120972.3,-12.11382,66.299
464.15888336127773,106777.0,-17.48007,66.3055
1000.0,105300.8,-14.35949,66.2978
2154.4346900318824,91384.37,-32.02873,66.2995
4641.588833612777,69524.13,-27.04543,66.2942
10000.0,53314.3,-60.12668,66.3021
