Frequency,Impedance,Phase Angle,Temperature (Dry Bath)
10.0,7794567.0,-0.3585691,71.2191
21.544346900318832,4548109.0,-34.02762,71.2138
46.41588833612777,3271780.0,-32.99689,71.1979
100.0,896623.0,49.44098,71.2113
215.44346900318823,918484.1,141.8678,71.2029
464.15888336127773,693751.1,-86.68728,71.1938
1000.0,704473.7,-92.07061,71.1959
2154.4346900318824,251712.8,-74.66551,71.2149
4641.588833612777,117891.5,-78.801,71.2277
10000.0,55388.11,-81.15189,71.2159
