Frequency,Impedance,Phase Angle,Temperature (Dry Bath)
10.0,5571306.0,3.884465,71.4965
21.544346900318832,6076534.0,-5.079629,71.4965
46.41588833612777,5942032.0,-8.108591,71.5004
100.0,566573.2,8.588469,71.4893
215.44346900318823,2853735.0,-6.992492,71.4891
464.15888336127773,1055919.0,172.8996,71.4856
1000.0,1067465.0,1.157238,71.5041
2154.4346900318824,370173.1,-67.84269,71.5096
4641.588833612777,209827.7,-74.54419,71.4978
10000.0,163069.8,-85.30375,71.5163
