Frequency,Impedance,Phase Angle,Temperature (Dry Bath)
10.0,5326076.0,-32.17583,66.2913
21.544346900318832,7037518.0,-42.72654,66.2959
46.41588833612777,4152544.0,-23.91642,66.3169
100.0,713788.2,56.08336,66.2921
215.44346900318823,324083.7,-126.2831,66.2992
464.15888336127773,704464.6,-151.897,66.2825
1000.0,236730.8,-113.6472,66.2991
2154.4346900318824,308542.7,-90.81109,66.2771
4641.588833612777,137878.0,-92.32147,66.2944
10000.0,63925.21,-82.94984,66.2813
