Frequency,Impedance,Phase Angle,Temperature (Dry Bath)
10.0,205798.5,-25.86371,66.2674
21.544346900318832,163531.3,-24.52321,66.2645
46.41588833612777,135545.1,-22.59531,66.2574
100.0,92292.29,-17.36848,66.237
215.44346900318823,84663.35,-28.61603,66.2801
464.15888336127773,83612.28,-25.39286,66.2365
1000.0,65944.67,-17.9192,66.2285
2154.4346900318824,59712.19,-30.56465,66.2148
4641.588833612777,49252.17,-37.70061,66.2109
10000.0,36706.87,-53.08184,66.1849
