Frequency,Impedance,Phase Angle,Temperature (Dry Bath)
10.0,64711.74,-14.67703,71.5148
21.544346900318832,58058.45,-13.30038,71.5076
46.41588833612777,52706.11,-12.19444,71.5163
100.0,47559.35,-8.031264,71.5177
215.44346900318823,44439.72,-14.4618,71.5293
464.15888336127773,37820.41,-10.64631,71.5318
1000.0,36691.54,-8.619109,71.5268
2154.4346900318824,35101.39,-14.114,71.5309
4641.588833612777,31926.07,-12.88712,71.5201
10000.0,29643.99,-23.1505,71.5464
