Frequency,Impedance,Phase Angle,Temperature (Dry Bath)
10.0,5488324.0,9.196316,70.8935
21.544346900318832,4893612.0,-23.0392,70.8905
46.41588833612777,7014624.0,-23.85408,70.9074
100.0,369686.2,-22.67709,70.878
215.44346900318823,984272.0,140.3527,70.8818
464.15888336127773,604664.3,-138.1728,70.8949
1000.0,325899.1,-57.54961,70.8853
2154.4346900318824,393737.6,-102.3655,70.8861
4641.588833612777,119215.7,-101.2387,70.8886
10000.0,61659.91,-91.79408,70.8715
