Frequency,Impedance,Phase Angle,Temperature (Dry Bath)
10.0,12793.72,-27.69607,71.4093
21.544346900318832,10195.51,-24.98621,71.4251
46.41588833612777,8329.674,-22.12437,71.4038
100.0,7058.363,-19.78664,71.4045
215.44346900318823,6080.78,-16.91332,71.4125
464.15888336127773,5325.232,-13.97673,71.4229
1000.0,4782.28,-11.6119,71.411
2154.4346900318824,4373.661,-10.16801,71.4054
4641.588833612777,4096.708,-9.646777,71.418
10000.0,3895.663,-9.678569,71.4222
