Frequency,Impedance,Phase Angle,Temperature (Dry Bath)
10.0,42584.06,-14.76254,71.4498
21.544346900318832,38581.68,-12.5943,71.4628
46.41588833612777,35178.61,-11.84761,71.4622
100.0,34144.92,-8.680871,71.4486
215.44346900318823,29965.63,-10.58923,71.4514
464.15888336127773,27527.06,-11.43752,71.462
1000.0,26378.59,-8.051788,71.4681
2154.4346900318824,23656.89,-13.23001,71.4699
4641.588833612777,21312.79,-15.75455,71.4751
10000.0,18456.04,-24.10688,71.4423
