Frequency,Impedance,Phase Angle,Temperature (Dry Bath)
10.0,4619792.0,-5.350628,71.3176
21.544346900318832,4652114.0,5.12008,71.3252
46.41588833612777,4510797.0,2.772134,71.3223
100.0,610192.9,70.91757,71.3142
215.44346900318823,1550065.0,17.06816,71.3189
464.15888336127773,2677728.0,178.925,71.3319
1000.0,910652.2,-133.0254,71.3343
2154.4346900318824,515530.0,-37.94749,71.3283
4641.588833612777,184694.9,-67.37511,71.3267
10000.0,128092.4,-81.38391,71.314
