Frequency,Impedance,Phase Angle,Temperature (Dry Bath)
10.0,75731.62,-15.43334,66.3117
21.544346900318832,66951.68,-14.46879,66.305
46.41588833612777,59859.35,-13.07459,66.3133
100.0,51871.78,-14.04034,66.3142
215.44346900318823,48755.0,-14.34364,66.3171
464.15888336127773,44878.42,-15.54711,66.3103
1000.0,42396.29,-11.85735,66.3251
2154.4346900318824,36746.05,-15.10254,66.3421
4641.588833612777,34840.07,-20.09265,66.3205
10000.0,29441.67,-30.06324,66.3225
