Frequency,Impedance,Phase Angle,Temperature (Dry Bath)
10.0,1172450.0,-7.472085,66.228
21.544346900318832,1070139.0,-9.518257,66.2499
46.41588833612777,1036786.0,-18.06644,66.245
100.0,458898.1,35.17166,66.2429
215.44346900318823,534138.3,95.83959,66.2302
464.15888336127773,401202.2,-22.66425,66.2493
1000.0,242059.6,-42.51288,66.245
2154.4346900318824,236882.3,-79.32438,66.2333
4641.588833612777,136061.7,-101.8746,66.2345
10000.0,62953.65,-79.66826,66.2386
