Frequency,Impedance,Phase Angle,Temperature (Dry Bath)
10.0,4822498.0,-12.83126,71.451
21.544346900318832,4832177.0,-17.2991,71.4463
46.41588833612777,4336142.0,-16.06716,71.435
100.0,877507.2,10.33296,71.4331
215.44346900318823,709673.1,21.6572,71.4431
464.15888336127773,450743.0,-57.84634,71.4525
1000.0,595554.8,-127.1147,71.4433
2154.4346900318824,642939.2,-120.3099,71.4409
4641.588833612777,399020.6,-127.3949,71.4558
10000.0,138805.2,-91.86226,71.4334
