Frequency,Impedance,Phase Angle,Temperature (Dry Bath)
10.0,5742047.0,0.8952296,71.506
21.544346900318832,5031529.0,-10.8376,71.5121
46.41588833612777,5114353.0,-14.77184,71.5121
100.0,750086.0,78.71837,71.4993
215.44346900318823,1076222.0,-103.8454,71.5098
464.15888336127773,1016683.0,18.59483,71.4925
1000.0,692506.5,-82.29871,71.5038
2154.4346900318824,617972.2,-153.8644,71.5139
4641.588833612777,202865.5,-88.89336,71.5131
10000.0,106517.1,-90.63705,71.5133
