Frequency,Impedance,Phase Angle,Temperature (Dry Bath)
10.0,4222365.0,-0.8232359,66.3592
21.544346900318832,9926722.0,-15.12521,66.356
46.41588833612777,6313825.0,3.048336,66.3506
100.0,601517.3,170.538,66.3631
215.44346900318823,365759.0,-104.4462,66.3626
464.15888336127773,1802041.0,-42.40206,66.3536
1000.0,348830.9,-69.96816,66.3463
2154.4346900318824,222128.6,-67.93207,66.363
4641.588833612777,140165.1,-78.89551,66.3611
10000.0,57881.57,-85.26306,66.3423
