Frequency,Impedance,Phase Angle,Temperature (Dry Bath)
10.0,5157.496,-34.84705,70.562
21.544346900318832,3920.322,-29.27361,70.5613
46.41588833612777,3157.758,-23.89679,70.574
100.0,2676.058,-19.86101,70.5694
215.44346900318823,2318.363,-16.04913,70.5673
464.15888336127773,2053.19,-13.34711,70.5415
1000.0,1869.994,-10.82529,70.5315
2154.4346900318824,1712.141,-9.627795,70.5424
4641.588833612777,1600.833,-8.484402,70.5246
10000.0,1508.959,-7.799514,70.539
