Frequency,Impedance,Phase Angle,Temperature (Dry Bath)
10.0,9605526.0,-20.81799,65.7996
21.544346900318832,5351519.0,-11.11254,65.8084
46.41588833612777,3421611.0,-7.853623,65.8086
100.0,663916.6,5.399772,65.811
215.44346900318823,411949.1,-5.160277,65.8092
464.15888336127773,2078581.0,64.92285,65.8053
1000.0,491279.4,-72.37122,65.8147
2154.4346900318824,296851.9,-85.13254,65.7976
4641.588833612777,132038.7,-98.16679,65.8178
10000.0,75381.9,-81.57022,65.8112
