Frequency,Impedance,Phase Angle,Temperature (Dry Bath)
10.0,1144245.0,-7.294736,66.415
21.544346900318832,1024914.0,-4.684855,66.429
46.41588833612777,973957.0,-7.754182,66.45
100.0,441999.1,-61.88974,66.4309
215.44346900318823,322318.1,-35.52648,66.4374
464.15888336127773,1222842.0,-40.65598,66.4462
1000.0,496249.2,-44.43451,66.4195
2154.4346900318824,248463.0,-66.6733,66.4296
4641.588833612777,103631.2,-73.12498,66.4352
10000.0,56356.55,-83.25643,66.4277
