Frequency,Impedance,Phase Angle,Temperature (Dry Bath)
10.0,162252.0,-7.551816,65.7735
21.544346900318832,151935.3,-7.395632,65.7622
46.41588833612777,144751.7,-6.800043,65.7681
100.0,109108.6,-15.3082,65.7741
215.44346900318823,6780.756,167.8643,65.7532
464.15888336127773,111916.4,-15.20604,65.7608
1000.0,118294.4,-15.96288,65.7787
2154.4346900318824,99753.7,-19.96148,65.7801
4641.588833612777,68191.49,-42.70946,65.776
10000.0,50704.42,-60.13978,65.7647
