Frequency,Impedance,Phase Angle,Temperature (Dry Bath)
10.0,575430.8,-5.529135,71.482
21.544346900318832,582044.3,-7.662119,71.4745
46.41588833612777,531772.4,-4.16528,71.4849
100.0,532380.0,-9.3942,71.4737
215.44346900318823,360705.1,-12.26685,71.4786
464.15888336127773,337181.9,-11.10434,71.4635
1000.0,433052.4,-22.95073,71.4643
2154.4346900318824,340430.5,-69.86655,71.4672
4641.588833612777,129766.5,-57.51261,71.4624
10000.0,89781.72,-67.87084,71.4535
