Frequency,Impedance,Phase Angle,Temperature (Dry Bath)
10.0,10941270.0,18.17645,72.2409
21.544346900318832,5511784.0,4.343437,72.2308
46.41588833612777,6459554.0,-9.775691,72.2295
100.0,529379.2,58.03382,72.2274
215.44346900318823,845430.5,-79.37145,72.2198
464.15888336127773,935817.1,-9.590862,72.2369
1000.0,822662.1,5.27216,72.2273
2154.4346900318824,381664.8,-0.9347989,72.2548
4641.588833612777,5717641.0,3.161045,72.2374
10000.0,148753.2,-85.44205,72.2368
