Frequency,Impedance,Phase Angle,Temperature (Dry Bath)
10.0,576063.4,-7.988349,71.2791
21.544346900318832,527169.9,-9.150969,71.2819
46.41588833612777,486244.9,-11.00115,71.2741
100.0,977972.1,-3.600474,71.2886
215.44346900318823,196495.1,-51.66317,71.2803
464.15888336127773,451146.3,-6.334906,71.2853
1000.0,255111.5,-6.016909,71.2802
2154.4346900318824,205259.0,-54.32743,71.2732
4641.588833612777,104563.7,-65.6007,71.2733
10000.0,48568.78,-79.49418,71.2819
