Frequency,Impedance,Phase Angle,Temperature (Dry Bath)
10.0,9030932.0,11.13083,71.22
21.544346900318832,4214168.0,-16.03645,71.2229
46.41588833612777,3950200.0,-13.19883,71.2046
100.0,409603.6,-46.55139,71.2217
215.44346900318823,1706268.0,70.66919,71.2225
464.15888336127773,1681883.0,-68.80412,71.2274
1000.0,713337.5,-63.01813,71.2288
2154.4346900318824,555508.1,-97.53206,71.2155
4641.588833612777,241101.7,-89.91652,71.2107
10000.0,107037.7,-88.07892,71.2133
