Frequency,Impedance,Phase Angle,Temperature (Dry Bath)
10.0,6935952.0,21.34754,71.4262
21.544346900318832,8536136.0,-38.14079,71.4404
46.41588833612777,4743824.0,-14.39156,71.4485
100.0,567029.1,-32.47517,71.4541
215.44346900318823,345325.0,29.53796,71.4603
464.15888336127773,789436.5,-111.6172,71.4647
1000.0,391277.0,50.13034,71.4587
2154.4346900318824,255395.7,-95.99652,71.4551
4641.588833612777,148541.8,-72.76093,71.4664
10000.0,72643.15,-87.46679,71.4513
