Frequency,Impedance,Phase Angle,Temperature (Dry Bath)
10.0,217490.1,-16.14263,71.0657
21.544346900318832,184591.3,-13.932,71.0611
46.41588833612777,166151.6,-13.92987,71.0664
100.0,144197.0,-26.71895,71.0796
215.44346900318823,138665.2,-2.270467,71.068
464.15888336127773,94334.18,-16.92402,71.0751
1000.0,105808.6,-7.576027,71.0684
2154.4346900318824,82581.25,-17.28283,71.0731
4641.588833612777,87414.63,-37.28163,71.0547
10000.0,79633.87,-58.17384,71.057
