Frequency,Impedance,Phase Angle,Temperature (Dry Bath)
10.0,6050403.0,-2.466182,28.6987
21.544346900318832,5353624.0,-7.202734,28.9634
46.41588833612777,4450331.0,-1.763736,29.0073
100.0,471894.2,6.320593,28.9829
215.44346900318823,1483890.0,-53.25827,29.0149
464.15888336127773,893362.6,-32.57963,29.0218
1000.0,1569101.0,164.6799,28.9448
2154.4346900318824,443420.0,-77.79131,28.797
4641.588833612777,320274.6,-62.04777,28.5483
10000.0,137842.1,-87.59913,28.5988
