Frequency,Impedance,Phase Angle,Temperature (Dry Bath)
10.0,562255.7,-28.23397,71.3087
21.544346900318832,438151.5,-25.98081,71.2911
46.41588833612777,360340.2,-24.59347,71.295
100.0,155619.2,-7.92521,71.2951
215.44346900318823,44516.78,-49.82035,71.3025
464.15888336127773,170940.5,-20.00746,71.279
1000.0,138800.2,-1.581294,71.2896
2154.4346900318824,124722.8,-43.84776,71.297
4641.588833612777,86280.63,-49.3319,71.2867
10000.0,48665.74,-65.71668,71.2805
