Frequency,Impedance,Phase Angle,Temperature (Dry Bath)
10.0,240776.2,-24.46305,71.3669
21.544346900318832,198449.2,-22.38504,71.3446
46.41588833612777,170871.3,-21.50278,71.3579
100.0,135554.9,-13.30363,71.3585
215.44346900318823,45893.87,-43.13303,71.3537
464.15888336127773,108242.3,-11.77693,71.3508
1000.0,111128.4,-30.6304,71.3376
2154.4346900318824,86398.16,-28.77667,71.3553
4641.588833612777,62907.19,-38.91761,71.3527
10000.0,41081.0,-56.82565,71.3561
