Frequency,Impedance,Phase Angle,Temperature (Dry Bath)
10.0,3050651.0,-14.81456,71.3397
21.544346900318832,5334473.0,-3.659715,71.3248
46.41588833612777,3782830.0,19.7446,71.3207
100.0,352328.0,-53.61641,71.3327
215.44346900318823,22701.86,53.17579,71.3366
464.15888336127773,934524.7,-11.95114,71.3397
1000.0,408449.9,-50.53756,71.3447
2154.4346900318824,235054.2,-97.79387,71.3516
4641.588833612777,137610.8,-86.81581,71.3398
10000.0,59728.78,-82.34521,71.3231
