Frequency,Impedance,Phase Angle,Temperature (Dry Bath)
10.0,45178.41,-15.09375,70.4882
21.544346900318832,40423.57,-13.20968,70.5126
46.41588833612777,36901.92,-12.1631,70.5066
100.0,32566.01,-11.0239,70.509
215.44346900318823,31916.69,-8.978689,70.5125
464.15888336127773,28819.6,-12.84979,70.5083
1000.0,27337.54,-11.68542,70.501
2154.4346900318824,23286.24,-15.2828,70.5067
4641.588833612777,21928.91,-18.64419,70.5053
10000.0,21007.44,-24.14359,70.5155
