Frequency,Impedance,Phase Angle,Temperature (Dry Bath)
10.0,4222241.0,-0.8345856,65.8529
21.544346900318832,9983560.0,-17.80603,65.8645
46.41588833612777,3721091.0,-18.81415,65.843
100.0,200858.2,2.762868,65.8451
215.44346900318823,10046.44,86.24202,65.8453
464.15888336127773,2359504.0,-0.8516771,65.8619
1000.0,986803.1,164.2332,65.8504
2154.4346900318824,290000.4,-93.07573,65.8541
4641.588833612777,102516.2,-64.93421,65.8497
10000.0,69263.87,-81.4855,65.8515
