Frequency,Impedance,Phase Angle,Temperature (Dry Bath)
10.0,15229.33,-26.41124,71.5197
21.544346900318832,12077.73,-27.1243,71.5232
46.41588833612777,9494.622,-27.27569,71.5138
100.0,7461.023,-26.44713,71.5117
215.44346900318823,6008.502,-24.45892,71.5114
464.15888336127773,4896.892,-22.54361,71.5071
1000.0,4084.508,-19.6823,71.5088
2154.4346900318824,3494.092,-17.1062,71.5126
4641.588833612777,3067.803,-15.4493,71.5158
10000.0,2749.558,-14.09753,71.5196
