Frequency,Impedance,Phase Angle,Temperature (Dry Bath)
10.0,5521578.0,7.097725,66.2788
21.544346900318832,3987733.0,4.325812,66.3042
46.41588833612777,5074344.0,-23.6083,66.2999
100.0,461371.5,-42.17036,66.2782
215.44346900318823,521380.4,62.94249,66.3013
464.15888336127773,1119331.0,-135.7664,66.2819
1000.0,620574.5,-24.73742,66.2908
2154.4346900318824,599639.5,-93.19999,66.2907
4641.588833612777,185006.3,-87.82487,66.3066
10000.0,66039.75,-91.69451,66.303
