Frequency,Impedance,Phase Angle,Temperature (Dry Bath)
10.0,1719143.0,-16.03244,65.7303
21.544346900318832,1436810.0,-14.57445,65.748
46.41588833612777,1184421.0,-18.24742,65.7443
100.0,239496.3,32.43682,65.7571
215.44346900318823,327606.5,145.5059,65.7517
464.15888336127773,421439.7,-80.75295,65.7342
1000.0,977619.4,-119.9191,65.7435
2154.4346900318824,218969.7,-60.69658,65.7489
4641.588833612777,151417.7,-74.45325,65.7293
10000.0,81871.07,-86.50894,65.735
