Frequency,Impedance,Phase Angle,Temperature (Dry Bath)
10.0,5427151.0,-20.34184,71.2567
21.544346900318832,5610067.0,-30.17135,71.2248
46.41588833612777,3536095.0,-46.44257,71.2336
100.0,831640.4,-134.3028,71.2115
215.44346900318823,381472.2,-17.92336,71.221
464.15888336127773,1035502.0,-163.3671,71.2039
1000.0,237438.6,-71.5746,71.2062
2154.4346900318824,143776.4,-84.70942,71.2005
4641.588833612777,85837.12,-90.49289,71.2024
10000.0,37733.51,-87.37121,71.1942
