Frequency,Impedance,Phase Angle,Temperature (Dry Bath)
10.0,163520.2,-8.90466,65.7365
21.544346900318832,154948.5,-7.889834,65.724
46.41588833612777,141927.1,-8.120516,65.7278
100.0,168162.3,-21.15404,65.7407
215.44346900318823,24519.78,109.2151,65.7405
464.15888336127773,105342.6,-15.56596,65.7437
1000.0,110216.0,-16.51644,65.7338
2154.4346900318824,92531.02,-27.20849,65.7429
4641.588833612777,82795.95,-46.10381,65.7429
10000.0,50718.22,-55.57289,65.7437
