Frequency,Impedance,Phase Angle,Temperature (Dry Bath)
10.0,3932730.0,10.76334,70.8123
21.544346900318832,5234129.0,5.663292,70.842
46.41588833612777,4050586.0,-10.08838,70.8277
100.0,308220.5,-107.3121,70.8198
215.44346900318823,1134918.0,39.35997,70.8252
464.15888336127773,1656069.0,70.45626,70.8355
1000.0,458737.6,-79.72237,70.8436
2154.4346900318824,284099.0,-103.1338,70.824
4641.588833612777,131475.7,-70.04787,70.8377
10000.0,59584.98,-89.2189,70.8381
