Frequency,Impedance,Phase Angle,Temperature (Dry Bath)
10.0,368508.9,-24.27451,70.9629
21.544346900318832,308271.4,-23.05664,70.973
46.41588833612777,245846.0,-20.61277,70.9821
100.0,208670.7,-18.08383,70.9855
215.44346900318823,135903.9,-11.44714,70.9737
464.15888336127773,149844.4,-12.24348,70.9749
1000.0,121573.1,-20.4161,70.9706
2154.4346900318824,130662.0,-45.06727,70.9548
4641.588833612777,63027.95,-45.71798,70.9533
10000.0,44234.21,-60.39602,70.9638
