Frequency,Impedance,Phase Angle,Temperature (Dry Bath)
10.0,6032147.0,-5.246224,71.2211
21.544346900318832,8804728.0,14.85994,71.2262
46.41588833612777,4190554.0,-10.27388,71.2252
100.0,472056.7,-2.481688,71.2213
215.44346900318823,555928.1,161.5282,71.2255
464.15888336127773,731025.5,-134.8028,71.2312
1000.0,443233.7,59.32969,71.2255
2154.4346900318824,778496.4,-1.53609,71.2268
4641.588833612777,346365.6,-35.70042,71.2219
10000.0,250246.9,-75.27649,71.2565
