Frequency,Impedance,Phase Angle,Temperature (Dry Bath)
10.0,279919.4,-25.81839,71.3366
21.544346900318832,233302.9,-21.81466,71.3565
46.41588833612777,194659.9,-19.96924,71.3509
100.0,114718.8,-17.73126,71.3469
215.44346900318823,132724.8,-11.59731,71.3625
464.15888336127773,126233.6,-24.84171,71.3564
1000.0,124665.6,-17.40982,71.3466
2154.4346900318824,89472.58,-32.12244,71.3421
4641.588833612777,67045.32,-43.52931,71.3771
10000.0,42300.71,-64.67556,71.3535
