Frequency,Impedance,Phase Angle,Temperature (Dry Bath)
10.0,177206.0,-13.1681,71.3471
21.544346900318832,158822.4,-11.71612,71.3358
46.41588833612777,147660.5,-11.52817,71.3367
100.0,128761.1,-12.8239,71.3513
215.44346900318823,172195.4,-16.01346,71.3435
464.15888336127773,112658.4,-13.37957,71.356
1000.0,115942.6,-26.7431,71.338
2154.4346900318824,89217.08,-21.71104,71.3589
4641.588833612777,71363.63,-40.81738,71.3556
10000.0,57953.29,-52.52701,71.353
