Frequency,Impedance,Phase Angle,Temperature (Dry Bath)
10.0,12809.85,-24.98006,71.5001
21.544346900318832,10335.91,-25.38035,71.5056
46.41588833612777,8258.909,-25.28587,71.5089
100.0,6598.365,-24.20206,71.4932
215.44346900318823,5388.689,-22.22087,71.5006
464.15888336127773,4484.245,-20.04856,71.5147
1000.0,3794.093,-17.93321,71.5059
2154.4346900318824,3319.018,-15.46613,71.5047
4641.588833612777,2954.332,-14.14541,71.4924
10000.0,2663.664,-12.97677,71.5047
