Frequency,Impedance,Phase Angle,Temperature (Dry Bath)
10.0,5338985.0,-37.67315,70.9519
21.544346900318832,5231575.0,16.64743,70.9649
46.41588833612777,4403291.0,-9.866743,70.9554
100.0,1226804.0,7.104727,70.9474
215.44346900318823,887223.2,-116.5977,70.9485
464.15888336127773,712210.9,-44.65111,70.9587
1000.0,629922.6,-105.1493,70.951
2154.4346900318824,554370.9,-98.67706,70.95
4641.588833612777,112379.7,-88.73092,70.9395
10000.0,67279.73,-96.62352,70.9605
