Frequency,Impedance,Phase Angle,Temperature (Dry Bath)
10.0,29164.37,-18.53232,71.4538
21.544346900318832,25203.76,-17.47507,71.4233
46.41588833612777,21957.77,-16.97199,71.4418
100.0,19346.03,-15.44423,71.4431
215.44346900318823,16837.99,-14.89872,71.4386
464.15888336127773,14993.49,-13.52159,71.4334
1000.0,13401.25,-12.86183,71.4408
2154.4346900318824,12026.93,-11.75867,71.4486
4641.588833612777,11170.63,-11.27072,71.4509
10000.0,10349.07,-12.15779,71.4431
