Frequency,Impedance,Phase Angle,Temperature (Dry Bath)
10.0,194480.0,-26.96987,65.782
21.544346900318832,154752.0,-25.18581,65.7846
46.41588833612777,124604.4,-22.42398,65.7853
100.0,124478.4,-41.28486,65.7537
215.44346900318823,102963.8,-31.39332,65.758
464.15888336127773,76289.38,-21.53114,65.7657
1000.0,66719.54,-14.98943,65.7532
2154.4346900318824,59112.03,-22.61516,65.7614
4641.588833612777,54412.73,-39.076,65.7641
10000.0,37404.76,-51.53532,65.7443
