Frequency,Impedance,Phase Angle,Temperature (Dry Bath)
10.0,5048230.0,4.655011,71.4148
21.544346900318832,4233359.0,-15.90683,71.4264
46.41588833612777,8676834.0,-50.39637,71.4629
100.0,866774.2,-76.28259,71.4274
215.44346900318823,586634.9,-110.5387,71.4389
464.15888336127773,1086080.0,-61.46741,71.4254
1000.0,288718.3,21.81325,71.4347
2154.4346900318824,235396.5,-79.47976,71.4309
4641.588833612777,133508.7,-84.74232,71.4285
10000.0,73279.08,-80.9242,71.4285
