Frequency,Impedance,Phase Angle,Temperature (Dry Bath)
10.0,5363950.0,-39.38575,65.7588
21.544346900318832,3806825.0,-9.216023,65.7659
46.41588833612777,3698107.0,-24.48974,65.7451
100.0,365589.0,91.30851,65.7277
215.44346900318823,516705.2,54.96383,65.7371
464.15888336127773,353509.8,-118.1162,65.7366
1000.0,772616.0,-12.61287,65.7249
2154.4346900318824,230347.5,-84.43615,65.7257
4641.588833612777,125328.2,-96.81992,65.7201
10000.0,71537.98,-90.35998,65.7415
