Frequency,Impedance,Phase Angle,Temperature (Dry Bath)
10.0,4329850.0,17.12382,70.7114
21.544346900318832,4356181.0,10.11071,70.7006
46.41588833612777,6858932.0,-42.70161,70.6982
100.0,748368.7,-81.28701,70.6982
215.44346900318823,2217252.0,20.20499,70.7049
464.15888336127773,405140.3,-96.26909,70.7078
1000.0,237250.0,-49.33461,70.6811
2154.4346900318824,211791.3,-83.11489,70.6945
4641.588833612777,124337.3,-82.85067,70.7037
10000.0,65427.69,-85.872,70.7013
