Frequency,Impedance,Phase Angle,Temperature (Dry Bath)
10.0,5154533.0,6.871618,71.1365
21.544346900318832,4198445.0,-9.141608,71.1354
46.41588833612777,5784575.0,-39.46942,71.1372
100.0,511140.2,-81.68832,71.1213
215.44346900318823,504185.2,-47.00078,71.1171
464.15888336127773,633490.2,-70.92297,71.1206
1000.0,460285.9,-58.12764,71.1055
2154.4346900318824,292929.9,-106.1758,71.1196
4641.588833612777,196796.4,-96.98892,71.114
10000.0,68058.45,-86.0817,71.1172
