Frequency,Impedance,Phase Angle,Temperature (Dry Bath)
10.0,12644.43,-23.37454,71.1331
21.544346900318832,10597.71,-19.75052,71.1092
46.41588833612777,9158.787,-16.70385,71.1154
100.0,8088.323,-13.76887,71.1264
215.44346900318823,7371.884,-12.48255,71.1253
464.15888336127773,6636.973,-10.17674,71.1243
1000.0,6156.51,-9.430131,71.1338
2154.4346900318824,5708.696,-9.211486,71.1274
4641.588833612777,5364.434,-9.25184,71.1146
10000.0,5086.968,-11.47905,71.1189
