Frequency,Impedance,Phase Angle,Temperature (Dry Bath)
10.0,3697883.0,3.51199,71.5165
21.544346900318832,3740234.0,2.505171,71.4995
46.41588833612777,3549871.0,-15.80625,71.4872
100.0,443653.4,-68.05337,71.495
215.44346900318823,1350789.0,-24.31373,71.513
464.15888336127773,550282.2,-22.47712,71.507
1000.0,397584.5,-82.71786,71.5044
2154.4346900318824,218996.8,-80.65358,71.4909
4641.588833612777,79444.89,-87.86482,71.4872
10000.0,73528.98,-75.25549,71.487
