Frequency,Impedance,Phase Angle,Temperature (Dry Bath)
10.0,9256.581,-26.37227,70.9324
21.544346900318832,7566.392,-22.09878,70.9303
46.41588833612777,6414.536,-18.35362,70.9441
100.0,5630.719,-15.09165,70.9297
215.44346900318823,5035.732,-12.68939,70.9436
464.15888336127773,4557.805,-10.48369,70.9298
1000.0,4223.656,-8.437631,70.9231
2154.4346900318824,4010.759,-8.106329,70.9297
4641.588833612777,3765.983,-7.214172,70.9406
10000.0,3606.059,-9.612133,70.9311
