Frequency,Impedance,Phase Angle,Temperature (Dry Bath)
10.0,23774.38,-22.1167,71.3009
21.544346900318832,19463.86,-23.84714,71.2896
46.41588833612777,15711.39,-25.35114,71.2853
100.0,12282.11,-25.00601,71.2905
215.44346900318823,9998.455,-25.47213,71.3044
464.15888336127773,8298.354,-26.10598,71.2934
1000.0,6363.417,-25.19695,71.2971
2154.4346900318824,5107.182,-23.98246,71.3058
4641.588833612777,4208.215,-21.89994,71.2913
10000.0,3548.74,-19.71368,71.2974
