Frequency,Impedance,Phase Angle,Temperature (Dry Bath)
10.0,27269.73,-29.37846,71.5412
21.544346900318832,21383.38,-27.719,71.5372
46.41588833612777,17006.8,-25.71183,71.5425
100.0,13773.76,-22.0126,71.5193
215.44346900318823,11408.03,-20.26775,71.5457
464.15888336127773,9882.648,-17.59802,71.5364
1000.0,8720.86,-15.30123,71.5346
2154.4346900318824,7759.472,-13.04986,71.5454
4641.588833612777,7001.207,-13.46923,71.535
10000.0,6543.251,-14.25324,71.5314
