Frequency,Impedance,Phase Angle,Temperature (Dry Bath)
10.0,2190404.0,-28.27324,65.69
21.544346900318832,1931570.0,-31.11086,65.6844
46.41588833612777,1566391.0,-11.64691,65.693
100.0,2258079.0,-34.4344,65.688
215.44346900318823,34811.41,65.37989,65.697
464.15888336127773,614340.0,-58.4262,65.697
1000.0,305261.4,-48.63818,65.7063
2154.4346900318824,203930.2,-63.14674,65.6951
4641.588833612777,157492.4,-82.77295,65.7009
10000.0,77583.78,-80.12169,65.6877
