Frequency,Impedance,Phase Angle,Temperature (Dry Bath)
10.0,66034.75,-15.86719,71.4388
21.544346900318832,58641.77,-15.39665,71.4329
46.41588833612777,52574.46,-13.83671,71.4205
100.0,48143.51,-6.336256,71.4245
215.44346900318823,45471.86,-14.5366,71.4479
464.15888336127773,37499.35,-9.391333,71.4501
1000.0,37033.34,-13.54829,71.4364
2154.4346900318824,33951.55,-17.82277,71.4389
4641.588833612777,33272.34,-18.8355,71.4476
10000.0,25814.44,-31.88578,71.4558
