Frequency,Impedance,Phase Angle,Temperature (Dry Bath)
10.0,13685.75,-26.57383,71.49
21.544346900318832,11000.62,-24.23741,71.4843
46.41588833612777,9027.862,-21.74344,71.4918
100.0,7623.753,-18.2079,71.4977
215.44346900318823,6521.338,-16.72301,71.4923
464.15888336127773,5802.034,-13.78561,71.4798
1000.0,5202.857,-10.86778,71.5038
2154.4346900318824,4785.977,-9.424721,71.5007
4641.588833612777,4503.887,-8.525004,71.4997
10000.0,4227.066,-8.603914,71.4983
