Frequency,Impedance,Phase Angle,Temperature (Dry Bath)
10.0,6359869.0,-8.177439,71.1335
21.544346900318832,3908901.0,-22.93007,71.156
46.41588833612777,7102185.0,-20.16215,71.1482
100.0,969759.6,40.76778,71.1421
215.44346900318823,1209188.0,-96.82479,71.1447
464.15888336127773,772349.1,-8.862617,71.1441
1000.0,546828.1,-63.07912,71.1538
2154.4346900318824,451955.6,-95.43087,71.1439
4641.588833612777,132118.1,-99.38657,71.1502
10000.0,54506.07,-90.68607,71.142
