Frequency,Impedance,Phase Angle,Temperature (Dry Bath)
10.0,6196911.0,-24.24994,70.9795
21.544346900318832,7360804.0,9.416042,70.9747
46.41588833612777,5043281.0,-14.99226,70.9716
100.0,366312.8,-81.82715,70.9806
215.44346900318823,889478.0,-104.274,70.9861
464.15888336127773,6371633.0,127.6937,70.9799
1000.0,358843.6,-62.09869,70.9756
2154.4346900318824,334547.7,-82.87386,70.9875
4641.588833612777,145624.6,-89.72969,70.9757
10000.0,69521.83,-88.80309,70.979
