Frequency,Impedance,Phase Angle,Temperature (Dry Bath)
10.0,5241430.0,-14.30774,71.4773
21.544346900318832,6728805.0,-6.066053,71.4698
46.41588833612777,6082619.0,-1.454241,71.4574
100.0,904120.6,174.5206,71.4839
215.44346900318823,1276973.0,34.59178,71.4785
464.15888336127773,2207467.0,-41.59241,71.4864
1000.0,2022802.0,-67.23765,71.4877
2154.4346900318824,1049042.0,-69.14804,71.4903
4641.588833612777,220615.8,-89.96079,71.4919
10000.0,121633.9,-80.28891,71.4947
