Frequency,Impedance,Phase Angle,Temperature (Dry Bath)
10.0,3796792.0,18.7652,65.8411
21.544346900318832,4259090.0,8.034249,65.8308
46.41588833612777,3764389.0,-26.03817,65.849
100.0,1285125.0,119.3476,65.8271
215.44346900318823,695152.2,75.89302,65.8413
464.15888336127773,421604.1,-65.12267,65.8378
1000.0,619467.2,-42.45746,65.8483
2154.4346900318824,262822.1,-78.76548,65.8401
4641.588833612777,178721.1,-84.22766,65.8379
10000.0,66002.52,-89.20818,65.8429
