Frequency,Impedance,Phase Angle,Temperature (Dry Bath)
10.0,4512901.0,-25.72158,65.7613
21.544346900318832,4052814.0,10.6584,65.7588
46.41588833612777,6767492.0,-2.099786,65.7451
100.0,263412.9,-77.0319,65.7749
215.44346900318823,351744.9,49.7107,65.7636
464.15888336127773,749651.3,-91.9267,65.759
1000.0,378166.5,-52.32907,65.7644
2154.4346900318824,304653.5,-73.79143,65.7515
4641.588833612777,116783.7,-78.87464,65.7815
10000.0,67183.41,-82.50074,65.7686
