Frequency,Impedance,Phase Angle,Temperature (Dry Bath)
10.0,193922.9,-25.71639,65.7164
21.544346900318832,157508.3,-24.33997,65.7169
46.41588833612777,130128.3,-22.30751,65.7209
100.0,106575.8,-13.68779,65.7233
215.44346900318823,9562.626,-134.8463,65.7131
464.15888336127773,93565.65,-17.55578,65.7247
1000.0,74608.53,-18.14265,65.7165
2154.4346900318824,61902.56,-22.47867,65.7053
4641.588833612777,48635.36,-33.21819,65.7182
10000.0,38087.08,-52.37366,65.7132
