Frequency,Impedance,Phase Angle,Temperature (Dry Bath)
10.0,279885.2,-13.27867,71.6379
21.544346900318832,252821.8,-13.35553,71.6497
46.41588833612777,232000.6,-13.71108,71.6462
100.0,380569.1,32.7046,71.6412
215.44346900318823,233801.3,-1.35722,71.651
464.15888336127773,143728.9,-40.06827,71.6425
1000.0,140373.1,-18.90633,71.6538
2154.4346900318824,143718.9,-26.97062,71.6497
4641.588833612777,101514.6,-24.03885,71.6559
10000.0,76559.8,-46.85574,71.6482
