Frequency,Impedance,Phase Angle,Temperature (Dry Bath)
10.0,18864.16,-29.41984,70.7247
21.544346900318832,14870.23,-27.02017,70.7163
46.41588833612777,11966.66,-24.76249,70.7314
100.0,9863.396,-22.81511,70.7259
215.44346900318823,8380.881,-19.31123,70.7194
464.15888336127773,7109.319,-16.66457,70.7117
1000.0,6237.953,-11.91744,70.718
2154.4346900318824,5759.615,-11.85109,70.7188
4641.588833612777,5325.152,-11.13186,70.7317
10000.0,4939.779,-11.74217,70.7138
