Frequency,Impedance,Phase Angle,Temperature (Dry Bath)
10.0,4234195.0,15.24959,71.2265
21.544346900318832,3552338.0,-18.04672,71.2223
46.41588833612777,6293957.0,-36.8181,71.216
100.0,933142.0,158.8855,71.2283
215.44346900318823,272811.7,55.89221,71.2063
464.15888336127773,1112007.0,-67.9101,71.219
1000.0,208705.2,-54.35251,71.2324
2154.4346900318824,239627.9,-81.90704,71.2111
4641.588833612777,130637.3,-100.1927,71.2312
10000.0,63359.02,-75.80926,71.2288
