Frequency,Impedance,Phase Angle,Temperature (Dry Bath)
10.0,3423851.0,-7.229052,66.265
21.544346900318832,3715834.0,-25.28184,66.2678
46.41588833612777,3839138.0,-13.67144,66.2543
100.0,855278.9,46.61808,66.2619
215.44346900318823,318535.8,-103.3384,66.2588
464.15888336127773,532156.5,-13.67126,66.2685
1000.0,282053.8,-82.62327,66.2623
2154.4346900318824,241683.5,-115.387,66.253
4641.588833612777,122373.3,-89.99363,66.2654
10000.0,65809.48,-85.81458,66.2729
