Frequency,Impedance,Phase Angle,Temperature (Dry Bath)
10.0,25297.93,-13.96462,70.4908
21.544346900318832,23055.65,-11.12922,70.5022
46.41588833612777,21369.57,-9.302721,70.4968
100.0,20220.8,-10.75675,70.4862
215.44346900318823,19081.36,-6.822506,70.4927
464.15888336127773,18868.81,-7.454118,70.5014
1000.0,16888.29,-8.021881,70.4903
2154.4346900318824,16330.15,-8.339914,70.5084
4641.588833612777,15331.97,-11.18459,70.5039
10000.0,14343.05,-20.36109,70.5163
