Frequency,Impedance,Phase Angle,Temperature (Dry Bath)
10.0,4276672.0,-23.10873,71.3202
21.544346900318832,3434085.0,-5.191094,71.3127
46.41588833612777,4629209.0,-9.725083,71.3228
100.0,1855772.0,8.540367,71.333
215.44346900318823,454302.6,-120.7987,71.3293
464.15888336127773,725024.3,-41.49196,71.3196
1000.0,275677.9,-137.2179,71.3245
2154.4346900318824,401033.1,-68.87849,71.3239
4641.588833612777,238715.0,-68.79455,71.327
10000.0,118406.4,-104.9239,71.3201
