Frequency,Impedance,Phase Angle,Temperature (Dry Bath)
10.0,3280124.0,-10.1419,66.1683
21.544346900318832,3730238.0,-6.226313,66.1587
46.41588833612777,7426928.0,-14.21707,66.1562
100.0,1323994.0,10.35322,66.1628
215.44346900318823,403336.6,-138.6215,66.1679
464.15888336127773,650406.1,123.787,66.1589
1000.0,250845.9,-66.03121,66.1608
2154.4346900318824,244542.4,-74.20679,66.1593
4641.588833612777,125953.7,-88.00807,66.1472
10000.0,56686.9,-79.30948,66.1544
