Frequency,Impedance,Phase Angle,Temperature (Dry Bath)
10.0,174200.8,-13.24641,71.2708
21.544346900318832,159157.4,-12.40648,71.2742
46.41588833612777,145588.5,-12.37018,71.2485
100.0,130396.5,-19.4986,71.2581
215.44346900318823,138146.3,-17.6188,71.2847
464.15888336127773,97787.26,-14.50132,71.2642
1000.0,120086.2,-12.2148,71.2845
2154.4346900318824,90198.54,-20.64818,71.2827
4641.588833612777,62867.6,-36.54902,71.2862
10000.0,45549.33,-50.76219,71.2863
