Frequency,Impedance,Phase Angle,Temperature (Dry Bath)
10.0,523625.5,-25.35578,66.4172
21.544346900318832,407638.5,-23.54768,66.4169
46.41588833612777,331231.2,-24.33873,66.4206
100.0,287732.5,-33.93004,66.4175
215.44346900318823,220315.5,-31.3198,66.4327
464.15888336127773,193734.4,-47.24544,66.4293
1000.0,147470.0,-28.21591,66.4238
2154.4346900318824,125463.8,-50.68245,66.4127
4641.588833612777,82955.16,-51.649,66.3975
10000.0,48693.94,-63.9662,66.4186
