Frequency,Impedance,Phase Angle,Temperature (Dry Bath)
10.0,2045700.0,-15.8953,65.7764
21.544346900318832,1852588.0,-27.87711,65.8039
46.41588833612777,1321478.0,-24.16701,65.7895
100.0,533398.2,-90.90162,65.7949
215.44346900318823,16999.87,29.31121,65.7917
464.15888336127773,406156.6,-12.40778,65.7877
1000.0,366336.9,-19.53233,65.7841
2154.4346900318824,311550.0,-95.25188,65.789
4641.588833612777,201661.6,-84.25338,65.7835
10000.0,70886.9,-84.26928,65.811
