Frequency,Impedance,Phase Angle,Temperature (Dry Bath)
10.0,4619596.0,12.64298,71.0805
21.544346900318832,6008704.0,-13.52875,71.0893
46.41588833612777,4966892.0,-8.046785,71.0921
100.0,638639.9,-41.52886,71.1003
215.44346900318823,1345113.0,-150.7553,71.0776
464.15888336127773,647709.8,-45.66378,71.0883
1000.0,738301.3,2.212769,71.0904
2154.4346900318824,492993.7,-86.12104,71.1035
4641.588833612777,287399.8,-94.78167,71.0966
10000.0,163926.9,-89.45815,71.1101
