Frequency,Impedance,Phase Angle,Temperature (Dry Bath)
10.0,4802944.0,-37.86004,66.4164
21.544346900318832,4145091.0,1.23203,66.4256
46.41588833612777,5822064.0,-16.18214,66.4197
100.0,1042264.0,-117.963,66.4093
215.44346900318823,637385.0,23.85026,66.4108
464.15888336127773,655457.8,-40.38234,66.4338
1000.0,432117.0,-63.31094,66.4325
2154.4346900318824,211783.2,-85.46216,66.4302
4641.588833612777,97580.46,-90.05541,66.4246
10000.0,67683.31,-83.90249,66.4269
