Frequency,Impedance,Phase Angle,Temperature (Dry Bath)
10.0,122757.2,-13.15689,65.8499
21.544346900318832,111166.6,-12.92988,65.8442
46.41588833612777,99551.72,-12.34328,65.8421
100.0,79619.09,-12.32086,65.824
215.44346900318823,94970.49,-20.5817,65.8474
464.15888336127773,69923.01,-10.60558,65.8377
1000.0,71854.9,-21.21942,65.85
2154.4346900318824,64417.84,-27.68024,65.8314
4641.588833612777,45944.35,-35.24473,65.8296
10000.0,33966.02,-49.73324,65.8567
