Frequency,Impedance,Phase Angle,Temperature (Dry Bath)
10.0,5551397.0,-13.75156,71.0087
21.544346900318832,5589374.0,-21.29679,71.012
46.41588833612777,4242170.0,-42.9803,71.0068
100.0,461234.8,-55.76587,70.9972
215.44346900318823,569388.6,-104.3628,70.9977
464.15888336127773,880661.0,-81.69387,71.0116
1000.0,353225.2,-78.33888,71.0148
2154.4346900318824,217814.5,-83.44082,71.013
4641.588833612777,104374.2,-84.32947,71.0116
10000.0,61812.97,-86.52778,71.021
