Frequency,Impedance,Phase Angle,Temperature (Dry Bath)
10.0,6413776.0,-27.99089,70.963
21.544346900318832,6607689.0,-15.94816,70.9822
46.41588833612777,4909431.0,-30.40312,70.9572
100.0,542763.1,-114.5535,70.9644
215.44346900318823,606625.1,-20.79312,70.9565
464.15888336127773,614508.0,-33.68332,70.9731
1000.0,1090425.0,-173.9586,70.9586
2154.4346900318824,244359.3,-108.73,70.9524
4641.588833612777,193077.2,-90.22629,70.939
10000.0,60084.9,-84.87794,70.9618
