Frequency,Impedance,Phase Angle,Temperature (Dry Bath)
10.0,4709184.0,-9.856604,71.1676
21.544346900318832,5385178.0,-5.933418,71.1737
46.41588833612777,7077060.0,-0.1473779,71.1802
100.0,872220.8,-113.9034,71.1718
215.44346900318823,921509.3,-132.9747,71.1907
464.15888336127773,657804.7,49.06628,71.1972
1000.0,753338.8,-111.5224,71.1863
2154.4346900318824,400901.3,-119.3483,71.1628
4641.588833612777,332760.1,-61.26863,71.1792
10000.0,156459.7,-78.48579,71.1811
