Frequency,Impedance,Phase Angle,Temperature (Dry Bath)
10.0,4796006.0,-13.447,70.6792
21.544346900318832,5813293.0,-9.130596,70.6888
46.41588833612777,5870495.0,-32.77897,70.6785
100.0,380589.6,-169.0017,70.6907
215.44346900318823,526243.6,31.40572,70.695
464.15888336127773,496888.8,-95.95325,70.6822
1000.0,376755.7,-48.11669,70.6652
2154.4346900318824,320805.6,-89.78593,70.6697
4641.588833612777,145391.2,-93.12582,70.6638
10000.0,64081.44,-88.42646,70.6656
