Frequency,Impedance,Phase Angle,Temperature (Dry Bath)
10.0,4690876.0,-20.25698,71.0788
21.544346900318832,3061984.0,-9.179431,71.0764
46.41588833612777,4782325.0,-25.9739,71.0682
100.0,2314857.0,118.7589,71.0754
215.44346900318823,1228129.0,97.14753,71.0811
464.15888336127773,858449.4,-36.13981,71.0764
1000.0,374588.2,-64.45323,71.0661
2154.4346900318824,244591.6,-90.89678,71.0721
4641.588833612777,137451.9,-88.55345,71.0663
10000.0,71604.47,-88.20043,71.0672
