Frequency,Impedance,Phase Angle,Temperature (Dry Bath)
10.0,16192.31,-12.46091,71.496
21.544346900318832,14810.67,-10.81869,71.4999
46.41588833612777,13645.91,-10.01527,71.4755
100.0,12638.02,-8.54662,71.4967
215.44346900318823,11781.32,-9.073511,71.4807
464.15888336127773,11158.63,-8.682683,71.4903
1000.0,10299.61,-7.712126,71.4983
2154.4346900318824,9779.829,-7.806006,71.4996
4641.588833612777,9327.453,-7.575643,71.4742
10000.0,8790.751,-8.214832,71.4857
