Frequency,Impedance,Phase Angle,Temperature (Dry Bath)
10.0,23392.31,-21.41767,66.2685
21.544346900318832,19749.69,-18.25904,66.2709
46.41588833612777,17117.59,-15.58923,66.2613
100.0,15360.66,-14.81792,66.2701
215.44346900318823,13663.7,-11.5712,66.2619
464.15888336127773,12496.87,-9.26157,66.2518
1000.0,11692.43,-7.795907,66.2404
2154.4346900318824,11568.01,-8.501561,66.2479
4641.588833612777,10909.3,-10.50784,66.2625
10000.0,10172.87,-15.04192,66.26
