Frequency,Impedance,Phase Angle,Temperature (Dry Bath)
10.0,5717066.0,-0.03137493,70.5837
21.544346900318832,6404112.0,-22.63221,70.5932
46.41588833612777,5224782.0,-53.81663,70.5921
100.0,1044418.0,-177.1465,70.6048
215.44346900318823,837478.1,-145.8083,70.6023
464.15888336127773,893436.0,-30.75865,70.6002
1000.0,307518.5,-84.27654,70.6115
2154.4346900318824,2913797.0,-60.0351,70.6078
4641.588833612777,112153.0,-72.09494,70.6128
10000.0,55226.59,-85.79713,70.5974
