Frequency,Impedance,Phase Angle,Temperature (Dry Bath)
10.0,11256.76,-24.47921,71.5125
21.544346900318832,9156.727,-24.59834,71.5
46.41588833612777,7430.992,-23.99731,71.4915
100.0,6089.064,-22.64337,71.512
215.44346900318823,5182.52,-19.80755,71.4957
464.15888336127773,4409.296,-17.3995,71.498
1000.0,3865.99,-15.81523,71.5205
2154.4346900318824,3417.955,-14.15227,71.5222
4641.588833612777,3074.212,-12.94957,71.5025
10000.0,2788.573,-11.96863,71.5025
