Frequency,Impedance,Phase Angle,Temperature (Dry Bath)
10.0,15561.21,-25.33946,71.4841
21.544346900318832,12476.69,-26.34223,71.4649
46.41588833612777,9869.366,-26.66266,71.484
100.0,7746.758,-26.21292,71.4926
215.44346900318823,6266.332,-24.91745,71.484
464.15888336127773,5075.665,-22.62933,71.4897
1000.0,4231.439,-20.08163,71.4692
2154.4346900318824,3604.703,-17.74376,71.4773
4641.588833612777,3133.934,-15.5992,71.4796
10000.0,2791.649,-14.43436,71.474
