Frequency,Impedance,Phase Angle,Temperature (Dry Bath)
10.0,5384303.0,-30.58571,66.4179
21.544346900318832,5326740.0,0.8877914,66.4036
46.41588833612777,3890211.0,-10.51218,66.4172
100.0,748096.7,-72.20095,66.3976
215.44346900318823,387227.3,85.59608,66.4062
464.15888336127773,791036.5,-79.33188,66.4187
1000.0,380792.3,-105.3451,66.406
2154.4346900318824,298234.8,-85.14282,66.4061
4641.588833612777,123496.3,-96.95091,66.4083
10000.0,57620.54,-92.30079,66.3993
