Frequency,Impedance,Phase Angle,Temperature (Dry Bath)
10.0,6119382.0,-1.952351,70.5207
21.544346900318832,4366864.0,-11.23443,70.5095
46.41588833612777,3828864.0,-24.55631,70.5144
100.0,810742.4,55.86312,70.514
215.44346900318823,727760.7,-0.8751196,70.5069
464.15888336127773,705257.3,-83.42058,70.5062
1000.0,643708.3,-89.0852,70.5183
2154.4346900318824,217641.2,-89.92708,70.5038
4641.588833612777,166286.4,-80.83457,70.5102
10000.0,69102.79,-94.63675,70.5154
