Frequency,Impedance,Phase Angle,Temperature (Dry Bath)
10.0,176847.6,-12.86704,71.3339
21.544346900318832,162051.7,-11.47855,71.341
46.41588833612777,147037.0,-11.54534,71.3332
100.0,157151.9,-40.94874,71.34
215.44346900318823,120730.8,-17.4493,71.3432
464.15888336127773,82401.58,-13.95443,71.3479
1000.0,92677.77,-16.8951,71.3572
2154.4346900318824,79663.73,-21.91337,71.3487
4641.588833612777,66561.69,-33.63497,71.3515
10000.0,51497.68,-51.64888,71.3519
