Frequency,Impedance,Phase Angle,Temperature (Dry Bath)
10.0,1342838.0,-14.84916,72.2228
21.544346900318832,1096421.0,-8.232284,72.229
46.41588833612777,1056141.0,-12.78047,72.2309
100.0,772405.1,0.2574107,72.2205
215.44346900318823,375149.9,-43.9354,72.2132
464.15888336127773,1037433.0,-176.1244,72.2362
1000.0,206232.1,-33.6681,72.2263
2154.4346900318824,230149.8,-90.23783,72.2266
4641.588833612777,282148.7,-19.77412,72.237
10000.0,135657.9,-65.42417,72.2246
