Frequency,Impedance,Phase Angle,Temperature (Dry Bath)
10.0,162568.8,-9.763429,66.4073
21.544346900318832,150168.5,-8.032461,66.3864
46.41588833612777,141317.4,-8.160678,66.4047
100.0,129119.1,-5.805186,66.4018
215.44346900318823,132807.8,1.663146,66.409
464.15888336127773,135846.4,-9.840585,66.4005
1000.0,117720.2,-17.55557,66.3911
2154.4346900318824,98866.36,-18.51347,66.3975
4641.588833612777,78210.03,-38.72532,66.409
10000.0,44566.8,-61.58613,66.4101
