Frequency,Impedance,Phase Angle,Temperature (Dry Bath)
10.0,314739.9,-5.135096,70.9609
21.544346900318832,315796.7,-7.15626,70.9498
46.41588833612777,288569.2,-7.194231,70.9551
100.0,756435.9,17.25926,70.9503
215.44346900318823,272724.2,-20.3175,70.9643
464.15888336127773,214513.8,3.236861,70.9569
1000.0,246418.9,-7.028348,70.9488
2154.4346900318824,167140.2,-49.40794,70.9366
4641.588833612777,117226.6,-62.6787,70.9456
10000.0,54378.4,-70.88077,70.9353
