Frequency,Impedance,Phase Angle,Temperature (Dry Bath)
10.0,160417.0,-18.42432,71.4114
21.544346900318832,137845.5,-17.5151,71.4363
46.41588833612777,122177.8,-16.69674,71.4387
100.0,72258.08,-19.55227,71.416
215.44346900318823,93017.88,-21.01768,71.4254
464.15888336127773,88037.12,-24.47079,71.4389
1000.0,88844.62,-8.818954,71.4437
2154.4346900318824,58547.78,-16.90825,71.4266
4641.588833612777,47076.03,-35.19447,71.4339
10000.0,31733.45,-48.01017,71.4177
