Frequency,Impedance,Phase Angle,Temperature (Dry Bath)
10.0,165161.1,-9.62341,71.2997
21.544346900318832,151158.6,-9.361064,71.2983
46.41588833612777,142798.9,-11.2776,71.2921
100.0,155527.2,3.895775,71.2804
215.44346900318823,118612.1,63.42652,71.2985
464.15888336127773,134991.7,-26.86254,71.2829
1000.0,105249.4,-19.37705,71.2865
2154.4346900318824,86563.99,-31.46082,71.2814
4641.588833612777,65010.91,-45.61602,71.2828
10000.0,44951.15,-66.42266,71.2878
