Frequency,Impedance,Phase Angle,Temperature (Dry Bath)
10.0,9984.063,-25.72003,70.9889
21.544346900318832,8208.967,-21.60406,70.9933
46.41588833612777,6986.641,-17.92557,70.9925
100.0,6126.091,-15.37913,70.9938
215.44346900318823,5522.42,-12.24435,70.9809
464.15888336127773,5042.625,-10.60074,70.9708
1000.0,4614.426,-8.825018,70.9946
2154.4346900318824,4359.697,-7.98177,70.9716
4641.588833612777,4134.321,-7.738599,70.9895
10000.0,3934.295,-9.623223,70.9879
