Frequency,Impedance,Phase Angle,Temperature (Dry Bath)
10.0,225142.4,-25.02923,71.3114
21.544346900318832,181203.4,-23.72946,71.3151
46.41588833612777,150742.5,-21.53736,71.3076
100.0,114352.2,-39.29334,71.3175
215.44346900318823,124749.5,-18.28719,71.3082
464.15888336127773,113562.9,-19.84826,71.3105
1000.0,81991.05,-30.25004,71.3045
2154.4346900318824,83648.37,-29.81859,71.313
4641.588833612777,59999.7,-38.36371,71.3068
10000.0,36977.25,-53.53252,71.305
