Frequency,Impedance,Phase Angle,Temperature (Dry Bath)
10.0,11413.46,-24.47848,71.534
21.544346900318832,9303.42,-24.37922,71.5229
46.41588833612777,7522.708,-24.08699,71.5277
100.0,6144.513,-22.82062,71.5186
215.44346900318823,5039.013,-21.51207,71.5248
464.15888336127773,4199.779,-19.86946,71.5302
1000.0,3585.166,-16.99721,71.5299
2154.4346900318824,3145.059,-15.272,71.5114
4641.588833612777,2798.312,-13.36095,71.5332
10000.0,2537.156,-12.3437,71.5199
