Frequency,Impedance,Phase Angle,Temperature (Dry Bath)
10.0,8617.706,-25.78997,70.8065
21.544346900318832,7022.601,-22.60812,70.8217
46.41588833612777,5899.952,-19.53246,70.7959
100.0,5137.99,-16.69533,70.8005
215.44346900318823,4491.826,-14.21921,70.7966
464.15888336127773,4044.867,-12.26737,70.799
1000.0,3679.175,-10.74349,70.8012
2154.4346900318824,3382.333,-9.11514,70.809
4641.588833612777,3195.3,-8.809352,70.7899
10000.0,3003.84,-9.58602,70.7785
