Frequency,Impedance,Phase Angle,Temperature (Dry Bath)
10.0,317241.4,-24.18354,71.2547
21.544346900318832,265750.3,-21.33476,71.2558
46.41588833612777,219046.2,-19.93512,71.2495
100.0,242134.4,-14.73807,71.2546
215.44346900318823,241813.1,-13.40203,71.2517
464.15888336127773,153225.1,-15.03229,71.2562
1000.0,124494.7,-37.99516,71.2378
2154.4346900318824,97223.47,-28.26725,71.2551
4641.588833612777,75120.34,-51.83597,71.2309
10000.0,40214.63,-65.65973,71.2534
