Frequency,Impedance,Phase Angle,Temperature (Dry Bath)
10.0,31139.13,-15.03619,71.4713
21.544346900318832,27524.96,-13.49369,71.4546
46.41588833612777,24768.4,-12.5413,71.441
100.0,22923.73,-12.04693,71.4538
215.44346900318823,21311.6,-10.46391,71.4684
464.15888336127773,19041.73,-9.682982,71.4707
1000.0,18139.22,-11.62597,71.4535
2154.4346900318824,16355.08,-12.04902,71.4519
4641.588833612777,14855.17,-15.02421,71.4534
10000.0,13475.94,-16.61896,71.4644
