Frequency,Impedance,Phase Angle,Temperature (Dry Bath)
10.0,5032.262,-33.60736,69.4153
21.544346900318832,3847.633,-28.45895,69.4233
46.41588833612777,3114.416,-23.25654,69.4349
100.0,2656.019,-19.24446,69.4338
215.44346900318823,2316.26,-15.56166,69.4504
464.15888336127773,2064.172,-12.87793,69.4281
1000.0,1869.933,-11.27254,69.4595
2154.4346900318824,1720.744,-9.295615,69.4396
4641.588833612777,1610.725,-8.271338,69.4646
10000.0,1519.708,-7.925632,69.451
