Frequency,Impedance,Phase Angle,Temperature (Dry Bath)
10.0,3029501.0,-25.51817,71.3265
21.544346900318832,4275993.0,-25.30209,71.3247
46.41588833612777,3452195.0,-26.69483,71.3358
100.0,533153.1,150.2132,71.337
215.44346900318823,864521.9,-158.1208,71.352
464.15888336127773,191858.5,-40.88462,71.3369
1000.0,226322.9,-99.08355,71.3158
2154.4346900318824,139432.8,-82.56806,71.3288
4641.588833612777,82548.68,-93.98079,71.3315
10000.0,34776.26,-88.38674,71.3357
