Frequency,Impedance,Phase Angle,Temperature (Dry Bath)
10.0,1173662.0,-19.28681,65.8537
21.544346900318832,1152247.0,-12.32077,65.8568
46.41588833612777,959692.0,-13.48055,65.8573
100.0,306216.9,-67.03553,65.8566
215.44346900318823,11145.69,-28.35775,65.8527
464.15888336127773,485126.1,40.75534,65.8654
1000.0,354756.1,-26.17264,65.8628
2154.4346900318824,290364.2,-85.70143,65.8655
4641.588833612777,118727.5,-60.4938,65.8599
10000.0,72810.54,-69.97562,65.8511
