Frequency,Impedance,Phase Angle,Temperature (Dry Bath)
10.0,3686589.0,6.627764,65.7668
21.544346900318832,5276401.0,-8.012557,65.761
46.41588833612777,3951826.0,-17.45251,65.7778
100.0,1036920.0,12.3642,65.7698
215.44346900318823,491856.0,0.7509141,65.7853
464.15888336127773,1415189.0,-15.14219,65.776
1000.0,365537.5,-82.12631,65.7728
2154.4346900318824,300285.8,-58.59664,65.7706
4641.588833612777,128437.8,-81.19584,65.7831
10000.0,64500.02,-82.34079,65.784
