Frequency,Impedance,Phase Angle,Temperature (Dry Bath)
10.0,8679939.0,-4.969898,70.603
21.544346900318832,7315373.0,-4.275605,70.5931
46.41588833612777,3808467.0,-16.50796,70.5928
100.0,978244.4,94.93585,70.6051
215.44346900318823,1995553.0,-119.3792,70.6111
464.15888336127773,658212.5,-74.10135,70.6057
1000.0,233633.2,-85.30097,70.6129
2154.4346900318824,179455.7,-71.65996,70.6107
4641.588833612777,150731.6,-85.39955,70.6135
10000.0,60107.56,-87.37883,70.6047
