Frequency,Impedance,Phase Angle,Temperature (Dry Bath)
10.0,4004462.0,-3.79925,71.405
21.544346900318832,3820162.0,-21.34126,71.4005
46.41588833612777,4311719.0,-18.86853,71.4039
100.0,1037932.0,-126.6236,71.4096
215.44346900318823,938077.6,-126.1735,71.4074
464.15888336127773,1180710.0,-43.71399,71.4073
1000.0,520913.8,-47.17568,71.3995
2154.4346900318824,422303.5,-52.76815,71.4139
4641.588833612777,292186.3,-92.73315,71.4233
10000.0,118773.5,-76.79629,71.4387
