Frequency,Impedance,Phase Angle,Temperature (Dry Bath)
10.0,6209786.0,-26.10255,71.2548
21.544346900318832,6081917.0,-12.78068,71.2442
46.41588833612777,4886570.0,-19.60142,71.2262
100.0,422468.4,-30.40665,71.2404
215.44346900318823,960629.6,-0.3011952,71.2431
464.15888336127773,1010564.0,-148.9284,71.2469
1000.0,803271.4,-159.4521,71.2443
2154.4346900318824,294833.2,-106.1914,71.2394
4641.588833612777,152692.3,-97.23446,71.2572
10000.0,70502.31,-88.51057,71.2424
