Frequency,Impedance,Phase Angle,Temperature (Dry Bath)
10.0,4431763.0,-8.758816,71.3121
21.544346900318832,6565211.0,0.9084885,71.3171
46.41588833612777,3704067.0,-26.11767,71.3183
100.0,905245.9,23.16913,71.3169
215.44346900318823,1231356.0,-84.59822,71.3188
464.15888336127773,1553520.0,-99.28034,71.3132
1000.0,520646.7,-65.25596,71.3111
2154.4346900318824,254306.6,-78.54205,71.3221
4641.588833612777,157264.1,-86.43937,71.3143
10000.0,64251.02,-85.34522,71.3204
