Frequency,Impedance,Phase Angle,Temperature (Dry Bath)
10.0,44540.47,-12.37005,71.1855
21.544346900318832,40648.65,-10.74503,71.2073
46.41588833612777,37511.1,-9.707802,71.1861
100.0,35845.85,-9.890717,71.186
215.44346900318823,34520.96,-10.17593,71.1754
464.15888336127773,31250.28,-8.780824,71.1772
1000.0,29090.72,-9.580625,71.1969
2154.4346900318824,26831.97,-7.981312,71.1857
4641.588833612777,25924.25,-12.78782,71.1655
10000.0,23344.08,-20.41861,71.182
