Frequency,Impedance,Phase Angle,Temperature (Dry Bath)
10.0,13806.44,-28.05708,71.0151
21.544346900318832,10972.74,-25.66181,71.0078
46.41588833612777,8929.249,-22.94051,71.0189
100.0,7437.891,-19.89747,71.001
215.44346900318823,6366.032,-17.76103,71.0211
464.15888336127773,5591.204,-15.5944,71.0174
1000.0,4972.886,-13.77182,70.9894
2154.4346900318824,4452.951,-12.66217,71.0041
4641.588833612777,4023.054,-12.08089,71.0021
10000.0,3713.229,-12.8762,71.0115
