Frequency,Impedance,Phase Angle,Temperature (Dry Bath)
10.0,5493947.0,-13.05401,65.6575
21.544346900318832,6240893.0,11.75286,65.6658
46.41588833612777,3064528.0,7.617863,65.6401
100.0,783490.8,2.936855,65.65
215.44346900318823,43039.28,43.50755,65.6399
464.15888336127773,539843.9,-107.0367,65.6276
1000.0,937881.6,-44.65949,65.6429
2154.4346900318824,225060.7,-85.55814,65.6755
4641.588833612777,155586.7,-88.85998,65.6574
10000.0,71079.27,-86.85823,65.6707
