Frequency,Impedance,Phase Angle,Temperature (Dry Bath)
10.0,5694925.0,13.02469,71.0125
21.544346900318832,3847095.0,-2.149485,70.9982
46.41588833612777,4188301.0,-7.051686,70.9949
100.0,982862.2,167.5509,71.0083
215.44346900318823,658039.3,-61.05075,70.9966
464.15888336127773,866379.6,107.535,71.0195
1000.0,505579.9,-21.11693,71.0028
2154.4346900318824,3969589.0,-79.76778,71.0017
4641.588833612777,967324.6,-149.4057,71.0013
10000.0,225808.0,-81.90819,70.9954
