Frequency,Impedance,Phase Angle,Temperature (Dry Bath)
10.0,328505.5,-22.46663,65.8318
21.544346900318832,274036.1,-21.80051,65.8333
46.41588833612777,226985.9,-20.02046,65.8371
100.0,191107.0,-20.85388,65.8301
215.44346900318823,248993.2,45.77518,65.816
464.15888336127773,149437.1,-23.47987,65.8219
1000.0,133370.7,-23.45456,65.8153
2154.4346900318824,104003.3,-38.09747,65.8294
4641.588833612777,67784.47,-45.55847,65.821
10000.0,46056.82,-54.17577,65.8222
