Frequency,Impedance,Phase Angle,Temperature (Dry Bath)
10.0,3211723.0,-2.46267,70.9063
21.544346900318832,5291298.0,-14.13928,70.9218
46.41588833612777,4780361.0,-49.91159,70.9127
100.0,720596.9,107.3228,70.911
215.44346900318823,930197.2,-17.38986,70.9286
464.15888336127773,953448.9,-51.13318,70.9096
1000.0,368090.2,-87.41331,70.9266
2154.4346900318824,377981.8,-87.75791,70.9167
4641.588833612777,147557.7,-97.9659,70.8978
10000.0,55277.33,-77.78844,70.891
