Frequency,Impedance,Phase Angle,Temperature (Dry Bath)
10.0,5468.646,-39.52596,70.702
21.544346900318832,3937.63,-34.39224,70.6845
46.41588833612777,3018.07,-28.87523,70.6835
100.0,2435.078,-24.26963,70.69
215.44346900318823,2062.437,-19.38986,70.6787
464.15888336127773,1792.085,-16.3574,70.6809
1000.0,1602.375,-13.96976,70.6783
2154.4346900318824,1442.615,-11.46055,70.6822
4641.588833612777,1329.229,-9.857537,70.6864
10000.0,1240.766,-8.721385,70.6786
