Frequency,Impedance,Phase Angle,Temperature (Dry Bath)
10.0,174904.8,-11.95049,65.7594
21.544346900318832,162086.9,-11.65876,65.7518
46.41588833612777,147891.0,-10.69246,65.7481
100.0,137278.3,-16.16255,65.7606
215.44346900318823,10333.81,-118.712,65.7511
464.15888336127773,114953.6,-9.16596,65.7569
1000.0,109810.3,-26.95628,65.763
2154.4346900318824,92184.53,-19.96039,65.7603
4641.588833612777,81684.93,-37.20818,65.7502
10000.0,51739.49,-61.06842,65.77
