Frequency,Impedance,Phase Angle,Temperature (Dry Bath)
10.0,22758.89,-23.8181,32.3727
21.544346900318832,18640.38,-23.61576,32.3848
46.41588833612777,15243.22,-23.1519,32.3787
100.0,12853.99,-22.66308,32.3869
215.44346900318823,10454.58,-21.30057,32.3752
464.15888336127773,8855.419,-21.13754,32.3898
1000.0,7529.483,-20.53325,32.3687
2154.4346900318824,6273.974,-19.87693,32.3771
4641.588833612777,5314.946,-19.56749,32.3926
10000.0,4540.845,-18.14309,32.378
