Frequency,Impedance,Phase Angle,Temperature (Dry Bath)
10.0,3693304.0,-4.971685,65.7455
21.544346900318832,4353246.0,-20.7793,65.7609
46.41588833612777,3728898.0,-47.04397,65.7579
100.0,628991.0,-77.73756,65.7568
215.44346900318823,14731.36,-140.4856,65.7496
464.15888336127773,921239.2,-34.86455,65.7643
1000.0,510354.2,176.823,65.7448
2154.4346900318824,321666.0,-67.75648,65.7566
4641.588833612777,124170.0,-83.10588,65.7396
10000.0,67479.58,-83.04709,65.7448
