Frequency,Impedance,Phase Angle,Temperature (Dry Bath)
10.0,4621746.0,2.343771,71.2335
21.544346900318832,4882454.0,-23.17368,71.249
46.41588833612777,7557524.0,0.4335248,71.2669
100.0,894352.0,30.62688,71.2533
215.44346900318823,797634.9,-116.2827,71.2677
464.15888336127773,1042419.0,11.51146,71.255
1000.0,1515369.0,-47.82165,71.2471
2154.4346900318824,745737.7,-50.4927,71.2708
4641.588833612777,333644.0,-118.8762,71.2521
10000.0,164840.0,-102.6539,71.2566
