Frequency,Impedance,Phase Angle,Temperature (Dry Bath)
10.0,191855.5,-26.14075,65.7383
21.544346900318832,156341.4,-23.62292,65.7523
46.41588833612777,125966.3,-21.70273,65.7478
100.0,107817.3,-20.19501,65.7426
215.44346900318823,39565.91,91.59685,65.7371
464.15888336127773,82499.72,-25.24283,65.7418
1000.0,66375.02,-19.87574,65.7535
2154.4346900318824,61164.37,-23.94605,65.7557
4641.588833612777,47886.16,-33.283,65.762
10000.0,38729.88,-53.44043,65.7648
