Frequency,Impedance,Phase Angle,Temperature (Dry Bath)
10.0,7886269.0,0.2009738,71.2135
21.544346900318832,6128566.0,19.87082,71.2002
46.41588833612777,4906300.0,-25.70781,71.1965
100.0,434766.9,0.5495923,71.2062
215.44346900318823,783891.0,-155.5882,71.1895
464.15888336127773,381019.8,-65.3898,71.2038
1000.0,307734.0,-55.06006,71.2049
2154.4346900318824,544652.7,-28.8221,71.2071
4641.588833612777,289051.8,-70.22171,71.2248
10000.0,157952.2,-34.33782,71.1928
