Frequency,Impedance,Phase Angle,Temperature (Dry Bath)
10.0,31010.11,-21.97438,71.6147
21.544346900318832,25706.35,-23.13101,71.6203
46.41588833612777,20944.28,-24.71133,71.6349
100.0,16909.74,-25.79156,71.6335
215.44346900318823,13651.48,-27.17729,71.6291
464.15888336127773,10450.93,-28.30375,71.6251
1000.0,7987.252,-28.24703,71.6288
2154.4346900318824,6147.519,-27.83728,71.6338
4641.588833612777,5081.124,-24.4304,71.6408
10000.0,4162.17,-21.57947,71.6268
