Frequency,Impedance,Phase Angle,Temperature (Dry Bath)
10.0,3016154.0,-28.49744,71.1833
21.544346900318832,3307861.0,-22.02528,71.195
46.41588833612777,2829581.0,-27.87762,71.1939
100.0,427806.0,-6.353781,71.1887
215.44346900318823,815427.4,17.78367,71.1984
464.15888336127773,574111.3,-26.82237,71.195
1000.0,353445.8,-99.97563,71.1918
2154.4346900318824,218491.1,-85.67595,71.1905
4641.588833612777,130924.6,-86.58183,71.1761
10000.0,65002.03,-92.471,71.1918
