Frequency,Impedance,Phase Angle,Temperature (Dry Bath)
10.0,12620360.0,19.99237,71.6896
21.544346900318832,3903310.0,-8.348707,71.6898
46.41588833612777,5937723.0,-34.0747,71.6925
100.0,573496.4,17.00106,71.6711
215.44346900318823,1178928.0,-96.15174,71.683
464.15888336127773,446617.7,-7.820257,71.6899
1000.0,469615.6,-44.3429,71.6902
2154.4346900318824,231584.9,-160.3932,71.6837
4641.588833612777,251512.4,-155.2713,71.6778
10000.0,162685.5,-111.4056,71.6867
