Frequency,Impedance,Phase Angle,Temperature (Dry Bath)
10.0,6095552.0,-43.93936,71.3482
21.544346900318832,3668698.0,-9.220567,71.3374
46.41588833612777,4963710.0,-19.54481,71.3428
100.0,984878.2,-18.84318,71.3473
215.44346900318823,528160.8,-145.9528,71.3567
464.15888336127773,2327926.0,-121.324,71.3611
1000.0,917256.5,-126.1929,71.3476
2154.4346900318824,305601.6,-103.8848,71.3353
4641.588833612777,125278.8,-77.44736,71.3531
10000.0,56546.19,-82.87807,71.3496
