Frequency,Impedance,Phase Angle,Temperature (Dry Bath)
10.0,101363.8,-14.60189,71.3948
21.544346900318832,90299.32,-13.28699,71.3931
46.41588833612777,81869.96,-11.74941,71.3888
100.0,73345.59,-11.7272,71.3993
215.44346900318823,71286.27,-16.13411,71.4005
464.15888336127773,65189.1,-16.86317,71.3888
1000.0,56023.1,-9.750043,71.3772
2154.4346900318824,53256.68,-12.9768,71.3958
4641.588833612777,46160.64,-14.4956,71.3898
10000.0,42341.64,-24.39186,71.3904
