Frequency,Impedance,Phase Angle,Temperature (Dry Bath)
10.0,6749868.0,-9.163618,71.3063
21.544346900318832,4286796.0,-7.530172,71.2957
46.41588833612777,4842640.0,-45.82473,71.3058
100.0,366066.1,16.17138,71.3026
215.44346900318823,1266899.0,-146.913,71.3094
464.15888336127773,411948.0,-65.65655,71.3152
1000.0,295270.4,-97.07183,71.3135
2154.4346900318824,1133482.0,-94.51085,71.3042
4641.588833612777,112638.6,-89.07049,71.3223
10000.0,72806.16,-83.88246,71.2977
