Frequency,Impedance,Phase Angle,Temperature (Dry Bath)
10.0,53037.4,-17.28535,71.3014
21.544346900318832,46383.12,-15.77107,71.2861
46.41588833612777,41136.9,-14.52069,71.2878
100.0,36230.41,-16.91046,71.2801
215.44346900318823,34082.66,-11.09827,71.2657
464.15888336127773,31122.61,-11.13691,71.2604
1000.0,27511.45,-11.22537,71.2631
2154.4346900318824,26138.04,-13.84406,71.2487
4641.588833612777,24423.23,-10.19662,71.2513
10000.0,21877.13,-21.32859,71.2394
