Frequency,Impedance,Phase Angle,Temperature (Dry Bath)
10.0,11962.68,-24.04537,71.1125
21.544346900318832,9976.316,-20.18791,71.1133
46.41588833612777,8582.589,-16.98474,71.1266
100.0,7483.677,-13.67748,71.1284
215.44346900318823,6750.894,-12.4272,71.1086
464.15888336127773,6294.979,-10.71992,71.1208
1000.0,5738.526,-9.672637,71.1241
2154.4346900318824,5377.918,-8.473906,71.1043
4641.588833612777,5078.186,-9.403186,71.1107
10000.0,4733.258,-10.53954,71.1203
