Frequency,Impedance,Phase Angle,Temperature (Dry Bath)
10.0,6370620.0,-8.316488,66.2572
21.544346900318832,7023428.0,-10.51869,66.2693
46.41588833612777,5317754.0,-41.14269,66.2624
100.0,276592.9,32.03864,66.2482
215.44346900318823,329875.1,-107.2103,66.2547
464.15888336127773,413225.8,-172.3347,66.2554
1000.0,853471.5,-21.2707,66.2582
2154.4346900318824,232635.1,-76.12654,66.2718
4641.588833612777,141315.7,-91.59339,66.2663
10000.0,61203.58,-86.99961,66.2589
