Frequency,Impedance,Phase Angle,Temperature (Dry Bath)
10.0,2068178.0,-31.82978,70.9858
21.544346900318832,1892080.0,-12.95706,70.988
46.41588833612777,1522985.0,-29.22675,70.9865
100.0,1346026.0,-37.27128,70.9868
215.44346900318823,695197.5,-43.16192,70.9864
464.15888336127773,232614.1,-50.79104,71.0002
1000.0,188652.9,-54.00928,70.9827
2154.4346900318824,169413.7,-70.42784,70.9946
4641.588833612777,110477.7,-86.23427,70.9927
10000.0,46582.44,-72.01286,70.9868
