Frequency,Impedance,Phase Angle,Temperature (Dry Bath)
10.0,3266157.0,10.20604,70.9152
21.544346900318832,2789760.0,-3.904256,70.9298
46.41588833612777,3132562.0,-15.44035,70.9272
100.0,331934.2,-9.919847,70.9212
215.44346900318823,2290094.0,10.86275,70.9165
464.15888336127773,498578.0,-49.32268,70.9185
1000.0,686899.1,-175.3221,70.9121
2154.4346900318824,247706.3,-60.76223,70.9235
4641.588833612777,113957.3,-94.6344,70.9225
10000.0,67020.14,-88.64668,70.9083
