Frequency,Impedance,Phase Angle,Temperature (Dry Bath)
10.0,97380.41,-26.18019,71.1082
21.544346900318832,78379.69,-26.00576,71.0941
46.41588833612777,62914.65,-26.74851,71.0937
100.0,61426.07,-21.70024,71.1
215.44346900318823,37254.14,-26.54623,71.1025
464.15888336127773,29573.73,-31.87667,71.0874
1000.0,23620.76,-28.07402,71.0811
2154.4346900318824,18028.57,-26.82853,71.1093
4641.588833612777,14171.81,-23.72138,71.081
10000.0,12357.31,-20.14844,71.0772
