Frequency,Impedance,Phase Angle,Temperature (Dry Bath)
10.0,6928352.0,-20.05068,70.8422
21.544346900318832,5813228.0,-25.50055,70.8408
46.41588833612777,4020330.0,-25.61553,70.8295
100.0,712563.9,-35.08395,70.8365
215.44346900318823,3925594.0,18.46353,70.8225
464.15888336127773,964547.1,-99.39738,70.8331
1000.0,350312.5,-119.5802,70.8476
2154.4346900318824,255178.2,-85.73965,70.8248
4641.588833612777,149754.1,-90.01853,70.8351
10000.0,56279.55,-79.75959,70.8327
