Frequency,Impedance,Phase Angle,Temperature (Dry Bath)
10.0,4827005.0,-21.35238,72.2148
21.544346900318832,7732662.0,-29.2424,72.2313
46.41588833612777,5033608.0,-12.54932,72.2438
100.0,1950225.0,59.79864,72.2266
215.44346900318823,1675617.0,-58.4087,72.2301
464.15888336127773,456568.2,-78.24606,72.2301
1000.0,2110487.0,-147.9872,72.2095
2154.4346900318824,236188.0,-107.1905,72.2347
4641.588833612777,446280.0,-95.53711,72.2248
10000.0,212056.5,-84.27604,72.2235
