Frequency,Impedance,Phase Angle,Temperature (Dry Bath)
10.0,1257220.0,-13.48812,65.8401
21.544346900318832,1045450.0,-9.266198,65.8635
46.41588833612777,1001257.0,-11.48001,65.8547
100.0,288735.7,-9.892833,65.8376
215.44346900318823,8315.979,121.9938,65.8597
464.15888336127773,750263.2,-49.48189,65.8632
1000.0,558735.0,-36.89711,65.8419
2154.4346900318824,161050.0,-66.4385,65.8557
4641.588833612777,157100.6,-76.65537,65.8526
10000.0,63331.59,-81.07131,65.8478
