Frequency,Impedance,Phase Angle,Temperature (Dry Bath)
10.0,170536.2,-13.35497,71.1891
21.544346900318832,155302.4,-11.64385,71.1944
46.41588833612777,141067.5,-11.86898,71.1825
100.0,135321.4,-9.051383,71.1962
215.44346900318823,115185.2,-28.76875,71.1785
464.15888336127773,96740.84,-18.5602,71.1787
1000.0,89996.19,-15.28729,71.185
2154.4346900318824,79593.67,-20.17123,71.1814
4641.588833612777,69262.92,-40.93801,71.2047
10000.0,48600.33,-51.11362,71.1898
