Frequency,Impedance,Phase Angle,Temperature (Dry Bath)
10.0,37938.26,-14.00054,70.8083
21.544346900318832,34594.09,-11.86951,70.7831
46.41588833612777,31895.56,-10.8584,70.789
100.0,30257.9,-11.72455,70.8041
215.44346900318823,27141.6,-6.073186,70.7985
464.15888336127773,24980.16,-10.10338,70.7886
1000.0,23641.73,-10.712,70.7901
2154.4346900318824,22359.47,-12.20935,70.7882
4641.588833612777,21531.79,-17.42136,70.7845
10000.0,17949.09,-22.99412,70.7933
