Frequency,Impedance,Phase Angle,Temperature (Dry Bath)
10.0,4122755.0,-4.174125,71.3958
21.544346900318832,4093404.0,-11.61493,71.3905
46.41588833612777,3793789.0,-25.18533,71.414
100.0,374185.7,-120.6348,71.3874
215.44346900318823,912743.1,77.64557,71.4013
464.15888336127773,794225.2,36.22987,71.4148
1000.0,3845055.0,-98.63039,71.4129
2154.4346900318824,243628.3,-100.0479,71.4016
4641.588833612777,135912.6,-79.09712,71.4092
10000.0,60482.84,-82.14377,71.4284
