Frequency,Impedance,Phase Angle,Temperature (Dry Bath)
10.0,190417.2,-19.49884,65.7876
21.544346900318832,159077.9,-18.48865,65.779
46.41588833612777,139167.4,-16.58818,65.8024
100.0,156823.7,-25.80042,65.8048
215.44346900318823,7415.818,-82.07265,65.7795
464.15888336127773,107325.5,-11.50301,65.7682
1000.0,97934.01,-18.66435,65.779
2154.4346900318824,76732.97,-33.42816,65.7702
4641.588833612777,54911.15,-41.7695,65.7679
10000.0,36809.65,-49.57861,65.7935
