Frequency,Impedance,Phase Angle,Temperature (Dry Bath)
10.0,7047584.0,36.34847,70.934
21.544346900318832,4589484.0,-6.717778,70.9432
46.41588833612777,5584172.0,-40.44336,70.9325
100.0,617381.7,-143.3707,70.9243
215.44346900318823,1242171.0,-166.6702,70.9303
464.15888336127773,559108.0,-89.68461,70.9306
1000.0,1795456.0,11.00524,70.9453
2154.4346900318824,432421.3,-154.5399,70.9314
4641.588833612777,284490.2,-93.76054,70.9275
10000.0,124332.9,-80.08051,70.9224
