Frequency,Impedance,Phase Angle,Temperature (Dry Bath)
10.0,146204.9,-13.76056,71.2166
21.544346900318832,129777.9,-12.54385,71.2214
46.41588833612777,118818.5,-12.41543,71.2259
100.0,96216.67,-11.66157,71.2203
215.44346900318823,107782.9,-18.54232,71.2228
464.15888336127773,91634.68,-8.6941,71.2185
1000.0,82658.19,-25.23069,71.2141
2154.4346900318824,80833.04,-26.36739,71.2179
4641.588833612777,65749.4,-22.46083,71.2073
10000.0,55625.75,-44.53382,71.2095
