Frequency,Impedance,Phase Angle,Temperature (Dry Bath)
10.0,4005407.0,-4.731334,71.3204
21.544346900318832,9204562.0,-49.78775,71.3065
46.41588833612777,4642709.0,-79.80862,71.3164
100.0,534808.9,-5.231033,71.3122
215.44346900318823,116932.3,76.32206,71.3109
464.15888336127773,2207593.0,-148.0869,71.3128
1000.0,573317.6,-86.49125,71.3206
2154.4346900318824,228055.0,-93.85995,71.3094
4641.588833612777,132094.6,-90.15488,71.3146
10000.0,57024.09,-82.83928,71.3264
