Frequency,Impedance,Phase Angle,Temperature (Dry Bath)
10.0,5214172.0,-17.67542,71.3446
21.544346900318832,5805302.0,-21.27305,71.3735
46.41588833612777,4518139.0,-7.291836,71.3628
100.0,701518.0,-23.44651,71.3591
215.44346900318823,1264482.0,92.38813,71.3664
464.15888336127773,2448283.0,-142.2451,71.3677
1000.0,649464.0,-63.35376,71.3615
2154.4346900318824,542568.4,-83.30368,71.3498
4641.588833612777,278441.7,-97.91133,71.3459
10000.0,191815.0,-85.34571,71.3549
