Frequency,Impedance,Phase Angle,Temperature (Dry Bath)
10.0,1358592.0,-22.14918,70.9663
21.544346900318832,1010728.0,-26.17976,70.976
46.41588833612777,796548.0,-26.29811,70.99
100.0,639501.9,-110.9892,70.9861
215.44346900318823,528398.2,-33.2819,70.9785
464.15888336127773,369024.5,-36.18865,70.982
1000.0,1503373.0,-27.36623,70.9841
2154.4346900318824,208258.3,-64.13903,70.9819
4641.588833612777,117691.7,-63.21989,70.9902
10000.0,51008.69,-71.24669,70.9797
