Frequency,Impedance,Phase Angle,Temperature (Dry Bath)
10.0,2847155.0,-0.1214863,66.1199
21.544346900318832,6103442.0,12.58629,66.1193
46.41588833612777,7580405.0,-45.51553,66.1156
100.0,273394.9,-6.469716,66.1264
215.44346900318823,351655.6,-72.38682,66.1132
464.15888336127773,462816.3,-60.42909,66.1349
1000.0,639796.3,-36.63235,66.1189
2154.4346900318824,286046.3,-98.18929,66.1419
4641.588833612777,149739.1,-100.7035,66.1426
10000.0,64731.2,-84.8327,66.1564
