Frequency,Impedance,Phase Angle,Temperature (Dry Bath)
10.0,4114675.0,-23.10484,71.1835
21.544346900318832,5478834.0,-23.36931,71.1783
46.41588833612777,4294243.0,-21.45002,71.2022
100.0,539728.9,15.05502,71.1848
215.44346900318823,1436442.0,-32.21658,71.1909
464.15888336127773,653512.6,-56.37495,71.183
1000.0,497476.3,-59.72031,71.1838
2154.4346900318824,294558.4,-93.3386,71.1807
4641.588833612777,138788.0,-66.29195,71.1937
10000.0,73013.02,-90.07196,71.1913
