Frequency,Impedance,Phase Angle,Temperature (Dry Bath)
10.0,8790886.0,14.43646,71.3074
21.544346900318832,4494587.0,-6.068113,71.2915
46.41588833612777,4929003.0,-25.33484,71.2944
100.0,1009141.0,-15.85723,71.2982
215.44346900318823,1246327.0,-141.9661,71.3017
464.15888336127773,987667.2,-0.7499078,71.3051
1000.0,458485.2,-69.80853,71.296
2154.4346900318824,278116.2,-101.3946,71.3
4641.588833612777,112784.7,-79.10043,71.2989
10000.0,48551.01,-83.77057,71.2921
