Frequency,Impedance,Phase Angle,Temperature (Dry Bath)
10.0,16890.23,-23.14637,71.2969
21.544346900318832,13974.36,-21.60541,71.2915
46.41588833612777,11733.1,-19.92751,71.2925
100.0,9799.912,-18.53968,71.3116
215.44346900318823,8719.253,-15.74228,71.2793
464.15888336127773,7722.266,-13.80142,71.3139
1000.0,6940.743,-11.61261,71.302
2154.4346900318824,6345.729,-10.46026,71.2984
4641.588833612777,5982.591,-9.18373,71.2747
10000.0,5610.762,-10.08482,71.3226
