Frequency,Impedance,Phase Angle,Temperature (Dry Bath)
10.0,5597891.0,14.9253,71.3121
21.544346900318832,7707971.0,21.87124,71.3128
46.41588833612777,5008049.0,-34.79179,71.3311
100.0,1431175.0,23.69302,71.3242
215.44346900318823,4018859.0,127.2771,71.3281
464.15888336127773,904060.1,-70.56383,71.3432
1000.0,411919.5,-92.92897,71.3444
2154.4346900318824,254328.4,-85.38899,71.3417
4641.588833612777,146498.1,-84.69665,71.3348
10000.0,61246.14,-87.70552,71.3275
