Frequency,Impedance,Phase Angle,Temperature (Dry Bath)
10.0,117901.0,-27.78673,71.8555
21.544346900318832,94900.24,-27.74132,71.8583
46.41588833612777,75316.27,-29.04691,71.8605
100.0,67841.66,-22.99322,71.8526
215.44346900318823,48753.78,-32.10093,71.8669
464.15888336127773,35917.95,-28.90562,71.8514
1000.0,27321.13,-35.80077,71.8606
2154.4346900318824,20136.1,-28.40179,71.8539
4641.588833612777,16383.49,-25.41405,71.8577
10000.0,13860.81,-20.60642,71.8551
