Frequency,Impedance,Phase Angle,Temperature (Dry Bath)
10.0,7465880.0,-24.60125,66.4026
21.544346900318832,4952575.0,4.151194,66.4043
46.41588833612777,3893972.0,-13.72952,66.404
100.0,1049517.0,-10.88547,66.4012
215.44346900318823,707165.4,48.58439,66.4053
464.15888336127773,1539117.0,50.55959,66.4144
1000.0,761844.3,-157.1968,66.4065
2154.4346900318824,458196.8,-97.2445,66.4185
4641.588833612777,194579.8,-88.60408,66.4297
10000.0,62851.14,-91.62141,66.4164
