Frequency,Impedance,Phase Angle,Temperature (Dry Bath)
10.0,6169937.0,-22.51628,66.3526
21.544346900318832,5774205.0,-11.08304,66.343
46.41588833612777,4644104.0,-46.21692,66.3511
100.0,1376559.0,-33.81454,66.3634
215.44346900318823,575116.2,-74.6135,66.3235
464.15888336127773,2727040.0,-17.99686,66.3581
1000.0,365591.7,-125.2454,66.3449
2154.4346900318824,226371.8,-106.7305,66.3516
4641.588833612777,105866.2,-83.0939,66.3448
10000.0,69757.18,-89.70728,66.3415
