Frequency,Impedance,Phase Angle,Temperature (Dry Bath)
10.0,15056.75,-26.42315,71.4944
21.544346900318832,11956.23,-27.12005,71.4814
46.41588833612777,9402.667,-27.0524,71.4787
100.0,7375.147,-26.27259,71.4727
215.44346900318823,5991.387,-24.06316,71.4645
464.15888336127773,4922.851,-21.78727,71.4841
1000.0,4104.262,-18.88683,71.473
2154.4346900318824,3561.314,-16.27134,71.4908
4641.588833612777,3150.744,-14.7069,71.4861
10000.0,2826.367,-13.88912,71.4758
