Frequency,Impedance,Phase Angle,Temperature (Dry Bath)
10.0,4558552.0,9.376667,70.7935
21.544346900318832,4336919.0,5.080972,70.7839
46.41588833612777,7189811.0,-7.877201,70.8071
100.0,995146.5,111.6544,70.7834
215.44346900318823,2001107.0,103.345,70.7804
464.15888336127773,819875.8,-67.85274,70.7956
1000.0,1530853.0,-131.1007,70.807
2154.4346900318824,355011.2,-110.7702,70.7953
4641.588833612777,128759.5,-81.05089,70.7968
10000.0,68584.78,-92.9806,70.7853
