Frequency,Impedance,Phase Angle,Temperature (Dry Bath)
10.0,7433730.0,3.077633,71.3288
21.544346900318832,3778751.0,-18.29287,71.3183
46.41588833612777,3700412.0,-38.04043,71.3145
100.0,2636825.0,-32.86261,71.3274
215.44346900318823,140588.6,98.33411,71.3244
464.15888336127773,522541.2,-70.02239,71.3168
1000.0,574654.0,-65.44214,71.3156
2154.4346900318824,270365.5,-77.69329,71.3201
4641.588833612777,149671.0,-58.35069,71.3135
10000.0,65797.48,-82.42056,71.3191
