Frequency,Impedance,Phase Angle,Temperature (Dry Bath)
10.0,5356898.0,-26.82612,70.9978
21.544346900318832,4689566.0,-24.38641,70.9808
46.41588833612777,3800811.0,-37.36868,70.9757
100.0,304473.8,64.64055,70.9862
215.44346900318823,711289.0,-87.80619,70.9839
464.15888336127773,634045.4,-75.19836,70.9793
1000.0,296488.7,-94.7433,70.9927
2154.4346900318824,296705.6,-78.68373,70.9744
4641.588833612777,127230.2,-81.44111,70.9843
10000.0,54183.86,-87.62057,70.9837
