Frequency,Impedance,Phase Angle,Temperature (Dry Bath)
10.0,198765.7,-26.36808,65.7778
21.544346900318832,154954.4,-24.14252,65.7771
46.41588833612777,128350.5,-22.02697,65.7796
100.0,101387.5,-21.24816,65.7687
215.44346900318823,13361.06,14.35392,65.7664
464.15888336127773,84067.62,-21.35981,65.7766
1000.0,75266.58,-20.07314,65.7867
2154.4346900318824,64347.1,-28.95676,65.7705
4641.588833612777,47551.75,-37.05804,65.7827
10000.0,37152.71,-47.19057,65.763
