Frequency,Impedance,Phase Angle,Temperature (Dry Bath)
10.0,4936174.0,10.06031,71.3817
21.544346900318832,4974393.0,-18.56656,71.3837
46.41588833612777,5548942.0,-6.923174,71.3705
100.0,585728.8,-11.53556,71.3783
215.44346900318823,1831052.0,112.5901,71.3836
464.15888336127773,2111467.0,-158.1457,71.3816
1000.0,2140781.0,-147.1401,71.3833
2154.4346900318824,887166.7,-96.73696,71.3901
4641.588833612777,313879.5,-93.22851,71.3854
10000.0,148609.5,-88.24215,71.3806
