Frequency,Impedance,Phase Angle,Temperature (Dry Bath)
10.0,6805431.0,-0.6447285,71.0818
21.544346900318832,3263045.0,-11.81257,71.0876
46.41588833612777,4132488.0,-27.87666,71.0963
100.0,541288.0,-78.4801,71.0908
215.44346900318823,650673.0,-20.6205,71.0985
464.15888336127773,613298.8,84.45136,71.0867
1000.0,463147.8,-72.94954,71.0762
2154.4346900318824,424538.8,-122.8307,71.071
4641.588833612777,169411.0,-90.06034,71.0859
10000.0,60169.62,-93.18774,71.083
