Frequency,Impedance,Phase Angle,Temperature (Dry Bath)
10.0,9783.61,-26.27416,70.5146
21.544346900318832,7815.623,-25.6697,70.509
46.41588833612777,6270.429,-24.48523,70.4933
100.0,5100.081,-23.40725,70.5183
215.44346900318823,4248.484,-20.77643,70.5
464.15888336127773,3617.292,-17.65145,70.491
1000.0,3182.928,-15.85564,70.496
2154.4346900318824,2826.397,-13.27003,70.4995
4641.588833612777,2558.383,-12.38208,70.5093
10000.0,2355.268,-12.42036,70.5061
