Frequency,Impedance,Phase Angle,Temperature (Dry Bath)
10.0,189155.6,-27.05304,65.6492
21.544346900318832,150797.2,-24.25379,65.6447
46.41588833612777,126108.8,-20.16428,65.6554
100.0,90959.3,-20.64441,65.6509
215.44346900318823,33580.44,162.3134,65.655
464.15888336127773,81174.16,-17.16038,65.645
1000.0,70374.37,-22.88723,65.6481
2154.4346900318824,63449.89,-23.09791,65.6461
4641.588833612777,52076.08,-39.73558,65.6472
10000.0,36119.8,-49.62112,65.636
