Frequency,Impedance,Phase Angle,Temperature (Dry Bath)
10.0,4199379.0,-4.584707,70.6786
21.544346900318832,4397638.0,-30.9785,70.6478
46.41588833612777,4622655.0,-24.55666,70.6438
100.0,541638.8,137.536,70.6334
215.44346900318823,1466857.0,-166.6424,70.647
464.15888336127773,321255.4,-132.914,70.6658
1000.0,313410.8,-150.1324,70.6515
2154.4346900318824,209297.1,-112.4053,70.661
4641.588833612777,182536.0,-79.89469,70.6673
10000.0,63109.59,-95.58038,70.6489
