Frequency,Impedance,Phase Angle,Temperature (Dry Bath)
10.0,1357904.0,-15.15566,65.6519
21.544346900318832,1144073.0,-10.66457,65.6455
46.41588833612777,1210471.0,-16.58646,65.6446
100.0,383772.2,-22.55362,65.6438
215.44346900318823,70477.32,-69.43264,65.6602
464.15888336127773,363816.1,-39.35256,65.6548
1000.0,688074.1,-79.77858,65.6561
2154.4346900318824,229411.4,-93.98586,65.6633
4641.588833612777,122507.8,-72.36074,65.6561
10000.0,62199.91,-74.91827,65.6533
