Frequency,Impedance,Phase Angle,Temperature (Dry Bath)
10.0,65975.58,-10.81624,71.0302
21.544346900318832,61060.65,-9.170416,71.0295
46.41588833612777,57420.87,-7.51565,71.0381
100.0,50772.77,-4.289779,71.035
215.44346900318823,52299.55,-7.959081,71.0228
464.15888336127773,50203.81,-8.520289,71.0298
1000.0,56239.39,-3.520481,71.0246
2154.4346900318824,47408.28,-3.834396,71.0195
4641.588833612777,45564.35,-14.003,71.0245
10000.0,43386.37,-22.31706,71.0213
