Frequency,Impedance,Phase Angle,Temperature (Dry Bath)
10.0,5299349.0,-8.379144,71.2915
21.544346900318832,4271587.0,-6.329179,71.2939
46.41588833612777,3573509.0,-15.67476,71.2835
100.0,304501.6,20.0728,71.2857
215.44346900318823,1547398.0,-32.34981,71.29
464.15888336127773,918870.8,-150.8789,71.2709
1000.0,367256.5,-25.7049,71.2875
2154.4346900318824,202597.8,-72.28756,71.2602
4641.588833612777,159325.0,-83.94828,71.2669
10000.0,66450.1,-98.78219,71.2825
