Frequency,Impedance,Phase Angle,Temperature (Dry Bath)
10.0,5439424.0,18.93416,70.9517
21.544346900318832,4985030.0,4.30954,70.9641
46.41588833612777,6553618.0,-36.08768,70.9719
100.0,898125.4,89.44113,70.9682
215.44346900318823,1008410.0,-69.29969,70.9768
464.15888336127773,880331.4,-124.2951,71.0027
1000.0,327706.7,-96.15842,70.9776
2154.4346900318824,268349.1,-71.63906,70.9807
4641.588833612777,207152.1,-77.24268,70.9826
10000.0,67549.3,-90.75173,70.982
