Frequency,Impedance,Phase Angle,Temperature (Dry Bath)
10.0,9368.502,-23.6004,70.8855
21.544346900318832,7900.182,-19.28329,70.8888
46.41588833612777,6885.912,-15.9584,70.8845
100.0,6093.156,-13.28076,70.8808
215.44346900318823,5617.595,-12.26199,70.8871
464.15888336127773,5126.902,-9.984307,70.898
1000.0,4828.71,-8.215651,70.8763
2154.4346900318824,4469.665,-7.654378,70.8813
4641.588833612777,4278.476,-7.446182,70.8883
10000.0,4060.595,-9.227151,70.8855
