Frequency,Impedance,Phase Angle,Temperature (Dry Bath)
10.0,177880.4,-13.28861,71.2387
21.544346900318832,162203.2,-11.44228,71.2276
46.41588833612777,147715.7,-11.54214,71.2379
100.0,131930.1,-17.12266,71.2308
215.44346900318823,147644.6,6.200001,71.2371
464.15888336127773,111189.6,-18.58499,71.2351
1000.0,100259.4,-13.19964,71.2252
2154.4346900318824,93780.83,-29.14063,71.2288
4641.588833612777,74688.84,-38.83395,71.2407
10000.0,44840.18,-59.07152,71.2307
