Frequency,Impedance,Phase Angle,Temperature (Dry Bath)
10.0,3459074.0,-7.206808,70.9114
21.544346900318832,5757510.0,2.437573,70.9067
46.41588833612777,6036476.0,-23.28648,70.908
100.0,649276.8,-22.90743,70.9053
215.44346900318823,655707.1,-95.86355,70.9038
464.15888336127773,487531.0,-142.1133,70.898
1000.0,360177.5,-119.6034,70.9067
2154.4346900318824,299126.6,-96.23266,70.9086
4641.588833612777,121525.7,-83.26553,70.912
10000.0,55178.6,-89.95193,70.9071
