Frequency,Impedance,Phase Angle,Temperature (Dry Bath)
10.0,2340381.0,-15.01306,66.4035
21.544346900318832,2514832.0,-20.99574,66.3953
46.41588833612777,1620400.0,-19.40614,66.4159
100.0,593831.0,-46.34778,66.4191
215.44346900318823,1803318.0,-27.48567,66.4079
464.15888336127773,476087.3,-9.97117,66.4094
1000.0,1683579.0,-57.01486,66.4115
2154.4346900318824,358481.3,-60.20447,66.4201
4641.588833612777,134965.9,-80.88362,66.4245
10000.0,72696.59,-88.30408,66.4142
