Frequency,Impedance,Phase Angle,Temperature (Dry Bath)
10.0,16766.65,-24.19527,71.3601
21.544346900318832,13594.48,-24.28799,71.359
46.41588833612777,11050.49,-23.83203,71.3609
100.0,9064.625,-22.31625,71.3561
215.44346900318823,7591.925,-20.93544,71.372
464.15888336127773,6414.752,-19.16995,71.3608
1000.0,5536.292,-17.54544,71.358
2154.4346900318824,4766.04,-16.86167,71.355
4641.588833612777,4138.299,-16.01761,71.3675
10000.0,3673.86,-15.02037,71.3514
