Frequency,Impedance,Phase Angle,Temperature (Dry Bath)
10.0,4065758.0,24.63897,66.4197
21.544346900318832,13798530.0,-34.42556,66.4154
46.41588833612777,3456121.0,-21.15022,66.4023
100.0,391981.6,33.2987,66.4373
215.44346900318823,597183.3,-56.84165,66.4161
464.15888336127773,1183744.0,-134.292,66.425
1000.0,414401.4,-105.6331,66.4229
2154.4346900318824,237601.8,-92.06778,66.4264
4641.588833612777,120850.1,-86.55923,66.4334
10000.0,55622.94,-83.18303,66.4228
