Frequency,Impedance,Phase Angle,Temperature (Dry Bath)
10.0,5148099.0,-0.5107909,71.0561
21.544346900318832,4981236.0,10.41043,71.0421
46.41588833612777,4370264.0,-8.287193,71.0654
100.0,571115.9,-39.81599,71.0416
215.44346900318823,703253.1,-68.96919,71.0425
464.15888336127773,529512.4,-126.5716,71.0448
1000.0,479113.4,26.42559,71.0496
2154.4346900318824,934004.1,13.98605,71.0481
4641.588833612777,205617.3,-89.52731,71.04
10000.0,158305.6,-87.99453,71.0306
