Frequency,Impedance,Phase Angle,Temperature (Dry Bath)
10.0,4234680.0,-28.32849,70.7995
21.544346900318832,7152882.0,-34.88267,70.8243
46.41588833612777,3365841.0,-17.18995,70.8143
100.0,417697.1,-89.37635,70.8022
215.44346900318823,4037031.0,-2.198139,70.8154
464.15888336127773,862628.9,-75.70657,70.8167
1000.0,485460.5,-113.3976,70.818
2154.4346900318824,224756.0,-75.84602,70.822
4641.588833612777,123267.6,-92.55554,70.8296
10000.0,57269.77,-83.92005,70.8173
