Frequency,Impedance,Phase Angle,Temperature (Dry Bath)
10.0,5044241.0,-1.928903,66.2311
21.544346900318832,7387225.0,21.06671,66.2419
46.41588833612777,3765528.0,-37.62559,66.2424
100.0,600105.1,-30.60527,66.2493
215.44346900318823,619201.8,110.6477,66.2314
464.15888336127773,603561.7,-67.52282,66.2425
1000.0,361281.9,-83.03568,66.2434
2154.4346900318824,354603.2,-89.8193,66.2329
4641.588833612777,108105.4,-82.05713,66.2337
10000.0,62035.43,-83.10545,66.2503
