Frequency,Impedance,Phase Angle,Temperature (Dry Bath)
10.0,953690.3,-5.07652,71.1311
21.544346900318832,942128.7,-6.703324,71.1288
46.41588833612777,864120.7,-6.511,71.1326
100.0,260826.1,0.1748159,71.1399
215.44346900318823,851878.2,-64.32705,71.1273
464.15888336127773,834357.8,93.31931,71.1226
1000.0,672680.4,-61.88442,71.1267
2154.4346900318824,226661.8,-64.65264,71.126
4641.588833612777,147961.4,-109.5665,71.1315
10000.0,173970.1,-74.60178,71.1379
