Frequency,Impedance,Phase Angle,Temperature (Dry Bath)
10.0,4903334.0,-12.10808,71.0471
21.544346900318832,5115274.0,-29.4937,71.0686
46.41588833612777,4718266.0,-28.17547,71.0505
100.0,664516.6,178.1702,71.0648
215.44346900318823,825881.8,152.332,71.0546
464.15888336127773,535296.0,41.35607,71.0653
1000.0,355216.3,-58.3331,71.0616
2154.4346900318824,231349.6,-89.82602,71.0759
4641.588833612777,136081.1,-87.02415,71.0543
10000.0,69777.33,-87.73215,71.0541
