Frequency,Impedance,Phase Angle,Temperature (Dry Bath)
10.0,8037.093,-28.25451,70.7617
21.544346900318832,6331.841,-26.93427,70.7701
46.41588833612777,5051.887,-25.06857,70.7581
100.0,4106.344,-22.33765,70.7746
215.44346900318823,3416.653,-19.49632,70.7703
464.15888336127773,2938.402,-16.81551,70.7583
1000.0,2582.631,-14.45235,70.7607
2154.4346900318824,2320.444,-12.26698,70.7885
4641.588833612777,2108.931,-10.86957,70.7718
10000.0,1965.486,-10.81375,70.7651
