Frequency,Impedance,Phase Angle,Temperature (Dry Bath)
10.0,285165.8,-5.62789,70.7631
21.544346900318832,271761.9,-6.894392,70.7663
46.41588833612777,262571.1,-7.025071,70.7559
100.0,194836.3,-32.78471,70.7545
215.44346900318823,266163.4,20.08839,70.7714
464.15888336127773,188620.8,-7.354153,70.7659
1000.0,137100.3,2.188044,70.7584
2154.4346900318824,145940.0,-32.17859,70.7732
4641.588833612777,83516.15,-56.78259,70.7626
10000.0,52514.78,-64.30966,70.7455
