Frequency,Impedance,Phase Angle,Temperature (Dry Bath)
10.0,65562.17,-10.28374,71.3237
21.544346900318832,61159.34,-8.620893,71.319
46.41588833612777,57200.12,-7.312675,71.2959
100.0,50978.15,-9.57021,71.2969
215.44346900318823,48938.66,-7.001525,71.304
464.15888336127773,49438.38,-2.595333,71.3213
1000.0,50913.8,-4.283852,71.3178
2154.4346900318824,51235.98,-14.41288,71.3187
4641.588833612777,42702.25,-11.45197,71.3123
10000.0,43771.49,-28.2628,71.3201
