Frequency,Impedance,Phase Angle,Temperature (Dry Bath)
10.0,22350.77,-23.73633,71.1947
21.544346900318832,18277.24,-23.58862,71.2159
46.41588833612777,14985.13,-23.19937,71.2116
100.0,12423.14,-22.25811,71.2248
215.44346900318823,10403.42,-21.97308,71.212
464.15888336127773,8788.903,-20.12984,71.2126
1000.0,7331.773,-20.27116,71.1975
2154.4346900318824,6195.786,-19.61724,71.1825
4641.588833612777,5225.88,-19.22312,71.1967
10000.0,4487.992,-18.05337,71.2062
