Frequency,Impedance,Phase Angle,Temperature (Dry Bath)
10.0,5060104.0,-25.65434,71.305
21.544346900318832,5211869.0,-21.26314,71.3062
46.41588833612777,5132183.0,-33.35284,71.2921
100.0,775357.6,-112.0105,71.3097
215.44346900318823,2224658.0,4.300178,71.2986
464.15888336127773,602938.4,-48.4146,71.3004
1000.0,442976.9,-90.89428,71.3151
2154.4346900318824,174754.5,-99.03881,71.3141
4641.588833612777,142095.6,-93.17855,71.3037
10000.0,65851.0,-81.99497,71.3018
