Frequency,Impedance,Phase Angle,Temperature (Dry Bath)
10.0,1108861.0,-8.450076,66.3601
21.544346900318832,989341.8,-16.37219,66.3502
46.41588833612777,974682.2,-14.70655,66.3519
100.0,270632.9,27.23878,66.373
215.44346900318823,527682.7,-65.65772,66.3576
464.15888336127773,1221232.0,-36.48813,66.3407
1000.0,386137.3,-38.28381,66.3729
2154.4346900318824,304642.1,-76.39377,66.3365
4641.588833612777,132139.0,-98.97943,66.3464
10000.0,61775.23,-79.05552,66.3671
