Frequency,Impedance,Phase Angle,Temperature (Dry Bath)
10.0,3413563.0,-6.623101,65.7448
21.544346900318832,5891166.0,21.49199,65.7537
46.41588833612777,5614944.0,0.4911955,65.7617
100.0,705830.6,149.3008,65.7392
215.44346900318823,22895.88,-89.89815,65.76
464.15888336127773,1237264.0,-72.32309,65.7636
1000.0,797414.2,-85.47946,65.7495
2154.4346900318824,234527.7,-86.2716,65.7517
4641.588833612777,120864.9,-83.70131,65.7464
10000.0,65434.89,-89.35259,65.7537
