Frequency,Impedance,Phase Angle,Temperature (Dry Bath)
10.0,4895805.0,-9.632891,29.0963
21.544346900318832,13918210.0,-7.4839,28.3961
46.41588833612777,4670016.0,-11.68144,28.6794
100.0,1459248.0,97.64323,28.6132
215.44346900318823,1083476.0,103.4627,28.5583
464.15888336127773,1171952.0,-45.28401,28.694
1000.0,404168.9,28.7466,28.683
2154.4346900318824,743232.8,-66.04749,28.7145
4641.588833612777,264290.5,-84.69745,28.5723
10000.0,149694.5,-92.27015,28.4599
