Frequency,Impedance,Phase Angle,Temperature (Dry Bath)
10.0,7908.181,-27.70611,70.8696
21.544346900318832,6416.132,-23.42198,70.879
46.41588833612777,5387.706,-19.49736,70.8487
100.0,4686.603,-16.06396,70.8623
215.44346900318823,4165.916,-13.83866,70.856
464.15888336127773,3774.559,-10.78034,70.888
1000.0,3487.785,-9.015601,70.8634
2154.4346900318824,3276.32,-7.566454,70.8713
4641.588833612777,3110.006,-7.238542,70.8665
10000.0,2970.717,-8.114463,70.879
