Frequency,Impedance,Phase Angle,Temperature (Dry Bath)
10.0,197418.7,-26.55876,66.4156
21.544346900318832,161730.8,-24.1398,66.3949
46.41588833612777,132684.7,-22.44286,66.3979
100.0,128445.9,-28.99819,66.4179
215.44346900318823,94262.22,-31.41233,66.4115
464.15888336127773,76963.99,-17.70176,66.4211
1000.0,66330.71,-13.21705,66.4016
2154.4346900318824,62141.37,-25.60427,66.3969
4641.588833612777,47486.52,-35.45989,66.4028
10000.0,36561.65,-49.02591,66.4138
