Frequency,Impedance,Phase Angle,Temperature (Dry Bath)
10.0,11076480.0,1.143042,71.4667
21.544346900318832,7901283.0,-25.88,71.4661
46.41588833612777,3434082.0,-19.34954,71.4681
100.0,547235.0,-49.51367,71.4711
215.44346900318823,233648.3,-74.16934,71.4611
464.15888336127773,527424.4,-66.9309,71.4539
1000.0,631593.4,-136.8609,71.4733
2154.4346900318824,211250.7,-76.97078,71.469
4641.588833612777,108594.6,-83.79142,71.472
10000.0,55878.35,-88.19293,71.4574
