Frequency,Impedance,Phase Angle,Temperature (Dry Bath)
10.0,6281211.0,16.229,70.951
21.544346900318832,5460590.0,-17.56223,70.9557
46.41588833612777,6165096.0,-32.52775,70.9491
100.0,254432.8,-27.23669,70.9577
215.44346900318823,844171.2,-82.62936,70.952
464.15888336127773,615682.3,-59.85251,70.9642
1000.0,545557.5,-96.40854,70.9501
2154.4346900318824,360507.8,-82.13332,70.9613
4641.588833612777,150008.9,-92.60732,70.9522
10000.0,57657.32,-91.74977,70.964
