Frequency,Impedance,Phase Angle,Temperature (Dry Bath)
10.0,4065831.0,2.015621,71.4325
21.544346900318832,6911214.0,-16.23358,71.4246
46.41588833612777,5069180.0,-35.73782,71.4327
100.0,435261.5,-87.95265,71.4398
215.44346900318823,573398.6,-80.98523,71.4292
464.15888336127773,550537.9,-84.29085,71.4178
1000.0,395869.5,-92.64578,71.4146
2154.4346900318824,214773.4,-92.97048,71.412
4641.588833612777,118430.3,-96.92511,71.4312
10000.0,74037.72,-83.79309,71.4428
