Frequency,Impedance,Phase Angle,Temperature (Dry Bath)
10.0,4562266.0,-25.26699,66.2713
21.544346900318832,5105374.0,-18.03622,66.2752
46.41588833612777,5822637.0,-59.74631,66.2841
100.0,542965.2,-133.509,66.2827
215.44346900318823,381197.4,-60.95603,66.2904
464.15888336127773,1728811.0,28.29649,66.3181
1000.0,1151195.0,-38.5022,66.3073
2154.4346900318824,367676.3,-75.97192,66.292
4641.588833612777,128476.8,-74.55624,66.3004
10000.0,63729.11,-93.42388,66.3027
