Frequency,Impedance,Phase Angle,Temperature (Dry Bath)
10.0,4059915.0,-14.70956,70.876
21.544346900318832,4763894.0,-54.87429,70.8668
46.41588833612777,3118151.0,-29.48659,70.8724
100.0,353719.8,-112.2378,70.861
215.44346900318823,439489.3,-57.47347,70.8741
464.15888336127773,287457.4,-50.17941,70.8545
1000.0,373308.7,-54.4792,70.8709
2154.4346900318824,123880.4,-92.98175,70.8722
4641.588833612777,103856.4,-75.53127,70.885
10000.0,50572.41,-84.90465,70.8665
