Frequency,Impedance,Phase Angle,Temperature (Dry Bath)
10.0,4810802.0,-37.93824,71.2842
21.544346900318832,4637076.0,6.611229,71.2773
46.41588833612777,5411343.0,-48.01538,71.2766
100.0,1603672.0,-8.564048,71.2747
215.44346900318823,721871.3,-22.65571,71.286
464.15888336127773,14148320.0,-161.5014,71.3007
1000.0,461226.1,-56.11148,71.2909
2154.4346900318824,552340.6,-108.0453,71.2875
4641.588833612777,165809.3,-81.83896,71.2716
10000.0,53384.23,-88.338,71.2804
