Frequency,Impedance,Phase Angle,Temperature (Dry Bath)
10.0,8943183.0,-25.9487,71.2275
21.544346900318832,3828091.0,-5.597051,71.2463
46.41588833612777,4556836.0,-20.32265,71.2502
100.0,2018807.0,78.57285,71.2364
215.44346900318823,545897.0,53.45348,71.2323
464.15888336127773,672180.2,-58.16756,71.2358
1000.0,1036023.0,102.2391,71.2309
2154.4346900318824,518104.6,-41.54597,71.245
4641.588833612777,197281.4,-115.4641,71.2382
10000.0,227294.2,-93.89475,71.2347
