Frequency,Impedance,Phase Angle,Temperature (Dry Bath)
10.0,133550.2,-15.41561,65.7763
21.544346900318832,116034.9,-13.60573,65.7685
46.41588833612777,106141.3,-12.26455,65.7717
100.0,103021.2,2.860334,65.77
215.44346900318823,85977.74,-3.660851,65.7787
464.15888336127773,85990.92,-16.68031,65.7778
1000.0,73367.84,-15.14353,65.7714
2154.4346900318824,69625.83,-28.99723,65.7871
4641.588833612777,49907.08,-34.0104,65.7736
10000.0,35296.16,-43.50223,65.777
