Frequency,Impedance,Phase Angle,Temperature (Dry Bath)
10.0,4026095.0,-4.221819,71.4579
21.544346900318832,4869978.0,-19.98835,71.4669
46.41588833612777,5132141.0,-12.95019,71.4586
100.0,596426.9,24.014,71.4532
215.44346900318823,472963.7,-35.77133,71.4542
464.15888336127773,9767061.0,-69.81884,71.4705
1000.0,1279488.0,-31.66925,71.4643
2154.4346900318824,769570.5,-70.76752,71.4652
4641.588833612777,239174.3,-88.31947,71.4712
10000.0,149697.8,-93.38335,71.4495
