Frequency,Impedance,Phase Angle,Temperature (Dry Bath)
10.0,12348.16,-23.48479,71.5007
21.544346900318832,10076.56,-23.96115,71.4993
46.41588833612777,8174.039,-23.61595,71.4886
100.0,6655.824,-21.83425,71.4858
215.44346900318823,5613.164,-20.12129,71.4852
464.15888336127773,4787.533,-17.72725,71.4905
1000.0,4208.274,-15.98355,71.4867
2154.4346900318824,3698.978,-14.44184,71.492
4641.588833612777,3324.413,-13.27292,71.4885
10000.0,2995.216,-12.30689,71.4979
