Frequency,Impedance,Phase Angle,Temperature (Dry Bath)
10.0,14361.19,-29.11365,70.732
21.544346900318832,11470.76,-26.49499,70.7379
46.41588833612777,9338.203,-24.03464,70.7474
100.0,7655.248,-21.79234,70.7321
215.44346900318823,6537.778,-18.56054,70.7422
464.15888336127773,5680.553,-16.08439,70.7461
1000.0,4996.352,-13.53199,70.7432
2154.4346900318824,4627.575,-11.05213,70.7532
4641.588833612777,4314.28,-9.273345,70.7281
10000.0,4071.701,-10.61204,70.7363
