Frequency,Impedance,Phase Angle,Temperature (Dry Bath)
10.0,8962248.0,-8.964835,71.635
21.544346900318832,9935534.0,1.882365,71.6105
46.41588833612777,4272968.0,-16.51741,71.6194
100.0,1445710.0,-108.9842,71.6319
215.44346900318823,621261.1,143.1466,71.6145
464.15888336127773,8428612.0,-7.623762,71.5958
1000.0,747308.6,-83.73256,71.6122
2154.4346900318824,1023941.0,-86.33507,71.6128
4641.588833612777,626008.6,-78.15426,71.6166
10000.0,135764.2,-73.38918,71.6029
