Frequency,Impedance,Phase Angle,Temperature (Dry Bath)
10.0,5665024.0,-8.066259,71.4437
21.544346900318832,4328315.0,-6.106304,71.4628
46.41588833612777,3613845.0,-10.97576,71.4591
100.0,805330.2,89.1094,71.4429
215.44346900318823,714504.8,-26.48612,71.4591
464.15888336127773,1060503.0,-167.5008,71.4491
1000.0,857628.6,-35.68388,71.4645
2154.4346900318824,1004022.0,-50.54993,71.4491
4641.588833612777,295648.8,-80.74267,71.443
10000.0,148830.9,-72.32619,71.4541
