Frequency,Impedance,Phase Angle,Temperature (Dry Bath)
10.0,34323.58,-13.94911,71.3415
21.544346900318832,30865.42,-12.36139,71.349
46.41588833612777,28127.11,-11.02329,71.3673
100.0,25737.94,-10.42504,71.3521
215.44346900318823,24899.39,-8.732975,71.3441
464.15888336127773,22340.53,-9.449557,71.3573
1000.0,21382.39,-9.881837,71.3549
2154.4346900318824,20045.69,-12.15544,71.361
4641.588833612777,18348.66,-12.3649,71.3619
10000.0,16570.8,-16.36488,71.3552
