Frequency,Impedance,Phase Angle,Temperature (Dry Bath)
10.0,13836.66,-23.96707,71.5335
21.544346900318832,11263.13,-24.17515,71.523
46.41588833612777,9139.659,-23.8113,71.5343
100.0,7560.853,-21.98654,71.5391
215.44346900318823,6235.524,-20.16145,71.5425
464.15888336127773,5351.451,-18.46728,71.5366
1000.0,4626.119,-16.50281,71.5482
2154.4346900318824,4082.748,-15.48367,71.5377
4641.588833612777,3619.981,-14.15583,71.5335
10000.0,3236.721,-13.00406,71.5336
