Frequency,Impedance,Phase Angle,Temperature (Dry Bath)
10.0,4173985.0,11.18471,70.9735
21.544346900318832,4039699.0,-12.02632,70.9391
46.41588833612777,5924429.0,-21.56987,70.9584
100.0,6156492.0,-86.12248,70.9599
215.44346900318823,881554.9,-42.96353,70.9589
464.15888336127773,958418.3,0.5992931,70.9557
1000.0,195171.0,-126.8665,70.951
2154.4346900318824,422117.0,-46.90231,70.9724
4641.588833612777,172171.2,-73.21518,70.9601
10000.0,65543.38,-87.82789,70.9582
