Frequency,Impedance,Phase Angle,Temperature (Dry Bath)
10.0,744706.2,-30.07322,71.3534
21.544346900318832,578604.4,-26.98969,71.3622
46.41588833612777,453097.1,-24.25229,71.3644
100.0,264252.1,-30.80446,71.3629
215.44346900318823,342943.2,-37.72385,71.364
464.15888336127773,223922.6,-30.0612,71.3525
1000.0,147304.4,-10.81921,71.3498
2154.4346900318824,158712.0,-46.4728,71.3544
4641.588833612777,82758.34,-47.70744,71.354
10000.0,56412.04,-75.47881,71.3458
