Frequency,Impedance,Phase Angle,Temperature (Dry Bath)
10.0,5956529.0,-16.7947,66.1838
21.544346900318832,5963978.0,-7.902156,66.1985
46.41588833612777,5622206.0,-24.391,66.198
100.0,494929.3,-32.73702,66.2006
215.44346900318823,373669.2,-115.9874,66.1817
464.15888336127773,792477.3,-96.54903,66.1972
1000.0,680655.9,-40.48532,66.1904
2154.4346900318824,437015.2,-72.32194,66.1989
4641.588833612777,186704.8,-78.03025,66.1691
10000.0,77146.01,-84.26525,66.1849
