Frequency,Impedance,Phase Angle,Temperature (Dry Bath)
10.0,12806.38,-23.63841,71.551
21.544346900318832,10440.55,-24.04822,71.5347
46.41588833612777,8464.318,-23.71566,71.5371
100.0,6923.721,-21.99537,71.5376
215.44346900318823,5798.304,-20.44349,71.5368
464.15888336127773,4966.382,-17.35418,71.5315
1000.0,4338.134,-15.9577,71.5401
2154.4346900318824,3813.246,-14.33428,71.5455
4641.588833612777,3392.968,-13.40765,71.5423
10000.0,3063.105,-12.61986,71.5288
