Frequency,Impedance,Phase Angle,Temperature (Dry Bath)
10.0,176864.1,-12.99782,71.3415
21.544346900318832,158247.2,-11.19799,71.3314
46.41588833612777,147608.5,-12.21066,71.3316
100.0,156447.2,-14.58266,71.335
215.44346900318823,112757.0,-14.08476,71.3447
464.15888336127773,108927.8,-19.04936,71.3279
1000.0,98017.47,-18.28851,71.3271
2154.4346900318824,85006.64,-31.47808,71.3389
4641.588833612777,60671.35,-48.08163,71.3349
10000.0,34449.74,-67.92859,71.3439
