Frequency,Impedance,Phase Angle,Temperature (Dry Bath)
10.0,1491430.0,-13.40693,71.4073
21.544346900318832,1400213.0,-15.29823,71.4224
46.41588833612777,1058443.0,-6.944188,71.4225
100.0,555885.9,46.32252,71.4157
215.44346900318823,15560.93,-86.45226,71.4239
464.15888336127773,1167375.0,-58.47312,71.4134
1000.0,239115.3,-94.55867,71.4243
2154.4346900318824,210977.1,-82.13501,71.4101
4641.588833612777,101929.8,-68.18055,71.4219
10000.0,57997.94,-78.54409,71.415
