Frequency,Impedance,Phase Angle,Temperature (Dry Bath)
10.0,4831053.0,-6.041815,70.7053
21.544346900318832,4085060.0,-25.89011,70.7
46.41588833612777,4391515.0,-24.13747,70.693
100.0,584884.2,-42.24787,70.6941
215.44346900318823,1063881.0,-145.9528,70.6975
464.15888336127773,4669431.0,9.553916,70.6892
1000.0,911776.2,-132.9873,70.7074
2154.4346900318824,389088.2,-82.56851,70.6941
4641.588833612777,117372.5,-79.60638,70.6973
10000.0,61082.61,-85.59138,70.6981
