Frequency,Impedance,Phase Angle,Temperature (Dry Bath)
10.0,6469198.0,-29.28825,71.2619
21.544346900318832,4325159.0,-19.15577,71.264
46.41588833612777,4407588.0,-17.30141,71.2649
100.0,444297.8,26.92659,71.2413
215.44346900318823,480018.2,-113.7121,71.2444
464.15888336127773,1157590.0,-4.175465,71.2588
1000.0,653858.4,-106.8803,71.2436
2154.4346900318824,515192.8,-69.65363,71.2386
4641.588833612777,844352.0,-126.2021,71.2627
10000.0,134316.4,-86.63252,71.2353
