Frequency,Impedance,Phase Angle,Temperature (Dry Bath)
10.0,5986836.0,-14.92969,71.5028
21.544346900318832,5481809.0,-5.352856,71.5085
46.41588833612777,3878110.0,0.2105699,71.4964
100.0,366977.5,-37.08756,71.4937
215.44346900318823,419093.8,-49.79458,71.4968
464.15888336127773,1724835.0,98.00036,71.4992
1000.0,319882.8,-32.8427,71.4902
2154.4346900318824,605987.9,-122.396,71.496
4641.588833612777,105215.3,-79.87114,71.4971
10000.0,70037.88,-88.43835,71.4914
