Frequency,Impedance,Phase Angle,Temperature (Dry Bath)
10.0,7456615.0,2.91716,65.7727
21.544346900318832,4767636.0,4.438702,65.7932
46.41588833612777,3619882.0,-47.58981,65.7759
100.0,980768.8,90.82991,65.7886
215.44346900318823,6009.514,69.93101,65.7825
464.15888336127773,755518.2,-102.261,65.7926
1000.0,447805.8,-80.4475,65.7862
2154.4346900318824,230050.7,-95.86125,65.7946
4641.588833612777,105709.9,-97.03947,65.7754
10000.0,69274.29,-83.04704,65.7822
