Frequency,Impedance,Phase Angle,Temperature (Dry Bath)
10.0,8506135.0,-7.362237,65.7899
21.544346900318832,3186357.0,-19.59769,65.7849
46.41588833612777,3992790.0,-7.57404,65.7725
100.0,627552.6,-110.6104,65.7958
215.44346900318823,176088.2,-121.395,65.7698
464.15888336127773,2221753.0,-110.5649,65.7677
1000.0,771239.2,-132.5219,65.7826
2154.4346900318824,275521.1,-94.26159,65.7729
4641.588833612777,137826.3,-73.49457,65.7807
10000.0,56656.73,-85.82654,65.7411
