Frequency,Impedance,Phase Angle,Temperature (Dry Bath)
10.0,4948440.0,-22.30436,66.3985
21.544346900318832,6787130.0,-30.62907,66.3884
46.41588833612777,3604095.0,-33.37234,66.3946
100.0,1135770.0,-3.707265,66.3898
215.44346900318823,604978.7,133.6965,66.3958
464.15888336127773,1919143.0,-145.1524,66.3927
1000.0,632032.5,-91.2516,66.4015
2154.4346900318824,459186.1,-59.63511,66.3973
4641.588833612777,207316.9,-82.18077,66.4063
10000.0,71941.28,-81.55547,66.4033
