Frequency,Impedance,Phase Angle,Temperature (Dry Bath)
10.0,3769736.0,-29.32606,70.9443
21.544346900318832,5404388.0,17.33038,70.9391
46.41588833612777,4107702.0,-23.86734,70.9385
100.0,488252.1,-62.20946,70.9374
215.44346900318823,1357371.0,-39.93103,70.9534
464.15888336127773,444050.0,176.527,70.9404
1000.0,211870.9,-73.63406,70.9353
2154.4346900318824,264874.1,-69.47343,70.9448
4641.588833612777,112307.0,-83.29569,70.936
10000.0,67176.09,-86.00247,70.9367
