Frequency,Impedance,Phase Angle,Temperature (Dry Bath)
10.0,4701394.0,-3.679495,65.7187
21.544346900318832,4145916.0,-14.46898,65.7081
46.41588833612777,4244757.0,-16.21903,65.7249
100.0,186714.2,-86.78035,65.7037
215.44346900318823,263010.3,61.65199,65.7004
464.15888336127773,661306.8,-38.55437,65.6974
1000.0,330536.5,-50.59346,65.7095
2154.4346900318824,224725.8,-93.00251,65.7035
4641.588833612777,143080.7,-85.73887,65.6942
10000.0,85644.05,-86.91908,65.6973
