Frequency,Impedance,Phase Angle,Temperature (Dry Bath)
10.0,351689.8,-22.3327,65.7224
21.544346900318832,293164.6,-21.75868,65.7304
46.41588833612777,239941.8,-21.5865,65.7222
100.0,171592.7,-21.96764,65.7305
215.44346900318823,27559.23,151.0922,65.7096
464.15888336127773,117907.5,-16.13389,65.728
1000.0,133501.7,-22.89536,65.7172
2154.4346900318824,110771.1,-30.04331,65.726
4641.588833612777,74611.64,-50.2978,65.7083
10000.0,50147.8,-62.24974,65.7245
