Frequency,Impedance,Phase Angle,Temperature (Dry Bath)
10.0,6790.092,-28.34738,70.4929
21.544346900318832,5376.196,-26.21912,70.523
46.41588833612777,4347.538,-23.51709,70.4895
100.0,3590.477,-21.39431,70.4838
215.44346900318823,3079.405,-17.48396,70.4942
464.15888336127773,2679.274,-14.96817,70.4812
1000.0,2396.292,-12.70134,70.4819
2154.4346900318824,2166.35,-10.95858,70.4473
4641.588833612777,2020.723,-10.5074,70.4718
10000.0,1864.333,-10.17608,70.4654
