Frequency,Impedance,Phase Angle,Temperature (Dry Bath)
10.0,702516.3,-1.214947,71.233
21.544346900318832,637769.7,-2.50541,71.2421
46.41588833612777,640890.7,-3.402004,71.2258
100.0,388438.1,-19.06553,71.2242
215.44346900318823,324525.6,4.928997,71.2171
464.15888336127773,673909.2,-73.49258,71.2291
1000.0,354758.1,-27.29522,71.2142
2154.4346900318824,181173.8,-65.76408,71.2365
4641.588833612777,209299.9,-63.56637,71.2094
10000.0,94375.15,-74.54019,71.2196
