Frequency,Impedance,Phase Angle,Temperature (Dry Bath)
10.0,3380337.0,-26.17748,71.1221
21.544346900318832,4701617.0,-38.73674,71.1265
46.41588833612777,4433223.0,-14.49719,71.1302
100.0,326032.3,-96.11182,71.1296
215.44346900318823,918866.3,-21.01604,71.1167
464.15888336127773,5448845.0,139.4491,71.1212
1000.0,930950.6,-27.98813,71.1317
2154.4346900318824,294407.3,-102.3503,71.1134
4641.588833612777,150512.3,-86.95356,71.1258
10000.0,65161.75,-89.17561,71.1391
