Frequency,Impedance,Phase Angle,Temperature (Dry Bath)
10.0,4270249.0,-28.54682,71.3087
21.544346900318832,5420394.0,-17.80471,71.2947
46.41588833612777,4553134.0,-37.0986,71.3036
100.0,739695.1,-24.38812,71.285
215.44346900318823,846627.5,-176.4254,71.3081
464.15888336127773,525720.9,-121.504,71.291
1000.0,548737.0,27.91891,71.2974
2154.4346900318824,302838.2,-75.33059,71.3102
4641.588833612777,135608.4,-89.42182,71.2816
10000.0,61852.57,-85.03266,71.2678
