Frequency,Impedance,Phase Angle,Temperature (Dry Bath)
10.0,7989674.0,-8.892262,71.1305
21.544346900318832,6032756.0,-17.4969,71.1279
46.41588833612777,4052841.0,-13.4259,71.1301
100.0,1521288.0,-173.8588,71.1418
215.44346900318823,914376.7,-37.54827,71.1294
464.15888336127773,878063.1,-69.58038,71.1293
1000.0,264739.0,-37.34524,71.1417
2154.4346900318824,332225.8,-91.40608,71.1201
4641.588833612777,141433.0,-91.79586,71.1353
10000.0,67685.24,-87.7092,71.1192
