Frequency,Impedance,Phase Angle,Temperature (Dry Bath)
10.0,7372252.0,-10.26199,66.2814
21.544346900318832,5867253.0,-12.54323,66.3123
46.41588833612777,7281248.0,-42.20115,66.3093
100.0,749083.2,59.99949,66.3198
215.44346900318823,216501.4,-103.1197,66.3104
464.15888336127773,659503.6,-91.02677,66.3137
1000.0,258559.0,-104.0795,66.3049
2154.4346900318824,182023.9,-80.09531,66.3181
4641.588833612777,163921.4,-106.9033,66.2895
10000.0,62076.69,-87.73027,66.3056
