Frequency,Impedance,Phase Angle,Temperature (Dry Bath)
10.0,39815.67,-16.61876,70.6084
21.544346900318832,35056.05,-14.90529,70.6106
46.41588833612777,31034.52,-13.63464,70.6235
100.0,29225.77,-13.38201,70.6125
215.44346900318823,25785.95,-9.692895,70.6125
464.15888336127773,23788.58,-9.892072,70.6218
1000.0,21742.47,-9.459111,70.6168
2154.4346900318824,20751.54,-10.82703,70.6152
4641.588833612777,19041.7,-13.835,70.6103
10000.0,17283.46,-22.35426,70.6147
