Frequency,Impedance,Phase Angle,Temperature (Dry Bath)
10.0,161185.5,-9.249593,66.2291
21.544346900318832,149564.1,-8.261608,66.2358
46.41588833612777,142586.5,-7.675601,66.2446
100.0,111406.7,-10.76391,66.269
215.44346900318823,143723.1,4.237594,66.2701
464.15888336127773,120201.2,-13.06904,66.2418
1000.0,101238.9,-10.81171,66.2394
2154.4346900318824,96390.05,-22.19481,66.2654
4641.588833612777,68002.46,-45.5792,66.2487
10000.0,44102.7,-59.93228,66.2493
