Frequency,Impedance,Phase Angle,Temperature (Dry Bath)
10.0,3612958.0,-1.84476,70.8448
21.544346900318832,5440461.0,-33.78393,70.8432
46.41588833612777,5627980.0,-48.94445,70.8451
100.0,2120669.0,178.7668,70.8266
215.44346900318823,687859.4,-98.43905,70.847
464.15888336127773,816197.6,-8.684033,70.839
1000.0,437932.2,-168.7314,70.8303
2154.4346900318824,240707.5,-81.77245,70.8564
4641.588833612777,153354.4,-78.66394,70.8297
10000.0,55436.86,-93.509,70.8416
