Frequency,Impedance,Phase Angle,Temperature (Dry Bath)
10.0,3595094.0,-13.37731,70.6762
21.544346900318832,3617471.0,-9.773343,70.6839
46.41588833612777,6056273.0,-35.00711,70.6755
100.0,1211595.0,107.9901,70.6802
215.44346900318823,840484.8,-24.92674,70.7033
464.15888336127773,748586.4,40.69732,70.6976
1000.0,283963.7,-80.80671,70.6824
2154.4346900318824,204110.8,-95.05835,70.7073
4641.588833612777,133480.7,-94.85698,70.6927
10000.0,52465.29,-86.87945,70.7052
