Frequency,Impedance,Phase Angle,Temperature (Dry Bath)
10.0,135240.1,-19.4313,66.4078
21.544346900318832,115264.3,-17.9794,66.4244
46.41588833612777,99208.47,-16.72354,66.4127
100.0,86505.75,-2.959934,66.4207
215.44346900318823,75675.69,-17.70996,66.4017
464.15888336127773,73077.81,-13.66522,66.4066
1000.0,64704.19,-19.64242,66.4029
2154.4346900318824,53018.45,-27.28245,66.4092
4641.588833612777,45012.92,-37.62144,66.4026
10000.0,30707.75,-43.13058,66.4219
