Frequency,Impedance,Phase Angle,Temperature (Dry Bath)
10.0,997681.7,-6.432739,71.1374
21.544346900318832,1075564.0,-7.878633,71.1651
46.41588833612777,918923.6,-6.410547,71.1336
100.0,1142477.0,42.41013,71.1384
215.44346900318823,387320.5,-8.100179,71.1127
464.15888336127773,700517.9,100.9167,71.1356
1000.0,221063.4,-67.40588,71.1462
2154.4346900318824,274736.4,-53.38155,71.1447
4641.588833612777,189620.1,-58.65853,71.1392
10000.0,103870.0,-78.36421,71.1472
