Frequency,Impedance,Phase Angle,Temperature (Dry Bath)
10.0,10489850.0,5.334278,71.4688
21.544346900318832,5089798.0,0.3362237,71.4458
46.41588833612777,3349541.0,-23.46188,71.4687
100.0,414726.0,-30.46555,71.4689
215.44346900318823,875023.0,165.5079,71.4668
464.15888336127773,8107105.0,-117.3271,71.4721
1000.0,503268.6,-149.5549,71.4612
2154.4346900318824,347174.7,-73.90323,71.4862
4641.588833612777,158925.4,-86.11661,71.4634
10000.0,97614.25,-91.82648,71.4727
