Frequency,Impedance,Phase Angle,Temperature (Dry Bath)
10.0,543880.9,-11.1031,71.1254
21.544346900318832,469633.9,-11.73406,71.1221
46.41588833612777,443979.0,-11.39706,71.1309
100.0,314212.2,-17.41091,71.1135
215.44346900318823,445562.5,29.06344,71.1189
464.15888336127773,446100.1,-28.81933,71.1148
1000.0,193126.6,-31.71196,71.1225
2154.4346900318824,144712.1,-43.22381,71.1268
4641.588833612777,174333.9,-61.39844,71.129
10000.0,112672.2,-63.14389,71.1198
