Frequency,Impedance,Phase Angle,Temperature (Dry Bath)
10.0,52133.08,-16.71561,70.9611
21.544346900318832,46660.85,-14.4615,70.9579
46.41588833612777,41992.12,-13.62838,70.954
100.0,39437.69,-15.53628,70.9673
215.44346900318823,33651.37,-12.12796,70.9474
464.15888336127773,31063.66,-13.97245,70.9603
1000.0,27766.02,-8.579997,70.9603
2154.4346900318824,25463.08,-14.53653,70.9539
4641.588833612777,22938.16,-18.18612,70.9527
10000.0,19992.8,-26.84381,70.9483
