Frequency,Impedance,Phase Angle,Temperature (Dry Bath)
10.0,8496121.0,-0.02774098,71.2378
21.544346900318832,3688152.0,-24.33514,71.2226
46.41588833612777,3758033.0,-28.83188,71.2084
100.0,234664.6,-71.01267,71.2163
215.44346900318823,1649403.0,-156.9596,71.2281
464.15888336127773,769433.4,-28.17303,71.2267
1000.0,372833.7,-47.87267,71.2399
2154.4346900318824,187676.4,-56.2018,71.2351
4641.588833612777,126716.6,-88.04469,71.2295
10000.0,52914.47,-86.73716,71.2215
