Frequency,Impedance,Phase Angle,Temperature (Dry Bath)
10.0,22907.94,-21.3827,66.3544
21.544346900318832,19369.16,-18.31653,66.3555
46.41588833612777,16792.15,-15.43261,66.3544
100.0,15366.34,-12.89774,66.3547
215.44346900318823,14329.49,-9.071745,66.3539
464.15888336127773,12816.42,-9.570616,66.3626
1000.0,11850.74,-9.173561,66.3452
2154.4346900318824,11356.39,-7.946527,66.3489
4641.588833612777,10771.85,-10.55199,66.3507
10000.0,10069.04,-15.16888,66.3521
