Frequency,Impedance,Phase Angle,Temperature (Dry Bath)
10.0,2093794.0,-22.13754,65.7462
21.544346900318832,1515063.0,-21.71155,65.733
46.41588833612777,1274161.0,-21.37244,65.7652
100.0,2286825.0,91.80563,65.7457
215.44346900318823,17142.74,56.09651,65.747
464.15888336127773,782321.8,-44.77122,65.7508
1000.0,334428.8,-73.3183,65.7708
2154.4346900318824,240131.7,-44.37217,65.7739
4641.588833612777,145498.3,-82.61148,65.7529
10000.0,65478.49,-80.72747,65.737
