Frequency,Impedance,Phase Angle,Temperature (Dry Bath)
10.0,5484933.0,-7.880891,66.2285
21.544346900318832,6551053.0,-23.70722,66.2544
46.41588833612777,5152373.0,-36.00632,66.2921
100.0,1621422.0,-30.66971,66.2787
215.44346900318823,392170.6,74.59241,66.2817
464.15888336127773,483213.0,-94.93208,66.2801
1000.0,339168.1,-84.51872,66.2857
2154.4346900318824,325546.4,-67.82002,66.302
4641.588833612777,167521.2,-84.83923,66.2934
10000.0,66471.18,-92.57389,66.3068
