Frequency,Impedance,Phase Angle,Temperature (Dry Bath)
10.0,13457.91,-28.24844,71.0091
21.544346900318832,10698.35,-25.7384,70.9772
46.41588833612777,8697.2,-22.94835,70.9775
100.0,7209.379,-19.97528,70.9756
215.44346900318823,6150.163,-17.63642,70.9936
464.15888336127773,5469.25,-15.69161,70.9847
1000.0,4858.463,-13.57266,70.9829
2154.4346900318824,4421.399,-12.29994,70.9765
4641.588833612777,3975.64,-11.90708,70.9804
10000.0,3694.987,-12.80245,70.9821
