Frequency,Impedance,Phase Angle,Temperature (Dry Bath)
10.0,5909824.0,7.084755,71.1655
21.544346900318832,5181872.0,-42.89176,71.1655
46.41588833612777,4998153.0,-34.08606,71.1507
100.0,465992.0,85.14159,71.1711
215.44346900318823,1363780.0,-60.10625,71.145
464.15888336127773,512105.9,-70.33301,71.1479
1000.0,512670.2,-60.11263,71.1643
2154.4346900318824,296549.0,-91.1864,71.1617
4641.588833612777,118269.5,-88.3289,71.1679
10000.0,63712.95,-86.46369,71.1566
