Frequency,Impedance,Phase Angle,Temperature (Dry Bath)
10.0,6117100.0,-39.95283,65.7697
21.544346900318832,9455584.0,-12.41099,65.7943
46.41588833612777,4080967.0,-4.326291,65.7905
100.0,367908.8,-48.38665,65.7752
215.44346900318823,10903.92,-33.88066,65.7678
464.15888336127773,2706052.0,54.96385,65.7859
1000.0,1671446.0,-22.19802,65.7659
2154.4346900318824,294051.9,-90.08962,65.7856
4641.588833612777,125343.9,-97.82424,65.7706
10000.0,72899.66,-80.28219,65.7796
