Frequency,Impedance,Phase Angle,Temperature (Dry Bath)
10.0,5014584.0,-14.32473,71.0735
21.544346900318832,3988112.0,-16.00749,71.0685
46.41588833612777,5458246.0,-29.14351,71.0656
100.0,382750.0,82.25684,71.0515
215.44346900318823,393909.9,137.7249,71.0636
464.15888336127773,256222.3,-6.200148,71.0549
1000.0,205339.3,169.5537,71.0639
2154.4346900318824,706069.3,-82.80412,71.0648
4641.588833612777,418734.4,-143.677,71.0638
10000.0,172775.8,-100.5752,71.081
