Frequency,Impedance,Phase Angle,Temperature (Dry Bath)
10.0,5940949.0,19.7415,72.1511
21.544346900318832,39404510.0,-60.08919,72.1467
46.41588833612777,4508878.0,-13.4214,72.162
100.0,318483.4,-23.75688,72.1573
215.44346900318823,335024.9,-64.82543,72.1627
464.15888336127773,523974.8,-150.5474,72.1476
1000.0,450384.5,-122.5855,72.1637
2154.4346900318824,409974.0,31.21882,72.1503
4641.588833612777,254985.2,-40.22375,72.1647
10000.0,124772.3,-45.51763,72.1601
