Frequency,Impedance,Phase Angle,Temperature (Dry Bath)
10.0,22825.67,-21.4435,65.7109
21.544346900318832,19180.71,-18.43238,65.7196
46.41588833612777,16640.06,-15.38037,65.7324
100.0,14501.3,-12.83013,65.7196
215.44346900318823,14278.58,78.51946,65.7229
464.15888336127773,12667.51,-7.302884,65.7216
1000.0,11984.12,-9.2852,65.7233
2154.4346900318824,11230.75,-8.652322,65.7148
4641.588833612777,10794.21,-8.853594,65.7287
10000.0,10233.36,-15.35855,65.7278
