Frequency,Impedance,Phase Angle,Temperature (Dry Bath)
10.0,13574.88,-17.14718,71.5684
21.544346900318832,11991.52,-15.67446,71.5703
46.41588833612777,10651.33,-15.0905,71.5803
100.0,9475.321,-14.82402,71.5688
215.44346900318823,8564.074,-13.85577,71.5714
464.15888336127773,7592.492,-12.88536,71.5779
1000.0,6871.233,-11.89702,71.5682
2154.4346900318824,6123.228,-10.39048,71.5563
4641.588833612777,5791.946,-9.74481,71.5705
10000.0,5409.473,-9.779701,71.5634
