Frequency,Impedance,Phase Angle,Temperature (Dry Bath)
10.0,177617.0,-12.65532,71.2552
21.544346900318832,158068.4,-12.72778,71.2546
46.41588833612777,143674.6,-11.60844,71.2531
100.0,116032.4,-8.40163,71.2459
215.44346900318823,110823.1,-12.80496,71.2572
464.15888336127773,103074.5,-20.52299,71.2675
1000.0,99523.95,-26.15594,71.241
2154.4346900318824,98834.75,-23.44585,71.2444
4641.588833612777,69608.48,-38.46786,71.2776
10000.0,48789.5,-56.4884,71.2559
