Frequency,Impedance,Phase Angle,Temperature (Dry Bath)
10.0,12424.28,-20.59871,70.9272
21.544346900318832,10636.4,-17.69837,70.9249
46.41588833612777,9290.994,-15.61184,70.9176
100.0,8182.505,-13.45106,70.9382
215.44346900318823,7355.295,-12.65749,70.9218
464.15888336127773,6769.135,-10.66893,70.9156
1000.0,6084.298,-10.42717,70.9274
2154.4346900318824,5714.259,-9.487276,70.9273
4641.588833612777,5371.697,-9.8414,70.9289
10000.0,5046.452,-11.56158,70.9236
