Frequency,Impedance,Phase Angle,Temperature (Dry Bath)
10.0,158784.3,-8.295875,65.658
21.544346900318832,150426.9,-8.281986,65.6582
46.41588833612777,140579.1,-7.415286,65.6684
100.0,145042.2,-28.61453,65.6519
215.44346900318823,14001.92,-80.29811,65.6595
464.15888336127773,136481.0,-16.17102,65.6448
1000.0,116639.4,-17.12167,65.6522
2154.4346900318824,104800.1,-26.94074,65.6572
4641.588833612777,74216.26,-45.751,65.659
10000.0,48823.72,-63.43016,65.6576
