Frequency,Impedance,Phase Angle,Temperature (Dry Bath)
10.0,1801430.0,-18.99003,65.7608
21.544346900318832,1465338.0,-12.4949,65.7809
46.41588833612777,1173723.0,-7.4631,65.7889
100.0,457581.2,-13.79117,65.7805
215.44346900318823,930316.7,-42.08623,65.7673
464.15888336127773,1125296.0,-27.8763,65.7692
1000.0,331090.9,-58.67145,65.7464
2154.4346900318824,306083.5,-48.58689,65.7655
4641.588833612777,154873.3,-68.71926,65.7518
10000.0,68079.02,-82.66826,65.7467
