Frequency,Impedance,Phase Angle,Temperature (Dry Bath)
10.0,3682086.0,-12.93312,70.849
21.544346900318832,4045016.0,-22.51672,70.8378
46.41588833612777,4792593.0,-43.44649,70.8608
100.0,342541.0,49.55725,70.8661
215.44346900318823,800275.1,-22.07616,70.8605
464.15888336127773,430091.1,-95.32316,70.8565
1000.0,532201.9,105.3742,70.8556
2154.4346900318824,220602.9,-95.28252,70.8568
4641.588833612777,112192.6,-72.5324,70.8632
10000.0,63112.34,-89.94492,70.8785
