Frequency,Impedance,Phase Angle,Temperature (Dry Bath)
10.0,4255747.0,16.26586,66.2457
21.544346900318832,4309366.0,-5.754678,66.2436
46.41588833612777,4441384.0,-48.39402,66.2405
100.0,321515.8,7.11404,66.2406
215.44346900318823,681287.5,-6.478038,66.2576
464.15888336127773,433840.1,171.8778,66.2479
1000.0,421850.1,148.6235,66.2531
2154.4346900318824,800738.8,-61.09482,66.2546
4641.588833612777,138704.3,-73.87288,66.2495
10000.0,58660.25,-87.23648,66.2319
