Frequency,Impedance,Phase Angle,Temperature (Dry Bath)
10.0,9256.769,-25.13576,70.7723
21.544346900318832,7592.553,-21.79494,70.7923
46.41588833612777,6427.802,-18.53096,70.7901
100.0,5561.899,-16.6185,70.7949
215.44346900318823,5002.504,-13.06037,70.8017
464.15888336127773,4557.522,-11.42836,70.8003
1000.0,4158.445,-10.20672,70.7878
2154.4346900318824,3862.963,-9.491577,70.8145
4641.588833612777,3642.907,-9.518496,70.8196
10000.0,3403.637,-10.59483,70.8094
