Frequency,Impedance,Phase Angle,Temperature (Dry Bath)
10.0,63718.59,-13.94976,72.2424
21.544346900318832,57180.45,-12.80339,72.2362
46.41588833612777,51975.99,-11.47826,72.2422
100.0,46954.79,-14.2201,72.2397
215.44346900318823,40238.45,-14.17082,72.2294
464.15888336127773,43180.64,-7.314814,72.2435
1000.0,37141.56,-4.154827,72.2425
2154.4346900318824,40050.5,-10.13872,72.2436
4641.588833612777,36812.34,-2.211343,72.246
10000.0,31565.03,-19.75234,72.243
