Frequency,Impedance,Phase Angle,Temperature (Dry Bath)
10.0,5494205.0,-29.26633,71.0315
21.544346900318832,3742306.0,-6.53295,71.0359
46.41588833612777,4802406.0,4.979236,71.0386
100.0,403500.1,32.04106,71.0287
215.44346900318823,612039.9,-148.719,71.0217
464.15888336127773,461870.2,-114.1965,71.0354
1000.0,308330.1,-107.7092,71.0395
2154.4346900318824,268222.2,-43.68314,71.0462
4641.588833612777,260332.0,-71.53799,71.0521
10000.0,208411.6,-78.54069,71.0474
