Frequency,Impedance,Phase Angle,Temperature (Dry Bath)
10.0,5935417.0,-25.10922,71.407
21.544346900318832,11047010.0,-12.72048,71.3998
46.41588833612777,4773591.0,6.007008,71.4136
100.0,2680564.0,-146.1984,71.4061
215.44346900318823,1574790.0,6.193964,71.41
464.15888336127773,1582099.0,-39.80349,71.4198
1000.0,567201.9,-21.22875,71.4282
2154.4346900318824,971526.7,-132.4753,71.4254
4641.588833612777,326739.2,-94.8867,71.4247
10000.0,140263.2,-82.49593,71.4153
