Frequency,Impedance,Phase Angle,Temperature (Dry Bath)
10.0,5217543.0,-18.50507,71.1406
21.544346900318832,8433209.0,-7.866342,71.1327
46.41588833612777,5124177.0,-31.92307,71.1523
100.0,2959369.0,37.13081,71.149
215.44346900318823,1606694.0,-75.09365,71.1481
464.15888336127773,923746.0,-101.5684,71.1447
1000.0,404072.1,-94.51629,71.1451
2154.4346900318824,224203.9,-72.44956,71.1431
4641.588833612777,130499.4,-79.74777,71.1453
10000.0,56191.91,-86.90723,71.1374
