Frequency,Impedance,Phase Angle,Temperature (Dry Bath)
10.0,5559421.0,23.76645,71.2683
21.544346900318832,5517671.0,-22.11873,71.2454
46.41588833612777,4011436.0,-8.685375,71.2508
100.0,830338.5,-41.88395,71.2461
215.44346900318823,437587.2,-140.8594,71.2644
464.15888336127773,1386480.0,-158.3542,71.245
1000.0,541381.6,-21.22179,71.2447
2154.4346900318824,186714.8,-76.0069,71.2486
4641.588833612777,136993.7,-95.11301,71.2299
10000.0,62728.42,-88.94524,71.2431
