Frequency,Impedance,Phase Angle,Temperature (Dry Bath)
10.0,5529231.0,5.860078,71.2942
21.544346900318832,5646825.0,-14.30987,71.2926
46.41588833612777,4806558.0,-28.3398,71.3117
100.0,1621686.0,-143.0294,71.3088
215.44346900318823,14266.84,45.25011,71.2946
464.15888336127773,2409807.0,56.35649,71.3009
1000.0,308479.0,-73.97054,71.2941
2154.4346900318824,251897.1,-77.96654,71.2938
4641.588833612777,106652.4,-83.77587,71.2988
10000.0,59964.55,-86.15113,71.294
