Frequency,Impedance,Phase Angle,Temperature (Dry Bath)
10.0,302147.3,-16.75743,71.2523
21.544346900318832,272613.9,-14.05473,71.2468
46.41588833612777,243888.2,-14.80533,71.2514
100.0,119960.9,-6.110219,71.2495
215.44346900318823,165922.5,-4.858049,71.2593
464.15888336127773,171800.4,-8.075453,71.2628
1000.0,134936.5,-10.10818,71.2622
2154.4346900318824,97016.06,-38.1072,71.2456
4641.588833612777,82268.18,-47.73528,71.2563
10000.0,47912.48,-62.4009,71.2582
