Frequency,Impedance,Phase Angle,Temperature (Dry Bath)
10.0,3902988.0,1.752833,65.6505
21.544346900318832,4697325.0,-14.74588,65.6271
46.41588833612777,6663426.0,-43.06118,65.6376
100.0,900175.5,-135.1867,65.6154
215.44346900318823,1105524.0,35.75466,65.6069
464.15888336127773,669689.9,-50.71452,65.6112
1000.0,1066442.0,-82.48814,65.6167
2154.4346900318824,306940.3,-86.3765,65.6098
4641.588833612777,169806.6,-87.01203,65.6165
10000.0,75123.09,-86.2647,65.6284
