Frequency,Impedance,Phase Angle,Temperature (Dry Bath)
10.0,5797201.0,2.418751,71.3146
21.544346900318832,5857877.0,-34.41587,71.2997
46.41588833612777,4902146.0,-2.575179,71.313
100.0,778307.5,-85.90376,71.3232
215.44346900318823,922367.0,-41.87149,71.306
464.15888336127773,380908.5,69.68626,71.2933
1000.0,468821.2,-127.6627,71.3043
2154.4346900318824,619563.4,35.85326,71.3159
4641.588833612777,261297.6,-87.18776,71.3154
10000.0,177892.2,-79.21566,71.3066
