Frequency,Impedance,Phase Angle,Temperature (Dry Bath)
10.0,6012420.0,-23.10108,71.1616
21.544346900318832,3620749.0,-17.93471,71.1404
46.41588833612777,3461182.0,-25.83468,71.1508
100.0,322253.4,-102.985,71.1429
215.44346900318823,421897.3,-81.61435,71.1365
464.15888336127773,10734230.0,-5.426803,71.1393
1000.0,344783.1,-91.31943,71.1204
2154.4346900318824,148463.4,-91.99931,71.1343
4641.588833612777,102539.4,-87.02088,71.1231
10000.0,54441.24,-81.56109,71.1323
