Frequency,Impedance,Phase Angle,Temperature (Dry Bath)
10.0,3459346.0,-11.42495,71.0683
21.544346900318832,2339961.0,-23.75552,71.0586
46.41588833612777,2357022.0,-24.98956,71.0679
100.0,601312.2,-53.44842,71.0695
215.44346900318823,692819.5,-126.5438,71.0754
464.15888336127773,418700.3,-101.4919,71.0755
1000.0,662529.0,-73.90689,71.071
2154.4346900318824,245827.3,-87.68787,71.0716
4641.588833612777,124036.5,-84.8188,71.0921
10000.0,54690.2,-84.79265,71.0852
