Frequency,Impedance,Phase Angle,Temperature (Dry Bath)
10.0,7882270.0,-4.008058,70.9312
21.544346900318832,4944535.0,-33.16202,70.946
46.41588833612777,5710013.0,-12.30028,70.935
100.0,643416.3,-50.60235,70.9467
215.44346900318823,3858878.0,-54.98145,70.9434
464.15888336127773,968885.4,-104.219,70.9498
1000.0,375520.6,-157.9172,70.9325
2154.4346900318824,243634.1,-98.74186,70.9414
4641.588833612777,146367.4,-86.76182,70.95
10000.0,58908.67,-88.43606,70.9507
