Frequency,Impedance,Phase Angle,Temperature (Dry Bath)
10.0,80512.45,-36.51561,71.2952
21.544346900318832,60392.09,-32.57496,71.287
46.41588833612777,46353.33,-28.75038,71.2929
100.0,36501.55,-26.7176,71.2951
215.44346900318823,10588.49,-17.64882,71.2931
464.15888336127773,26913.76,-18.26712,71.2936
1000.0,23529.82,-15.14952,71.3007
2154.4346900318824,20622.58,-15.57408,71.2941
4641.588833612777,18205.76,-17.53805,71.2877
10000.0,16442.33,-25.0062,71.3031
