Frequency,Impedance,Phase Angle,Temperature (Dry Bath)
10.0,3542385.0,-29.17365,71.0035
21.544346900318832,5181035.0,-22.70091,70.9937
46.41588833612777,4890390.0,-24.25253,70.9915
100.0,481074.8,-53.23128,71.0013
215.44346900318823,640854.2,35.14019,70.9973
464.15888336127773,2605859.0,-132.1249,70.9867
1000.0,558423.6,-173.0013,70.9876
2154.4346900318824,256138.1,-78.22848,70.9882
4641.588833612777,135791.3,-87.71076,70.9894
10000.0,63645.89,-84.02331,70.9911
