Frequency,Impedance,Phase Angle,Temperature (Dry Bath)
10.0,5006643.0,-34.78685,71.3252
21.544346900318832,4031261.0,-22.0674,71.3248
46.41588833612777,4865978.0,-10.53487,71.3075
100.0,919369.8,-93.29835,71.316
215.44346900318823,963902.9,-107.2098,71.3073
464.15888336127773,648925.4,-92.89435,71.3127
1000.0,529254.9,-52.76951,71.316
2154.4346900318824,372141.0,-82.282,71.3156
4641.588833612777,146950.1,-71.25399,71.3211
10000.0,74538.31,-85.91044,71.3145
