Frequency,Impedance,Phase Angle,Temperature (Dry Bath)
10.0,4476272.0,7.807638,71.494
21.544346900318832,5316571.0,-19.67246,71.5179
46.41588833612777,6108444.0,-35.73383,71.5374
100.0,478071.6,27.51761,71.5266
215.44346900318823,1356002.0,-171.6907,71.523
464.15888336127773,852878.4,-4.565615,71.5185
1000.0,1153423.0,-57.18371,71.5202
2154.4346900318824,561206.4,-121.8115,71.5302
4641.588833612777,219691.1,-52.85382,71.5424
10000.0,126653.7,-82.18819,71.5156
