Frequency,Impedance,Phase Angle,Temperature (Dry Bath)
10.0,6401402.0,10.99728,71.249
21.544346900318832,3829709.0,-5.741965,71.2428
46.41588833612777,5259948.0,-13.34332,71.2411
100.0,7580993.0,109.9458,71.2473
215.44346900318823,1545271.0,160.297,71.2404
464.15888336127773,1585038.0,-0.7937184,71.2482
1000.0,665574.4,-83.92517,71.2397
2154.4346900318824,229182.6,-106.933,71.2616
4641.588833612777,157057.2,-84.51171,71.2374
10000.0,68613.98,-94.55763,71.2494
