Frequency,Impedance,Phase Angle,Temperature (Dry Bath)
10.0,170519.5,-13.41966,65.8321
21.544346900318832,158047.8,-10.65628,65.831
46.41588833612777,146292.8,-10.45117,65.847
100.0,164352.4,-17.1292,65.8286
215.44346900318823,23943.33,136.4923,65.8334
464.15888336127773,108067.2,-15.83757,65.84
1000.0,99008.9,-12.52665,65.8274
2154.4346900318824,89648.98,-23.97359,65.828
4641.588833612777,81172.51,-39.93496,65.8268
10000.0,50661.61,-50.17782,65.826
