Frequency,Impedance,Phase Angle,Temperature (Dry Bath)
10.0,254676.3,-24.05141,71.2527
21.544346900318832,202503.5,-21.68657,71.2542
46.41588833612777,168117.1,-19.46061,71.2419
100.0,184468.7,-29.19054,71.2599
215.44346900318823,36332.24,-141.4002,71.2348
464.15888336127773,125032.5,-30.89284,71.2607
1000.0,77771.33,-34.38029,71.2551
2154.4346900318824,83935.04,-32.32756,71.2508
4641.588833612777,72659.98,-44.0876,71.2689
10000.0,37170.13,-58.54427,71.254
