Frequency,Impedance,Phase Angle,Temperature (Dry Bath)
10.0,18505.1,-23.25873,71.2253
21.544346900318832,15054.41,-24.74387,71.2096
46.41588833612777,12046.48,-25.83694,71.2134
100.0,9520.995,-25.36252,71.2172
215.44346900318823,7664.267,-25.16805,71.211
464.15888336127773,6154.828,-24.13917,71.2236
1000.0,5003.264,-21.49171,71.2127
2154.4346900318824,4223.788,-19.98905,71.2074
4641.588833612777,3575.192,-17.89635,71.2139
10000.0,3129.546,-16.63179,71.195
