Frequency,Impedance,Phase Angle,Temperature (Dry Bath)
10.0,4357889.0,18.68658,71.4384
21.544346900318832,4912533.0,-17.25818,71.4382
46.41588833612777,6042005.0,-22.25217,71.4433
100.0,430841.1,-69.42619,71.4279
215.44346900318823,470601.2,12.69782,71.4384
464.15888336127773,320443.4,-1.26353,71.4377
1000.0,332474.7,-87.38254,71.4355
2154.4346900318824,1506974.0,-129.8428,71.4496
4641.588833612777,240706.2,-46.98909,71.4315
10000.0,123548.2,-107.3571,71.4458
