Frequency,Impedance,Phase Angle,Temperature (Dry Bath)
10.0,15364.78,-18.21763,71.1124
21.544346900318832,13397.58,-16.90346,71.1316
46.41588833612777,11726.83,-16.3211,71.1208
100.0,10287.65,-15.47674,71.1376
215.44346900318823,9115.501,-14.55477,71.1334
464.15888336127773,8162.927,-13.44431,71.1242
1000.0,7373.99,-11.38291,71.1433
2154.4346900318824,6785.017,-10.14848,71.1347
4641.588833612777,6204.116,-10.3869,71.1372
10000.0,5812.818,-11.99658,71.1525
