Frequency,Impedance,Phase Angle,Temperature (Dry Bath)
10.0,8986466.0,-1.668937,71.4533
21.544346900318832,5083861.0,8.939225,71.4567
46.41588833612777,6049250.0,-30.34847,71.4504
100.0,1266955.0,178.3134,71.4507
215.44346900318823,13704170.0,-82.80086,71.4676
464.15888336127773,1444581.0,-124.1417,71.4666
1000.0,563462.1,-84.9894,71.4696
2154.4346900318824,369369.4,-66.09723,71.4613
4641.588833612777,211979.2,-59.97788,71.4666
10000.0,96546.0,-73.53985,71.4873
