Frequency,Impedance,Phase Angle,Temperature (Dry Bath)
10.0,82152.2,-36.39336,71.4543
21.544346900318832,60929.4,-32.73536,71.454
46.41588833612777,47033.69,-28.57856,71.4695
100.0,35158.78,-23.5547,71.4544
215.44346900318823,22635.65,29.54743,71.4625
464.15888336127773,28407.06,-16.41144,71.4548
1000.0,21652.97,-17.9611,71.447
2154.4346900318824,21454.34,-16.28484,71.4641
4641.588833612777,19870.48,-15.83317,71.4581
10000.0,16600.11,-23.81997,71.4423
