Frequency,Impedance,Phase Angle,Temperature (Dry Bath)
10.0,826261.7,-4.451701,71.1755
21.544346900318832,897935.5,-3.960009,71.1717
46.41588833612777,850190.1,-8.429893,71.1889
100.0,374049.0,-38.43381,71.1829
215.44346900318823,953307.6,-22.16875,71.183
464.15888336127773,1020428.0,-77.46281,71.2033
1000.0,442967.3,-42.05011,71.1933
2154.4346900318824,248275.4,-45.87219,71.209
4641.588833612777,260738.0,-71.58005,71.198
10000.0,123645.9,-73.93568,71.1985
