Frequency,Impedance,Phase Angle,Temperature (Dry Bath)
10.0,18060.5,-18.08817,71.3493
21.544346900318832,15734.82,-16.92112,71.3471
46.41588833612777,13810.87,-16.32125,71.3571
100.0,12198.86,-16.06264,71.3627
215.44346900318823,10639.47,-14.63048,71.3406
464.15888336127773,9653.27,-13.8551,71.3417
1000.0,8569.106,-12.20974,71.3441
2154.4346900318824,7740.554,-10.80015,71.3563
4641.588833612777,7176.98,-10.07288,71.3503
10000.0,6743.567,-9.971138,71.3446
