Frequency,Impedance,Phase Angle,Temperature (Dry Bath)
10.0,157156.6,-10.53866,71.3104
21.544346900318832,144702.5,-9.097528,71.3151
46.41588833612777,136503.8,-7.188636,71.3157
100.0,114388.7,-4.655764,71.3361
215.44346900318823,78455.21,-69.08801,71.3068
464.15888336127773,130475.7,-13.34857,71.3072
1000.0,161563.4,-31.71016,71.3038
2154.4346900318824,95327.68,-27.90917,71.3296
4641.588833612777,70102.45,-58.76102,71.3195
10000.0,45097.07,-59.96388,71.3074
