Frequency,Impedance,Phase Angle,Temperature (Dry Bath)
10.0,156582.9,-10.15207,71.2359
21.544346900318832,150266.4,-8.579051,71.2525
46.41588833612777,137339.4,-8.35893,71.2381
100.0,149596.0,-4.025135,71.2501
215.44346900318823,124842.7,4.976146,71.2349
464.15888336127773,112954.9,-2.406312,71.2299
1000.0,80554.82,-23.36347,71.2419
2154.4346900318824,87122.44,-24.97049,71.2341
4641.588833612777,65520.25,-40.6764,71.2237
10000.0,40616.64,-58.21761,71.2375
