Frequency,Impedance,Phase Angle,Temperature (Dry Bath)
10.0,4702786.0,-24.63043,66.4163
21.544346900318832,4877288.0,-25.90146,66.4127
46.41588833612777,3732884.0,-25.26317,66.4032
100.0,557466.4,-32.00584,66.4073
215.44346900318823,663214.4,-39.38624,66.4152
464.15888336127773,811354.6,-68.13086,66.407
1000.0,378419.5,-62.01907,66.4165
2154.4346900318824,450904.8,-95.79231,66.4128
4641.588833612777,157082.6,-81.18227,66.3931
10000.0,68061.65,-89.28367,66.4158
