Frequency,Impedance,Phase Angle,Temperature (Dry Bath)
10.0,5738092.0,-0.1686537,70.9545
21.544346900318832,4956690.0,-12.90731,70.9558
46.41588833612777,6162421.0,-23.47934,70.9614
100.0,813872.3,84.07757,70.9615
215.44346900318823,1097759.0,45.42736,70.9375
464.15888336127773,510011.9,-128.0858,70.9527
1000.0,705319.0,-107.9698,70.9549
2154.4346900318824,227905.3,-75.11595,70.9584
4641.588833612777,121287.2,-88.69794,70.9556
10000.0,81277.02,-80.61024,70.9469
