Frequency,Impedance,Phase Angle,Temperature (Dry Bath)
10.0,6248691.0,-33.46592,70.5035
21.544346900318832,3165184.0,1.654247,70.508
46.41588833612777,5006890.0,-25.92687,70.5132
100.0,404229.0,-82.92813,70.5085
215.44346900318823,2883534.0,-121.3899,70.5121
464.15888336127773,323292.3,-69.82826,70.5149
1000.0,220051.9,-69.55174,70.5224
2154.4346900318824,179028.9,-79.58639,70.5322
4641.588833612777,153829.4,-85.46535,70.5034
10000.0,60487.95,-85.9785,70.5172
