Frequency,Impedance,Phase Angle,Temperature (Dry Bath)
10.0,3406708.0,-0.8915373,71.2999
21.544346900318832,3770928.0,1.950845,71.2978
46.41588833612777,3504511.0,-16.41629,71.3056
100.0,291244.5,-71.15236,71.2965
215.44346900318823,605957.6,-72.63274,71.2965
464.15888336127773,439726.1,-89.27605,71.2963
1000.0,1723263.0,122.4585,71.3105
2154.4346900318824,526852.8,-81.87196,71.3055
4641.588833612777,189651.4,-85.6635,71.3138
10000.0,46756.77,-82.90801,71.3175
