Frequency,Impedance,Phase Angle,Temperature (Dry Bath)
10.0,4663648.0,-9.319282,71.3748
21.544346900318832,3608943.0,1.919152,71.3546
46.41588833612777,3133025.0,-25.78214,71.353
100.0,1149643.0,-6.744887,71.3596
215.44346900318823,45392.58,-110.8511,71.3606
464.15888336127773,638321.1,141.0825,71.3672
1000.0,658018.8,-0.04850455,71.3613
2154.4346900318824,274006.8,-91.43519,71.3619
4641.588833612777,116614.2,-84.5052,71.3609
10000.0,61140.62,-82.92529,71.364
