Frequency,Impedance,Phase Angle,Temperature (Dry Bath)
10.0,10942490.0,-19.89154,71.5251
21.544346900318832,6216387.0,-12.84654,71.5363
46.41588833612777,5061736.0,-25.24775,71.5406
100.0,1669150.0,-151.6986,71.5192
215.44346900318823,525486.0,112.1817,71.5185
464.15888336127773,372037.7,-19.14416,71.5114
1000.0,789690.8,-87.79244,71.5243
2154.4346900318824,306732.7,-65.82559,71.5199
4641.588833612777,286398.3,-59.02826,71.5028
10000.0,128141.2,-88.13557,71.5165
