Frequency,Impedance,Phase Angle,Temperature (Dry Bath)
10.0,1232937.0,-8.830382,65.7144
21.544346900318832,1234366.0,-16.30005,65.7114
46.41588833612777,1345574.0,-4.976916,65.7185
100.0,939851.3,-2.459348,65.7078
215.44346900318823,21554.0,38.24412,65.7115
464.15888336127773,784521.7,-17.85908,65.7195
1000.0,560888.6,-97.28044,65.7134
2154.4346900318824,204589.9,-55.58324,65.7301
4641.588833612777,111484.0,-97.84768,65.7303
10000.0,60891.02,-81.50647,65.7132
