Frequency,Impedance,Phase Angle,Temperature (Dry Bath)
10.0,7449554.0,37.13949,71.3942
21.544346900318832,5581370.0,-16.18066,71.3842
46.41588833612777,5743366.0,-7.31305,71.3819
100.0,356693.3,38.5087,71.3835
215.44346900318823,1322742.0,77.21632,71.3767
464.15888336127773,6105235.0,41.58653,71.3846
1000.0,616222.5,-155.0172,71.3881
2154.4346900318824,560229.5,-78.96234,71.3864
4641.588833612777,294692.1,-87.91354,71.4074
10000.0,120110.9,-97.60435,71.3965
