Frequency,Impedance,Phase Angle,Temperature (Dry Bath)
10.0,486245.3,-29.4541,66.3894
21.544346900318832,387761.4,-27.33794,66.3931
46.41588833612777,311711.4,-25.41917,66.3872
100.0,237685.0,-23.58947,66.3847
215.44346900318823,205314.6,-27.9556,66.4124
464.15888336127773,216891.4,-45.86929,66.4043
1000.0,170912.0,-24.31701,66.4304
2154.4346900318824,123314.5,-33.97807,66.4209
4641.588833612777,86442.6,-53.29251,66.4163
10000.0,51934.74,-61.51187,66.4199
