Frequency,Impedance,Phase Angle,Temperature (Dry Bath)
10.0,5156064.0,6.499736,71.1872
21.544346900318832,4332731.0,-23.43056,71.1939
46.41588833612777,4770871.0,-36.46255,71.1931
100.0,595300.4,87.23778,71.2006
215.44346900318823,969807.3,-102.005,71.1931
464.15888336127773,707391.9,-103.0474,71.1856
1000.0,318361.0,-27.61576,71.202
2154.4346900318824,318848.6,-74.4292,71.194
4641.588833612777,125900.0,-85.17456,71.1929
10000.0,65976.11,-83.15019,71.2006
