Frequency,Impedance,Phase Angle,Temperature (Dry Bath)
10.0,59950.31,-10.72331,28.7539
21.544346900318832,55716.27,-8.682208,28.4676
46.41588833612777,52207.02,-7.595948,28.5956
100.0,49146.98,-5.118398,28.7424
215.44346900318823,47961.55,-7.578661,28.7332
464.15888336127773,45502.3,-5.692554,28.9474
1000.0,44268.31,-5.556953,28.9538
2154.4346900318824,42163.52,-8.079787,28.8601
4641.588833612777,39101.06,-16.10201,28.9277
10000.0,35595.88,-24.65819,28.9421
