Frequency,Impedance,Phase Angle,Temperature (Dry Bath)
10.0,6951957.0,11.68261,66.127
21.544346900318832,4300095.0,-30.83884,66.1133
46.41588833612777,4462235.0,-21.89497,66.1282
100.0,1031818.0,-29.29215,66.1197
215.44346900318823,720792.9,16.06035,66.1001
464.15888336127773,931719.8,-100.9914,66.1205
1000.0,528425.9,-39.42148,66.1439
2154.4346900318824,300808.8,-63.1054,66.1351
4641.588833612777,154458.6,-79.93141,66.1316
10000.0,65474.56,-84.44855,66.1242
