Frequency,Impedance,Phase Angle,Temperature (Dry Bath)
10.0,5403004.0,-8.479632,71.1258
21.544346900318832,3001675.0,2.921686,71.134
46.41588833612777,5617012.0,-24.64498,71.1276
100.0,642187.0,77.69042,71.1352
215.44346900318823,786097.7,-21.07661,71.138
464.15888336127773,3621116.0,-137.4572,71.1243
1000.0,697157.0,-100.0181,71.1269
2154.4346900318824,310252.5,-92.68418,71.1137
4641.588833612777,128350.6,-90.44552,71.1288
10000.0,69660.68,-90.43924,71.103
