Frequency,Impedance,Phase Angle,Temperature (Dry Bath)
10.0,12566.67,-26.94541,71.3606
21.544346900318832,10117.59,-24.17899,71.356
46.41588833612777,8350.597,-21.40335,71.3509
100.0,7028.436,-18.62342,71.3672
215.44346900318823,6139.6,-16.25317,71.3489
464.15888336127773,5430.415,-14.09013,71.356
1000.0,4872.425,-12.70451,71.3662
2154.4346900318824,4408.109,-11.72524,71.3549
4641.588833612777,4023.261,-11.50854,71.3528
10000.0,3710.344,-12.3597,71.3435
