Frequency,Impedance,Phase Angle,Temperature (Dry Bath)
10.0,13768.92,-28.09563,71.0257
21.544346900318832,10954.33,-25.54161,71.0466
46.41588833612777,8904.481,-22.87159,71.0248
100.0,7388.786,-20.18905,71.0263
215.44346900318823,6422.199,-17.73722,71.0416
464.15888336127773,5594.176,-15.45048,71.0375
1000.0,4928.085,-14.23762,71.0411
2154.4346900318824,4462.783,-12.86382,71.0318
4641.588833612777,4059.313,-12.27227,71.0182
10000.0,3673.857,-13.04727,71.0206
