Frequency,Impedance,Phase Angle,Temperature (Dry Bath)
10.0,34232.98,-11.02462,70.566
21.544346900318832,31695.41,-9.408482,70.5765
46.41588833612777,29808.76,-8.714275,70.5789
100.0,27655.08,-6.842717,70.57
215.44346900318823,25244.44,-8.460016,70.5754
464.15888336127773,23656.27,-8.720772,70.577
1000.0,23761.08,-10.0314,70.5746
2154.4346900318824,20551.48,-11.37622,70.5835
4641.588833612777,21099.1,-14.10626,70.5967
10000.0,18157.44,-22.40219,70.5665
