Frequency,Impedance,Phase Angle,Temperature (Dry Bath)
10.0,2149420.0,-4.377938,70.9826
21.544346900318832,2316599.0,-14.44646,70.992
46.41588833612777,2007718.0,-15.58865,70.9792
100.0,1047917.0,-138.7694,70.9773
215.44346900318823,617241.8,14.36104,70.9732
464.15888336127773,1572954.0,-121.234,70.9829
1000.0,385834.0,-74.66162,70.9761
2154.4346900318824,364967.5,-81.79224,70.9844
4641.588833612777,130331.1,-79.0518,70.9697
10000.0,61993.38,-89.47439,70.9798
