Frequency,Impedance,Phase Angle,Temperature (Dry Bath)
10.0,3206071.0,-11.63215,71.2539
21.544346900318832,2070823.0,-20.70097,71.2788
46.41588833612777,2663411.0,-24.10139,71.2565
100.0,332031.4,-27.77706,71.2617
215.44346900318823,3217171.0,-129.7314,71.2512
464.15888336127773,570472.3,-53.37351,71.263
1000.0,380609.0,-76.95458,71.2498
2154.4346900318824,520884.3,-48.38981,71.2764
4641.588833612777,110760.7,-82.13843,71.2591
10000.0,66016.63,-80.92474,71.2593
