Frequency,Impedance,Phase Angle,Temperature (Dry Bath)
10.0,11556.36,-25.57562,71.3086
21.544346900318832,9422.374,-22.62735,71.2947
46.41588833612777,7882.555,-19.99884,71.3172
100.0,6839.486,-18.87659,71.2951
215.44346900318823,5939.997,-14.90453,71.3085
464.15888336127773,5276.129,-12.72845,71.2903
1000.0,4799.437,-10.99373,71.3033
2154.4346900318824,4331.638,-10.26408,71.2993
4641.588833612777,4107.383,-9.744051,71.3132
10000.0,3885.167,-10.27719,71.301
