Frequency,Impedance,Phase Angle,Temperature (Dry Bath)
10.0,31391.41,-21.72807,72.1441
21.544346900318832,26130.63,-22.94482,72.1656
46.41588833612777,21392.95,-24.37684,72.1649
100.0,17417.27,-27.21775,72.1642
215.44346900318823,13218.54,-25.70405,72.1635
464.15888336127773,10788.71,-28.15654,72.1568
1000.0,8336.894,-28.31863,72.1472
2154.4346900318824,6291.809,-27.49416,72.1491
4641.588833612777,5116.869,-23.4902,72.1626
10000.0,4242.067,-21.39586,72.1719
