Frequency,Impedance,Phase Angle,Temperature (Dry Bath)
10.0,163989.2,-13.37575,71.0912
21.544346900318832,146871.2,-12.58565,71.1023
46.41588833612777,134574.7,-12.44967,71.0807
100.0,95964.0,-15.64602,71.0937
215.44346900318823,119499.2,-25.70771,71.0996
464.15888336127773,131025.9,-16.79178,71.1109
1000.0,96432.78,-28.51662,71.0904
2154.4346900318824,69030.76,-28.34445,71.0938
4641.588833612777,72069.92,-22.87443,71.1021
10000.0,63090.31,-29.87361,71.1079
