Frequency,Impedance,Phase Angle,Temperature (Dry Bath)
10.0,137075.3,-19.76159,66.3153
21.544346900318832,117450.4,-17.69008,66.306
46.41588833612777,101360.9,-16.2647,66.2949
100.0,83427.52,-19.03252,66.2792
215.44346900318823,71590.91,-12.82411,66.2853
464.15888336127773,68128.79,-14.14842,66.2658
1000.0,53264.35,-18.37525,66.2594
2154.4346900318824,52974.03,-26.54739,66.268
4641.588833612777,42045.76,-35.6855,66.2755
10000.0,31093.62,-41.91818,66.2661
