Frequency,Impedance,Phase Angle,Temperature (Dry Bath)
10.0,51020.97,-16.06135,70.6187
21.544346900318832,45285.76,-14.63339,70.6031
46.41588833612777,40248.05,-13.59904,70.6042
100.0,36091.22,-12.92832,70.6096
215.44346900318823,32191.61,-9.070371,70.607
464.15888336127773,31049.88,-9.544176,70.6093
1000.0,27092.71,-10.65904,70.6178
2154.4346900318824,26522.21,-13.35797,70.6024
4641.588833612777,22832.94,-20.23818,70.601
10000.0,20906.29,-29.21075,70.6152
