Frequency,Impedance,Phase Angle,Temperature (Dry Bath)
10.0,5094991.0,-10.18596,71.4417
21.544346900318832,3544169.0,-26.24611,71.4466
46.41588833612777,4673229.0,-22.83726,71.4433
100.0,922762.6,155.1368,71.4324
215.44346900318823,458611.4,163.216,71.4478
464.15888336127773,1593179.0,-87.67676,71.4552
1000.0,233871.1,-142.2147,71.4503
2154.4346900318824,266590.6,-65.32753,71.4501
4641.588833612777,129462.2,-84.4653,71.439
10000.0,55222.52,-86.28309,71.4458
