Frequency,Impedance,Phase Angle,Temperature (Dry Bath)
10.0,106979.0,-14.3837,72.2244
21.544346900318832,96579.01,-12.35336,72.2308
46.41588833612777,87641.52,-10.95476,72.2316
100.0,85661.94,-11.22795,72.2454
215.44346900318823,86120.75,-1.99682,72.2308
464.15888336127773,63631.22,-5.263231,72.2482
1000.0,71127.53,-13.50892,72.2486
2154.4346900318824,61324.8,-10.30327,72.2242
4641.588833612777,58834.62,-15.50127,72.2342
10000.0,40487.96,-29.39626,72.2437
