Frequency,Impedance,Phase Angle,Temperature (Dry Bath)
10.0,3561690.0,-12.46922,71.6142
21.544346900318832,5084837.0,-31.25073,71.6166
46.41588833612777,4832074.0,-9.57162,71.6175
100.0,1167414.0,-57.12929,71.6138
215.44346900318823,522772.7,-139.9082,71.6151
464.15888336127773,980165.9,-49.62247,71.6315
1000.0,309113.0,-84.64682,71.6133
2154.4346900318824,1839226.0,-105.6718,71.6087
4641.588833612777,268603.5,-71.8523,71.6308
10000.0,149113.3,-81.83468,71.6159
