Frequency,Impedance,Phase Angle,Temperature (Dry Bath)
10.0,13927.72,-19.7916,71.0223
21.544346900318832,11990.0,-17.0667,71.0073
46.41588833612777,10536.22,-15.02616,70.9966
100.0,9559.827,-14.1055,70.9883
215.44346900318823,8516.398,-12.02766,71.0292
464.15888336127773,7768.793,-10.34015,71.0137
1000.0,7382.247,-9.748023,70.9995
2154.4346900318824,6777.863,-9.715811,70.9944
4641.588833612777,6312.465,-9.989524,70.9942
10000.0,5868.987,-13.04817,70.9842
