Frequency,Impedance,Phase Angle,Temperature (Dry Bath)
10.0,13382.37,-20.5784,71.3167
21.544346900318832,11444.26,-17.87095,71.3363
46.41588833612777,9971.683,-15.38206,71.334
100.0,9171.749,-12.88096,71.3329
215.44346900318823,7000.496,2.116307,71.3157
464.15888336127773,7379.467,-10.31131,71.333
1000.0,6976.686,-8.960322,71.3266
2154.4346900318824,6398.027,-8.823627,71.3249
4641.588833612777,6099.343,-9.258116,71.3309
10000.0,5703.437,-11.3308,71.3206
