Frequency,Impedance,Phase Angle,Temperature (Dry Bath)
10.0,8107749.0,4.480277,71.2363
21.544346900318832,5215384.0,0.2615278,71.23
46.41588833612777,5330040.0,-28.30921,71.2371
100.0,1214390.0,143.4208,71.2398
215.44346900318823,1259777.0,-101.061,71.2295
464.15888336127773,3914499.0,175.7786,71.2095
1000.0,555974.7,-159.8912,71.2331
2154.4346900318824,332492.1,-56.34459,71.2207
4641.588833612777,125386.7,-98.40444,71.2321
10000.0,64542.71,-85.99626,71.2303
