Frequency,Impedance,Phase Angle,Temperature (Dry Bath)
10.0,107407.8,-14.54007,71.5481
21.544346900318832,96924.09,-13.55971,71.5589
46.41588833612777,88155.37,-12.10456,71.5589
100.0,83485.33,-13.48347,71.5515
215.44346900318823,69979.57,-6.097386,71.5472
464.15888336127773,68370.25,-11.81536,71.5515
1000.0,65937.72,-10.58694,71.5715
2154.4346900318824,64338.92,-15.082,71.5674
4641.588833612777,56266.27,-16.85925,71.5652
10000.0,43815.8,-31.95158,71.5577
