Frequency,Impedance,Phase Angle,Temperature (Dry Bath)
10.0,235344.6,-14.54034,71.2173
21.544346900318832,210983.0,-15.16555,71.2175
46.41588833612777,181675.1,-14.86802,71.2199
100.0,145426.6,-19.73444,71.2098
215.44346900318823,134967.9,-7.228974,71.2141
464.15888336127773,140820.4,2.326068,71.2069
1000.0,97210.24,-9.774235,71.2171
2154.4346900318824,97269.52,-32.23753,71.2297
4641.588833612777,76124.72,-23.95442,71.2182
10000.0,57471.03,-34.02927,71.2221
