Frequency,Impedance,Phase Angle,Temperature (Dry Bath)
10.0,1651815.0,-5.570233,66.2819
21.544346900318832,1630786.0,-19.88826,66.2824
46.41588833612777,1498639.0,-16.11118,66.2931
100.0,1905815.0,-65.6533,66.2776
215.44346900318823,990841.6,116.1033,66.2855
464.15888336127773,633525.9,-108.6092,66.2805
1000.0,376718.5,-58.97008,66.2737
2154.4346900318824,271857.0,-79.50669,66.2651
4641.588833612777,111079.7,-68.49674,66.2889
10000.0,59255.38,-77.16078,66.2815
