Frequency,Impedance,Phase Angle,Temperature (Dry Bath)
10.0,5822356.0,-31.79405,71.4331
21.544346900318832,9007446.0,-10.55477,71.4417
46.41588833612777,8039791.0,14.51809,71.4133
100.0,671925.3,-85.49344,71.4304
215.44346900318823,140402.2,128.8782,71.4177
464.15888336127773,757005.4,65.11686,71.4291
1000.0,235462.7,-57.48044,71.4201
2154.4346900318824,238902.7,-88.1859,71.4184
4641.588833612777,145291.8,-80.19125,71.4053
10000.0,60171.33,-89.28805,71.4253
