Frequency,Impedance,Phase Angle,Temperature (Dry Bath)
10.0,149890.3,-18.05434,71.2981
21.544346900318832,130685.6,-17.01329,71.2918
46.41588833612777,112974.1,-15.88255,71.2891
100.0,104137.8,-30.99887,71.292
215.44346900318823,6740.876,101.9677,71.2701
464.15888336127773,85832.84,-22.70597,71.2742
1000.0,71196.41,-19.59845,71.2827
2154.4346900318824,59032.47,-23.39237,71.2915
4641.588833612777,48231.17,-41.12202,71.2823
10000.0,38265.13,-52.5485,71.2942
