Frequency,Impedance,Phase Angle,Temperature (Dry Bath)
10.0,68649.98,-11.06501,71.1417
21.544346900318832,63734.98,-8.649173,71.136
46.41588833612777,59483.21,-7.746092,71.1392
100.0,50845.81,-3.366763,71.1349
215.44346900318823,56485.0,-3.915627,71.1387
464.15888336127773,49977.03,-9.056393,71.1392
1000.0,60444.03,-0.6716834,71.1223
2154.4346900318824,48673.45,2.58423,71.1309
4641.588833612777,47187.65,-17.14322,71.1374
10000.0,38401.1,-19.05846,71.151
