Frequency,Impedance,Phase Angle,Temperature (Dry Bath)
10.0,3111933.0,-15.47806,71.1562
21.544346900318832,2432652.0,-17.55975,71.1381
46.41588833612777,2521287.0,-13.20923,71.1165
100.0,2038346.0,-165.6181,71.1282
215.44346900318823,508973.2,-82.9489,71.1195
464.15888336127773,804965.1,-154.488,71.1256
1000.0,968593.4,29.18712,71.1202
2154.4346900318824,211129.0,-83.93539,71.1349
4641.588833612777,168342.5,-98.09073,71.1421
10000.0,64060.47,-83.5596,71.1357
