Frequency,Impedance,Phase Angle,Temperature (Dry Bath)
10.0,24946.06,-14.99299,70.8696
21.544346900318832,22592.6,-11.82776,70.8899
46.41588833612777,20828.54,-9.520138,70.8852
100.0,19589.78,-9.265733,70.8907
215.44346900318823,18142.55,-2.693833,70.8936
464.15888336127773,17943.76,-7.313125,70.8835
1000.0,17427.92,-7.650453,70.88
2154.4346900318824,16454.66,-8.721127,70.8739
4641.588833612777,17051.57,-12.71971,70.8737
10000.0,14197.44,-16.38002,70.8828
