Frequency,Impedance,Phase Angle,Temperature (Dry Bath)
10.0,344973.9,-24.68603,71.3929
21.544346900318832,274082.1,-23.82348,71.387
46.41588833612777,236384.4,-20.59178,71.3922
100.0,231275.5,-6.520384,71.3733
215.44346900318823,155369.9,-31.46116,71.3812
464.15888336127773,128147.3,-20.8972,71.3783
1000.0,98719.08,-42.24222,71.3776
2154.4346900318824,97593.52,-31.86327,71.3773
4641.588833612777,69249.28,-51.01385,71.3792
10000.0,41998.3,-57.42505,71.3739
