Frequency,Impedance,Phase Angle,Temperature (Dry Bath)
10.0,6139616.0,-11.49205,70.7512
21.544346900318832,3626584.0,-21.36217,70.7375
46.41588833612777,3508789.0,-32.73713,70.7357
100.0,1517644.0,-34.23605,70.7289
215.44346900318823,2813124.0,-73.93098,70.7246
464.15888336127773,695345.3,-84.68774,70.7408
1000.0,381245.8,11.59086,70.7533
2154.4346900318824,302644.0,-78.31092,70.7488
4641.588833612777,131764.7,-85.92696,70.7367
10000.0,75211.37,-82.59294,70.7306
