Frequency,Impedance,Phase Angle,Temperature (Dry Bath)
10.0,4889733.0,-13.76608,66.261
21.544346900318832,8653301.0,-36.97532,66.2801
46.41588833612777,4050958.0,-25.47008,66.2931
100.0,498764.1,31.07547,66.2872
215.44346900318823,800132.3,172.2764,66.27
464.15888336127773,2864945.0,-79.1374,66.2644
1000.0,608400.2,-89.46995,66.255
2154.4346900318824,222701.7,-93.48292,66.2669
4641.588833612777,174206.7,-78.13205,66.2755
10000.0,57621.16,-87.73821,66.2634
