Frequency,Impedance,Phase Angle,Temperature (Dry Bath)
10.0,886481.9,-27.98243,71.2375
21.544346900318832,731270.5,-25.81042,71.2138
46.41588833612777,571911.5,-25.13751,71.235
100.0,379569.7,9.937127,71.2119
215.44346900318823,246940.3,8.19036,71.2168
464.15888336127773,649394.0,-37.39456,71.2479
1000.0,331111.5,-42.47608,71.2466
2154.4346900318824,190176.4,-58.04277,71.2367
4641.588833612777,110226.2,-66.61852,71.2217
10000.0,65164.62,-72.94635,71.2248
