Frequency,Impedance,Phase Angle,Temperature (Dry Bath)
10.0,176212.2,-11.97463,65.6434
21.544346900318832,156868.7,-12.23092,65.6419
46.41588833612777,145313.4,-11.80362,65.6463
100.0,138674.3,-5.617045,65.6372
215.44346900318823,71873.37,-41.10308,65.6478
464.15888336127773,111919.1,-14.55172,65.6555
1000.0,103924.5,-7.334493,65.6627
2154.4346900318824,113331.9,-23.89341,65.6599
4641.588833612777,72536.58,-36.45222,65.6753
10000.0,53743.6,-52.55134,65.6577
