Frequency,Impedance,Phase Angle,Temperature (Dry Bath)
10.0,137296.2,-18.90346,71.4565
21.544346900318832,117342.4,-17.22911,71.4486
46.41588833612777,102328.5,-16.01922,71.4472
100.0,84789.02,-27.48737,71.4665
215.44346900318823,37145.07,-3.546492,71.4552
464.15888336127773,73157.31,-18.23588,71.4662
1000.0,62656.82,-32.50292,71.4608
2154.4346900318824,52877.51,-22.25595,71.4634
4641.588833612777,39307.2,-31.78003,71.4573
10000.0,29494.95,-42.9732,71.4565
