Frequency,Impedance,Phase Angle,Temperature (Dry Bath)
10.0,5460329.0,2.812558,71.2158
21.544346900318832,4622027.0,18.24121,71.2182
46.41588833612777,5057175.0,-9.103004,71.2273
100.0,1923602.0,62.17149,71.2053
215.44346900318823,644682.9,-73.34017,71.2292
464.15888336127773,2109234.0,-174.6974,71.2265
1000.0,965365.9,-101.6617,71.2139
2154.4346900318824,567855.5,-141.9833,71.2154
4641.588833612777,287131.3,-93.91652,71.2262
10000.0,128376.1,-87.03755,71.2533
