Frequency,Impedance,Phase Angle,Temperature (Dry Bath)
10.0,61419.12,-34.09114,71.5054
21.544346900318832,46283.93,-31.69877,71.522
46.41588833612777,35582.19,-29.05657,71.4804
100.0,26092.39,-26.30815,71.4997
215.44346900318823,23131.04,-21.97106,71.5161
464.15888336127773,20157.8,-20.3516,71.4948
1000.0,16240.69,-16.8991,71.5064
2154.4346900318824,14813.78,-15.90493,71.4799
4641.588833612777,12949.33,-14.98984,71.4861
10000.0,11837.66,-15.33597,71.515
