Frequency,Impedance,Phase Angle,Temperature (Dry Bath)
10.0,1575248.0,-8.046678,66.3681
21.544346900318832,1313416.0,-10.53314,66.3464
46.41588833612777,1232771.0,-14.41626,66.358
100.0,305053.1,-27.67504,66.3564
215.44346900318823,900157.7,-156.3389,66.3639
464.15888336127773,494314.6,16.00727,66.3642
1000.0,272338.7,-59.80881,66.3557
2154.4346900318824,300981.2,-96.04751,66.3713
4641.588833612777,126847.5,-95.83489,66.3491
10000.0,61292.72,-80.34963,66.3597
