Frequency,Impedance,Phase Angle,Temperature (Dry Bath)
10.0,23927.1,-20.98822,71.4677
21.544346900318832,20315.79,-18.10825,71.4719
46.41588833612777,17610.86,-15.70393,71.4645
100.0,15251.63,-11.64882,71.4771
215.44346900318823,14309.75,-10.30342,71.4736
464.15888336127773,13307.74,-8.637648,71.4654
1000.0,12291.41,-9.565431,71.467
2154.4346900318824,11354.65,-9.670739,71.4665
4641.588833612777,10998.04,-11.87593,71.4762
10000.0,10431.82,-15.97502,71.4615
