Frequency,Impedance,Phase Angle,Temperature (Dry Bath)
10.0,170087.7,-14.15095,70.9701
21.544346900318832,152735.4,-13.66538,70.9579
46.41588833612777,136741.0,-13.44634,70.9533
100.0,113631.0,5.024007,70.9612
215.44346900318823,102185.8,-25.48877,70.9632
464.15888336127773,125624.1,-7.738476,70.9598
1000.0,103463.9,-12.12233,70.9413
2154.4346900318824,98499.36,-13.34601,70.9493
4641.588833612777,79120.05,-23.52242,70.9584
10000.0,60756.37,-26.15155,70.9524
