Frequency,Impedance,Phase Angle,Temperature (Dry Bath)
10.0,4396744.0,-16.89863,70.9645
21.544346900318832,5790979.0,12.41366,70.9642
46.41588833612777,4453792.0,-34.90191,70.9645
100.0,1032758.0,-33.53779,70.9617
215.44346900318823,995670.2,56.90035,70.9604
464.15888336127773,1051950.0,-158.2357,70.971
1000.0,299075.7,-33.76389,70.9796
2154.4346900318824,329900.3,-53.12392,70.961
4641.588833612777,149819.8,-93.61065,70.963
10000.0,69192.84,-91.66804,70.958
