Frequency,Impedance,Phase Angle,Temperature (Dry Bath)
10.0,160853.4,-8.8851,66.2475
21.544346900318832,153338.5,-8.309795,66.2488
46.41588833612777,143519.5,-7.892242,66.2666
100.0,116872.2,-5.375485,66.2501
215.44346900318823,117991.1,11.79986,66.2736
464.15888336127773,122430.1,-5.854172,66.2599
1000.0,112464.2,-9.988433,66.2527
2154.4346900318824,95914.54,-29.61684,66.2721
4641.588833612777,76900.4,-41.46802,66.277
10000.0,41440.8,-62.98492,66.2766
