Frequency,Impedance,Phase Angle,Temperature (Dry Bath)
10.0,12499.48,-26.42582,71.2846
21.544346900318832,10119.69,-23.71684,71.2715
46.41588833612777,8367.964,-21.10123,71.2688
100.0,7176.023,-18.94224,71.2773
215.44346900318823,6194.385,-15.76945,71.2934
464.15888336127773,5471.353,-14.34497,71.2821
1000.0,4900.721,-12.63982,71.2785
2154.4346900318824,4487.527,-11.6704,71.3077
4641.588833612777,4126.71,-11.69005,71.2896
10000.0,3761.674,-12.18672,71.294
