Frequency,Impedance,Phase Angle,Temperature (Dry Bath)
10.0,7093.831,-30.72574,70.4431
21.544346900318832,5582.301,-27.01061,70.4532
46.41588833612777,4534.897,-23.4723,70.4354
100.0,3784.694,-19.50062,70.4589
215.44346900318823,3268.997,-17.22686,70.4367
464.15888336127773,2862.81,-14.2049,70.4482
1000.0,2607.482,-10.73988,70.4766
2154.4346900318824,2397.059,-9.054011,70.4676
4641.588833612777,2249.149,-7.77365,70.4609
10000.0,2140.432,-7.833886,70.4811
