Frequency,Impedance,Phase Angle,Temperature (Dry Bath)
10.0,342742.1,-23.42846,65.8436
21.544346900318832,277579.2,-22.76901,65.8291
46.41588833612777,231854.3,-20.60382,65.8277
100.0,130287.0,-8.310255,65.8385
215.44346900318823,142953.9,-27.88227,65.8303
464.15888336127773,155536.1,-30.29053,65.8315
1000.0,138767.2,-62.6164,65.8428
2154.4346900318824,108671.6,-39.48635,65.8465
4641.588833612777,73019.78,-44.69058,65.8416
10000.0,50012.3,-60.58591,65.8457
