Frequency,Impedance,Phase Angle,Temperature (Dry Bath)
10.0,4988417.0,24.87294,71.1479
21.544346900318832,5342440.0,-9.441158,71.145
46.41588833612777,5137305.0,-21.93622,71.1487
100.0,532916.8,-53.48778,71.152
215.44346900318823,2235114.0,-75.03129,71.1498
464.15888336127773,753305.2,-70.15572,71.1348
1000.0,370557.5,-84.42231,71.151
2154.4346900318824,282228.6,-80.62741,71.1431
4641.588833612777,122605.5,-92.67861,71.1444
10000.0,67463.54,-85.26893,71.1494
