Frequency,Impedance,Phase Angle,Temperature (Dry Bath)
10.0,251916.0,-15.61484,71.1429
21.544346900318832,221480.7,-16.66142,71.1474
46.41588833612777,197479.8,-15.40924,71.1467
100.0,165404.8,-23.0281,71.1573
215.44346900318823,113651.8,-36.74018,71.1317
464.15888336127773,161472.7,6.461567,71.1423
1000.0,135337.0,-10.21286,71.1356
2154.4346900318824,95469.44,5.346084,71.143
4641.588833612777,68077.46,-26.06624,71.1261
10000.0,86720.28,-48.76185,71.1337
