Frequency,Impedance,Phase Angle,Temperature (Dry Bath)
10.0,3704467.0,-37.56055,71.377
21.544346900318832,5281569.0,-13.37456,71.3832
46.41588833612777,4332271.0,-7.635972,71.3888
100.0,1235051.0,2.51804,71.3761
215.44346900318823,2262199.0,76.87718,71.3785
464.15888336127773,1441836.0,-72.73345,71.3773
1000.0,3453862.0,-89.26584,71.3825
2154.4346900318824,308062.0,-88.78907,71.3944
4641.588833612777,112691.1,-97.98176,71.396
10000.0,70198.87,-81.89116,71.3933
