Frequency,Impedance,Phase Angle,Temperature (Dry Bath)
10.0,11053.84,-24.77131,70.9835
21.544346900318832,9159.085,-20.82586,70.9878
46.41588833612777,7834.017,-17.42956,70.9862
100.0,6813.999,-14.87207,70.9722
215.44346900318823,6287.715,-13.11236,70.9705
464.15888336127773,5681.486,-10.19895,70.9805
1000.0,5259.955,-8.68637,70.9861
2154.4346900318824,4894.257,-8.69517,70.9824
4641.588833612777,4630.113,-8.360655,70.9874
10000.0,4415.895,-9.537842,70.9913
