Frequency,Impedance,Phase Angle,Temperature (Dry Bath)
10.0,23664.47,-19.71821,70.8833
21.544346900318832,20328.53,-17.44521,70.8937
46.41588833612777,17698.06,-15.6546,70.8923
100.0,15504.57,-14.35343,70.8948
215.44346900318823,14136.45,-11.15213,70.8937
464.15888336127773,12748.23,-10.60786,70.8893
1000.0,11743.07,-9.600377,70.8987
2154.4346900318824,10843.62,-9.892539,70.8968
4641.588833612777,10249.4,-11.68861,70.889
10000.0,9574.7,-15.73404,70.8825
