Frequency,Impedance,Phase Angle,Temperature (Dry Bath)
10.0,34621.57,-11.96654,70.5724
21.544346900318832,32011.68,-10.31881,70.587
46.41588833612777,29852.63,-9.612667,70.5768
100.0,27815.86,-9.17319,70.579
215.44346900318823,25724.18,-10.40674,70.5777
464.15888336127773,24249.63,-9.782148,70.5769
1000.0,23408.18,-6.106451,70.5833
2154.4346900318824,21124.9,-10.43697,70.5854
4641.588833612777,19046.64,-16.08119,70.5864
10000.0,17524.77,-24.93995,70.5706
