Frequency,Impedance,Phase Angle,Temperature (Dry Bath)
10.0,174186.5,-12.77271,66.4205
21.544346900318832,158969.8,-11.04105,66.4163
46.41588833612777,145163.5,-10.89978,66.404
100.0,115029.3,-18.13064,66.4155
215.44346900318823,102444.4,-8.081177,66.4187
464.15888336127773,103332.8,-10.35202,66.4151
1000.0,90161.74,-11.13799,66.4077
2154.4346900318824,90527.87,-28.49651,66.4219
4641.588833612777,87181.33,-38.39649,66.3888
10000.0,51134.72,-50.15675,66.418
