Frequency,Impedance,Phase Angle,Temperature (Dry Bath)
10.0,582906.6,-5.567884,71.4768
21.544346900318832,570093.7,-6.050406,71.4637
46.41588833612777,544148.4,-5.724092,71.4676
100.0,742527.7,-31.99504,71.4803
215.44346900318823,532266.7,9.880007,71.4952
464.15888336127773,486364.6,21.74225,71.4808
1000.0,303473.1,-36.70988,71.4779
2154.4346900318824,304782.8,-38.47044,71.4941
4641.588833612777,175721.2,-73.14688,71.4791
10000.0,92001.71,-76.0305,71.4712
