Frequency,Impedance,Phase Angle,Temperature (Dry Bath)
10.0,149339.0,-13.50257,71.0731
21.544346900318832,134039.7,-12.34969,71.0708
46.41588833612777,122775.3,-12.28599,71.087
100.0,97743.99,-18.04488,71.0852
215.44346900318823,100375.5,-20.55213,71.0827
464.15888336127773,81899.25,-17.11978,71.0679
1000.0,77351.87,-19.6042,71.094
2154.4346900318824,75397.08,-23.1344,71.0734
4641.588833612777,56632.99,-38.98527,71.0749
10000.0,45374.49,-51.24759,71.0916
