Frequency,Impedance,Phase Angle,Temperature (Dry Bath)
10.0,196646.2,-26.86795,66.2507
21.544346900318832,160215.7,-24.15406,66.2517
46.41588833612777,130048.9,-22.0155,66.2437
100.0,89840.92,-17.58934,66.2465
215.44346900318823,112152.4,0.06079065,66.2496
464.15888336127773,80876.98,-18.12815,66.2636
1000.0,71914.0,-20.66416,66.2552
2154.4346900318824,62476.84,-23.95136,66.2552
4641.588833612777,48848.19,-40.61634,66.2507
10000.0,33822.9,-52.40991,66.2495
