Frequency,Impedance,Phase Angle,Temperature (Dry Bath)
10.0,140383.3,-13.21599,71.2761
21.544346900318832,127735.0,-12.91108,71.2828
46.41588833612777,116724.5,-11.99004,71.293
100.0,96754.1,-0.440836,71.2865
215.44346900318823,113597.8,-5.879812,71.2879
464.15888336127773,87459.68,-12.77562,71.3053
1000.0,63027.07,1.570311,71.2948
2154.4346900318824,59387.5,-6.770831,71.3111
4641.588833612777,61024.34,-27.91178,71.3061
10000.0,59116.5,-30.96071,71.3243
