Frequency,Impedance,Phase Angle,Temperature (Dry Bath)
10.0,208750.1,-17.33054,72.0982
21.544346900318832,184379.6,-15.31058,72.1012
46.41588833612777,161742.4,-16.86971,72.0909
100.0,116405.7,-21.5173,72.0997
215.44346900318823,112151.7,-17.07966,72.1156
464.15888336127773,98053.9,-16.65004,72.104
1000.0,98191.82,-4.972361,72.1143
2154.4346900318824,66707.37,-29.12481,72.1417
4641.588833612777,69410.66,-27.6387,72.1081
10000.0,67287.71,-31.78166,72.1204
