Frequency,Impedance,Phase Angle,Temperature (Dry Bath)
10.0,6898064.0,8.109613,71.4414
21.544346900318832,6894286.0,3.919723,71.4395
46.41588833612777,4675684.0,-34.25395,71.4399
100.0,2672333.0,-88.97743,71.4424
215.44346900318823,1042858.0,92.75141,71.4429
464.15888336127773,667071.3,-128.4439,71.4504
1000.0,1805782.0,98.1447,71.4339
2154.4346900318824,217560.8,-89.06611,71.4518
4641.588833612777,135896.7,-83.54332,71.446
10000.0,54430.3,-82.44103,71.4421
