Frequency,Impedance,Phase Angle,Temperature (Dry Bath)
10.0,3103115.0,-10.12424,71.2878
21.544346900318832,3259577.0,-28.74972,71.2853
46.41588833612777,2907017.0,-22.10206,71.2859
100.0,692512.2,-144.0912,71.274
215.44346900318823,724173.4,-25.41274,71.2707
464.15888336127773,802065.5,-28.13053,71.2931
1000.0,290753.5,-128.2946,71.2856
2154.4346900318824,280852.0,-85.01192,71.2952
4641.588833612777,143003.2,-93.11523,71.3042
10000.0,62387.97,-85.93016,71.2926
