Frequency,Impedance,Phase Angle,Temperature (Dry Bath)
10.0,192441.8,-27.29943,65.8464
21.544346900318832,153322.5,-25.04922,65.8701
46.41588833612777,126576.7,-22.54998,65.8561
100.0,139773.5,-16.82415,65.8588
215.44346900318823,17875.39,33.9079,65.8686
464.15888336127773,79540.84,-16.6791,65.8586
1000.0,63673.0,-19.0581,65.8632
2154.4346900318824,57390.16,-26.64029,65.8494
4641.588833612777,50360.43,-35.63371,65.8651
10000.0,35535.83,-52.88418,65.8651
