Frequency,Impedance,Phase Angle,Temperature (Dry Bath)
10.0,4190863.0,-5.183647,66.1433
21.544346900318832,6250260.0,-19.09818,66.1472
46.41588833612777,4703822.0,-8.379317,66.1538
100.0,361278.4,-70.77366,66.1575
215.44346900318823,524680.3,-111.0511,66.1517
464.15888336127773,1951254.0,100.5541,66.1568
1000.0,617756.7,-85.10078,66.1745
2154.4346900318824,546261.9,-77.46336,66.1568
4641.588833612777,142474.4,-87.13475,66.1578
10000.0,61628.18,-90.30979,66.1754
