Frequency,Impedance,Phase Angle,Temperature (Dry Bath)
10.0,1088605.0,-12.11785,72.1398
21.544346900318832,1067145.0,-8.472219,72.1495
46.41588833612777,971518.6,-9.698691,72.1552
100.0,692713.2,26.7,72.1502
215.44346900318823,515464.7,-19.67442,72.1464
464.15888336127773,947649.0,-27.63734,72.144
1000.0,646935.1,-35.19226,72.1387
2154.4346900318824,246403.7,-74.62762,72.1361
4641.588833612777,189550.6,-26.19911,72.145
10000.0,119597.5,-82.61701,72.1386
