Frequency,Impedance,Phase Angle,Temperature (Dry Bath)
10.0,5802028.0,-44.77085,65.8266
21.544346900318832,5569707.0,-17.29037,65.8465
46.41588833612777,5476647.0,-50.17757,65.8485
100.0,3778757.0,46.14679,65.8456
215.44346900318823,7697.447,124.0388,65.8461
464.15888336127773,2250040.0,-17.59934,65.8484
1000.0,1805382.0,-159.6882,65.853
2154.4346900318824,209408.9,-68.06217,65.8486
4641.588833612777,156022.5,-79.35902,65.8296
10000.0,68287.5,-82.53207,65.8512
