Frequency,Impedance,Phase Angle,Temperature (Dry Bath)
10.0,7982823.0,-49.40657,66.266
21.544346900318832,5258210.0,-13.28852,66.2616
46.41588833612777,5790134.0,-36.71907,66.2579
100.0,753532.3,155.5375,66.2538
215.44346900318823,460038.4,-154.7975,66.2505
464.15888336127773,844073.9,29.80003,66.2573
1000.0,300157.0,-21.67236,66.2564
2154.4346900318824,400575.6,-73.33882,66.2654
4641.588833612777,143969.1,-78.22888,66.2581
10000.0,67724.2,-93.43616,66.2559
