Frequency,Impedance,Phase Angle,Temperature (Dry Bath)
10.0,4404920.0,-11.45749,71.3542
21.544346900318832,6478528.0,-19.07382,71.3467
46.41588833612777,3442832.0,-9.490716,71.3648
100.0,1331739.0,15.24449,71.3567
215.44346900318823,16934.22,173.4916,71.3467
464.15888336127773,405435.1,-87.50448,71.3382
1000.0,732525.7,-81.75079,71.3572
2154.4346900318824,334533.3,-79.01468,71.3537
4641.588833612777,152307.0,-87.57274,71.3468
10000.0,73395.27,-86.75369,71.3387
