Frequency,Impedance,Phase Angle,Temperature (Dry Bath)
10.0,5196839.0,5.813083,71.2065
21.544346900318832,6235401.0,-29.90571,71.2089
46.41588833612777,4598734.0,-18.37814,71.2106
100.0,286962.6,-85.29202,71.1929
215.44346900318823,940444.5,129.8788,71.192
464.15888336127773,489183.7,-69.06089,71.1988
1000.0,251945.8,-51.65159,71.1997
2154.4346900318824,336812.6,-84.95837,71.2128
4641.588833612777,148257.2,-111.3735,71.2093
10000.0,72913.98,-90.3622,71.2131
