Frequency,Impedance,Phase Angle,Temperature (Dry Bath)
10.0,5444706.0,-20.83227,70.9851
21.544346900318832,4789110.0,-25.02833,71.0094
46.41588833612777,3586066.0,-19.69832,70.9951
100.0,7404257.0,-65.91988,71.0056
215.44346900318823,922645.8,-119.7974,70.9953
464.15888336127773,609404.0,-71.64821,70.9835
1000.0,626737.5,-64.02092,70.9896
2154.4346900318824,278364.7,-77.44377,70.9744
4641.588833612777,129450.1,-90.36288,70.9864
10000.0,55653.12,-85.35225,70.974
