Frequency,Impedance,Phase Angle,Temperature (Dry Bath)
10.0,7956354.0,-24.85619,71.2058
21.544346900318832,3950518.0,13.84698,71.2349
46.41588833612777,4163719.0,3.859389,71.2382
100.0,261546.5,74.86029,71.2351
215.44346900318823,731756.5,-121.7955,71.2268
464.15888336127773,491916.1,-30.30223,71.2115
1000.0,854525.0,102.0086,71.2362
2154.4346900318824,619256.5,9.516731,71.2261
4641.588833612777,208393.7,-64.93011,71.2213
10000.0,133204.6,-90.11428,71.2152
