Frequency,Impedance,Phase Angle,Temperature (Dry Bath)
10.0,7911527.0,2.475742,71.4353
21.544346900318832,4922675.0,6.408006,71.4359
46.41588833612777,4432217.0,-3.179548,71.4495
100.0,611332.8,56.1807,71.447
215.44346900318823,4544195.0,78.53777,71.4326
464.15888336127773,717720.3,55.19688,71.4329
1000.0,925257.1,-92.90967,71.4357
2154.4346900318824,412501.9,-141.2034,71.4279
4641.588833612777,158757.8,-91.98505,71.4333
10000.0,114685.8,-88.12864,71.4143
