Frequency,Impedance,Phase Angle,Temperature (Dry Bath)
10.0,7360285.0,22.92256,71.2262
21.544346900318832,6275794.0,-18.69301,71.2278
46.41588833612777,4416289.0,-24.47197,71.2327
100.0,1316020.0,43.59188,71.226
215.44346900318823,1509083.0,-34.76506,71.2293
464.15888336127773,1943328.0,-133.5267,71.2323
1000.0,517453.5,-107.0583,71.2282
2154.4346900318824,321031.5,-81.74885,71.229
4641.588833612777,154878.2,-80.24833,71.2386
10000.0,71972.02,-84.94777,71.2151
