Frequency,Impedance,Phase Angle,Temperature (Dry Bath)
10.0,9421.673,-25.65884,70.6717
21.544346900318832,7689.708,-22.47868,70.6896
46.41588833612777,6462.614,-19.46868,70.6742
100.0,5544.006,-17.66677,70.6826
215.44346900318823,4930.206,-14.98257,70.6782
464.15888336127773,4388.866,-11.76342,70.6634
1000.0,3977.281,-11.04403,70.687
2154.4346900318824,3717.335,-9.522052,70.6729
4641.588833612777,3475.046,-9.186391,70.6814
10000.0,3276.07,-10.12302,70.6841
