Frequency,Impedance,Phase Angle,Temperature (Dry Bath)
10.0,67694.83,-11.02359,71.3119
21.544346900318832,62708.0,-8.905436,71.2919
46.41588833612777,58375.13,-7.870419,71.3007
100.0,56345.26,-11.75612,71.293
215.44346900318823,52161.84,-7.466535,71.3055
464.15888336127773,50309.48,-10.29461,71.3006
1000.0,48946.18,4.709964,71.3113
2154.4346900318824,43110.85,-7.709014,71.2958
4641.588833612777,44958.62,-26.61564,71.2966
10000.0,39901.07,-17.24463,71.3101
