Frequency,Impedance,Phase Angle,Temperature (Dry Bath)
10.0,69599.59,-10.4115,71.2613
21.544346900318832,64915.18,-8.150915,71.2742
46.41588833612777,61031.97,-7.353307,71.2717
100.0,63476.11,-10.87955,71.2781
215.44346900318823,57368.64,-0.410934,71.2594
464.15888336127773,49085.91,-9.878351,71.28
1000.0,39125.11,-4.597451,71.2705
2154.4346900318824,49230.32,-5.38747,71.291
4641.588833612777,51846.45,-21.19176,71.2868
10000.0,38468.93,-27.63317,71.2704
