Frequency,Impedance,Phase Angle,Temperature (Dry Bath)
10.0,3951989.0,8.113196,65.7356
21.544346900318832,7227099.0,-0.08615528,65.7447
46.41588833612777,3943474.0,-59.69719,65.7187
100.0,1259104.0,96.36438,65.7039
215.44346900318823,20226.09,-67.05979,65.7123
464.15888336127773,6937101.0,165.5641,65.7295
1000.0,12195070.0,126.0583,65.7265
2154.4346900318824,282615.8,-83.36425,65.7461
4641.588833612777,139882.8,-78.79769,65.7214
10000.0,78731.76,-95.34312,65.7171
