Frequency,Impedance,Phase Angle,Temperature (Dry Bath)
10.0,5975993.0,-4.496737,71.0916
21.544346900318832,3896084.0,-6.426268,71.1014
46.41588833612777,5188744.0,-18.67013,71.0994
100.0,328668.8,-47.96404,71.0939
215.44346900318823,751170.9,-164.0736,71.0968
464.15888336127773,976332.0,3.552236,71.0735
1000.0,170032.3,-70.26356,71.0982
2154.4346900318824,308783.1,-174.7952,71.0917
4641.588833612777,218231.1,-107.7541,71.0834
10000.0,218674.0,-86.73005,71.0878
