Frequency,Impedance,Phase Angle,Temperature (Dry Bath)
10.0,3750897.0,2.883968,71.0734
21.544346900318832,8204496.0,-0.733506,71.0734
46.41588833612777,7873880.0,-36.01049,71.0676
100.0,726633.9,-93.03562,71.0731
215.44346900318823,1553592.0,103.005,71.0649
464.15888336127773,528005.0,-51.59974,71.0546
1000.0,488189.3,-0.4606759,71.0703
2154.4346900318824,355454.2,-112.2988,71.0719
4641.588833612777,107665.3,-89.93212,71.0802
10000.0,62094.54,-89.18493,71.0717
