Frequency,Impedance,Phase Angle,Temperature (Dry Bath)
10.0,664538.8,-23.38738,71.0836
21.544346900318832,569961.9,-21.0381,71.0694
46.41588833612777,472795.3,-21.50529,71.0889
100.0,265603.6,7.441683,71.0808
215.44346900318823,346923.6,-18.5426,71.0663
464.15888336127773,308712.1,-56.68186,71.0939
1000.0,192518.2,-23.36916,71.0881
2154.4346900318824,152631.4,-61.41238,71.0714
4641.588833612777,79415.4,-56.9974,71.0903
10000.0,46144.22,-74.17763,71.0855
