Frequency,Impedance,Phase Angle,Temperature (Dry Bath)
10.0,5345706.0,-36.55875,66.4275
21.544346900318832,7118441.0,-35.00411,66.4193
46.41588833612777,4835608.0,-38.05646,66.4228
100.0,405576.9,28.83863,66.4049
215.44346900318823,1013274.0,160.3354,66.4135
464.15888336127773,1247807.0,-118.6496,66.4135
1000.0,290352.4,-66.37683,66.4226
2154.4346900318824,305754.3,-87.04964,66.4125
4641.588833612777,174179.4,-100.9206,66.4109
10000.0,67075.89,-84.88148,66.4267
