Frequency,Impedance,Phase Angle,Temperature (Dry Bath)
10.0,4838366.0,6.242246,70.8502
21.544346900318832,5251343.0,-15.44734,70.8471
46.41588833612777,3726364.0,-40.24611,70.8566
100.0,937466.9,90.45922,70.8512
215.44346900318823,8395527.0,14.59154,70.8542
464.15888336127773,818204.9,-63.42524,70.868
1000.0,333005.9,-98.29164,70.8495
2154.4346900318824,222519.8,-68.28574,70.8615
4641.588833612777,131816.7,-86.65251,70.8557
10000.0,69868.92,-78.97668,70.8385
