Frequency,Impedance,Phase Angle,Temperature (Dry Bath)
10.0,3763173.0,-20.31741,71.0618
21.544346900318832,8268850.0,-11.43,71.078
46.41588833612777,4426248.0,-14.12947,71.0579
100.0,1184656.0,133.7336,71.0539
215.44346900318823,965430.1,-110.0646,71.0635
464.15888336127773,1244653.0,-0.05218481,71.0512
1000.0,451299.4,-56.78761,71.0519
2154.4346900318824,471011.5,-80.56851,71.0616
4641.588833612777,118340.0,-91.93219,71.0561
10000.0,62662.76,-84.96013,71.0536
