Frequency,Impedance,Phase Angle,Temperature (Dry Bath)
10.0,7449406.0,-5.914285,66.2408
21.544346900318832,4005721.0,-27.54218,66.245
46.41588833612777,5003692.0,-35.64238,66.2194
100.0,2096495.0,26.45799,66.2086
215.44346900318823,955860.0,44.82448,66.2048
464.15888336127773,4266197.0,-75.91662,66.2264
1000.0,508363.3,-85.88914,66.2307
2154.4346900318824,214692.2,-77.94876,66.2266
4641.588833612777,153811.0,-95.0653,66.197
10000.0,64791.93,-86.54674,66.1948
