Frequency,Impedance,Phase Angle,Temperature (Dry Bath)
10.0,21659.12,-19.78948,71.0337
21.544346900318832,18635.73,-17.49298,71.0264
46.41588833612777,16244.94,-15.58529,71.0361
100.0,14435.67,-15.57019,71.0318
215.44346900318823,13109.08,-11.32766,71.0504
464.15888336127773,11638.13,-11.49101,71.0424
1000.0,10698.47,-11.50466,71.0424
2154.4346900318824,9774.422,-11.13511,71.03
4641.588833612777,9417.603,-11.78402,71.0163
10000.0,8766.815,-14.14946,71.0341
