Frequency,Impedance,Phase Angle,Temperature (Dry Bath)
10.0,4885296.0,-23.10895,71.117
21.544346900318832,4446960.0,-25.65364,71.1285
46.41588833612777,3496761.0,-19.39321,71.1257
100.0,1076954.0,7.228994,71.1409
215.44346900318823,2259828.0,75.14643,71.1376
464.15888336127773,3341602.0,-37.08771,71.1331
1000.0,4489604.0,-94.82752,71.1152
2154.4346900318824,222048.4,-88.96897,71.1332
4641.588833612777,110373.2,-85.76447,71.1195
10000.0,63922.94,-86.37861,71.1325
