Frequency,Impedance,Phase Angle,Temperature (Dry Bath)
10.0,5314514.0,24.74543,65.8279
21.544346900318832,8834403.0,-21.65647,65.8254
46.41588833612777,4167159.0,-34.01188,65.8294
100.0,477579.1,-60.32265,65.8354
215.44346900318823,309727.3,-46.35779,65.8317
464.15888336127773,4014715.0,-20.22682,65.8288
1000.0,294437.0,-82.923,65.8044
2154.4346900318824,308319.0,-84.68779,65.8295
4641.588833612777,158376.6,-82.42828,65.8349
10000.0,68795.84,-89.87114,65.828
