Frequency,Impedance,Phase Angle,Temperature (Dry Bath)
10.0,4236175.0,-4.263046,70.7482
21.544346900318832,6202656.0,17.89759,70.7621
46.41588833612777,5399187.0,-21.35093,70.757
100.0,2301600.0,132.9063,70.7614
215.44346900318823,3351827.0,113.363,70.7531
464.15888336127773,3098145.0,-158.1477,70.7668
1000.0,727180.1,-101.5305,70.7489
2154.4346900318824,270488.5,-77.59234,70.762
4641.588833612777,83767.77,-101.2034,70.7574
10000.0,58508.47,-88.00904,70.7426
