Frequency,Impedance,Phase Angle,Temperature (Dry Bath)
10.0,5319957.0,-6.982006,71.3172
21.544346900318832,4828391.0,-11.57259,71.3135
46.41588833612777,4383326.0,-16.24744,71.3219
100.0,1172591.0,0.6840336,71.3141
215.44346900318823,1156714.0,4.717043,71.3228
464.15888336127773,469165.7,-35.75684,71.339
1000.0,472170.0,-153.8109,71.3267
2154.4346900318824,257500.5,-97.59436,71.3228
4641.588833612777,123405.2,-76.00961,71.3103
10000.0,63002.41,-90.13241,71.3178
