Frequency,Impedance,Phase Angle,Temperature (Dry Bath)
10.0,725161.1,-32.66209,71.3138
21.544346900318832,603518.4,-24.1669,71.3095
46.41588833612777,476790.5,-27.30175,71.3078
100.0,210406.8,-34.13131,71.3177
215.44346900318823,181239.8,-2.808955,71.3115
464.15888336127773,456504.4,-29.48368,71.3032
1000.0,353807.1,-30.54619,71.3059
2154.4346900318824,164268.4,-45.604,71.3116
4641.588833612777,103694.5,-57.4975,71.3015
10000.0,52803.05,-70.79337,71.3064
