Frequency,Impedance,Phase Angle,Temperature (Dry Bath)
10.0,342103.2,-15.23576,71.29
21.544346900318832,304149.5,-14.66298,71.3188
46.41588833612777,264785.0,-14.67846,71.3088
100.0,289539.5,-28.9127,71.2961
215.44346900318823,481471.4,12.57644,71.2777
464.15888336127773,196838.8,-27.90848,71.2996
1000.0,122375.4,-25.63265,71.2903
2154.4346900318824,143713.6,-41.04412,71.3302
4641.588833612777,85932.85,-48.38714,71.2925
10000.0,53500.33,-66.56515,71.2837
