Frequency,Impedance,Phase Angle,Temperature (Dry Bath)
10.0,7068566.0,-11.18233,66.299
21.544346900318832,4380411.0,-2.280099,66.2878
46.41588833612777,5496700.0,-24.20064,66.3094
100.0,1314421.0,-103.577,66.2908
215.44346900318823,319996.7,117.8493,66.3066
464.15888336127773,1566838.0,38.79806,66.3126
1000.0,366034.8,-76.13988,66.2969
2154.4346900318824,212493.9,-74.15815,66.2876
4641.588833612777,114905.1,-84.24761,66.29
10000.0,56673.07,-80.79142,66.3077
