Frequency,Impedance,Phase Angle,Temperature (Dry Bath)
10.0,157340.1,-9.713023,71.4184
21.544346900318832,144980.0,-8.705231,71.408
46.41588833612777,134841.5,-8.718633,71.4099
100.0,114410.1,-20.66951,71.4153
215.44346900318823,120021.4,-0.26753,71.4092
464.15888336127773,109908.6,-22.37527,71.4269
1000.0,101170.7,-22.17032,71.4191
2154.4346900318824,87951.95,-23.67602,71.4437
4641.588833612777,67768.94,-44.30153,71.4172
10000.0,43700.16,-57.35648,71.4092
