Frequency,Impedance,Phase Angle,Temperature (Dry Bath)
10.0,476268.4,-10.99251,71.2302
21.544346900318832,436188.3,-11.64465,71.2329
46.41588833612777,407947.5,-12.80901,71.2155
100.0,311727.1,-3.144092,71.2261
215.44346900318823,312286.1,-42.03993,71.2267
464.15888336127773,306815.3,-7.048198,71.2189
1000.0,257466.5,-35.48172,71.2125
2154.4346900318824,294001.6,-4.48319,71.234
4641.588833612777,177461.0,-24.94288,71.2275
10000.0,73539.37,-43.45962,71.2187
