Frequency,Impedance,Phase Angle,Temperature (Dry Bath)
10.0,4638042.0,8.005581,70.9678
21.544346900318832,4557391.0,-22.10882,70.9525
46.41588833612777,4223035.0,-28.18534,70.963
100.0,489377.8,102.394,70.9713
215.44346900318823,583269.0,-138.8846,70.9705
464.15888336127773,727378.2,-72.75838,70.9654
1000.0,550259.4,-111.131,70.9627
2154.4346900318824,388341.7,-83.49935,70.9673
4641.588833612777,106751.0,-82.67083,70.963
10000.0,74624.65,-85.39901,70.9498
