Frequency,Impedance,Phase Angle,Temperature (Dry Bath)
10.0,162255.2,-9.039506,65.8102
21.544346900318832,150167.1,-7.446183,65.8215
46.41588833612777,142138.9,-6.894685,65.8128
100.0,171119.4,-22.76637,65.8286
215.44346900318823,21081.49,48.16611,65.8091
464.15888336127773,113950.7,-9.181423,65.8235
1000.0,100391.2,-7.937272,65.8078
2154.4346900318824,91087.57,-32.08229,65.801
4641.588833612777,74981.62,-44.86553,65.8179
10000.0,45130.01,-58.48137,65.8042
