Frequency,Impedance,Phase Angle,Temperature (Dry Bath)
10.0,1893299.0,-9.054225,71.025
21.544346900318832,1905220.0,-17.77041,70.9932
46.41588833612777,1619120.0,-12.91725,70.9866
100.0,3145251.0,128.4682,70.9782
215.44346900318823,1267925.0,-166.0052,70.9903
464.15888336127773,441375.0,-20.32643,70.9918
1000.0,390207.7,-57.76848,70.9973
2154.4346900318824,157752.7,-92.97198,71.0073
4641.588833612777,117817.0,-81.88644,70.9859
10000.0,60938.27,-81.33609,70.978
