Frequency,Impedance,Phase Angle,Temperature (Dry Bath)
10.0,3896189.0,-8.974573,29.8859
21.544346900318832,5752820.0,-8.925466,29.9563
46.41588833612777,4668545.0,-21.44191,29.9978
100.0,3072502.0,107.6344,30.0385
215.44346900318823,1419535.0,-45.85041,29.1758
464.15888336127773,1729623.0,-1.91554,29.3615
1000.0,454091.6,-69.6843,29.3223
2154.4346900318824,782150.1,-81.4759,29.2589
4641.588833612777,254989.2,-87.13939,29.396
10000.0,130458.0,-81.25743,29.4028
