Frequency,Impedance,Phase Angle,Temperature (Dry Bath)
10.0,6496065.0,-1.440934,65.775
21.544346900318832,8659883.0,9.505909,65.7703
46.41588833612777,4227542.0,1.748353,65.7828
100.0,483121.0,-21.88147,65.7645
215.44346900318823,18693.07,-53.55707,65.7766
464.15888336127773,697925.5,-60.98552,65.789
1000.0,375405.4,-76.27543,65.7884
2154.4346900318824,220701.3,-102.5052,65.7812
4641.588833612777,140674.0,-71.36926,65.7798
10000.0,88208.99,-88.95254,65.7931
