Frequency,Impedance,Phase Angle,Temperature (Dry Bath)
10.0,4623339.0,-24.60472,70.6111
21.544346900318832,4350558.0,-4.349709,70.6334
46.41588833612777,4700611.0,0.859681,70.6197
100.0,923333.7,-135.4107,70.6117
215.44346900318823,967190.1,-3.831269,70.6144
464.15888336127773,2084544.0,19.94389,70.6094
1000.0,160558.0,-39.19754,70.6244
2154.4346900318824,273168.5,-79.08576,70.5918
4641.588833612777,145910.4,-91.43843,70.5991
10000.0,64196.64,-84.23088,70.5994
