Frequency,Impedance,Phase Angle,Temperature (Dry Bath)
10.0,142640.4,-18.03884,71.4236
21.544346900318832,122600.2,-17.15794,71.4132
46.41588833612777,106816.3,-15.71026,71.4053
100.0,87591.15,-18.68176,71.3981
215.44346900318823,95687.8,-23.09708,71.4157
464.15888336127773,75768.6,-15.70294,71.4111
1000.0,69781.08,-17.31034,71.412
2154.4346900318824,55629.0,-27.90648,71.3962
4641.588833612777,43796.75,-28.83417,71.418
10000.0,30624.46,-45.14462,71.398
