Frequency,Impedance,Phase Angle,Temperature (Dry Bath)
10.0,6095054.0,31.95153,71.3327
21.544346900318832,6184188.0,-27.43114,71.3339
46.41588833612777,3486546.0,-10.51584,71.3318
100.0,969065.0,67.54069,71.3353
215.44346900318823,607967.4,-51.64342,71.3466
464.15888336127773,467163.5,-60.49666,71.3377
1000.0,460045.1,-49.05093,71.3163
2154.4346900318824,306498.2,-84.2231,71.334
4641.588833612777,132669.2,-72.0911,71.3356
10000.0,67910.01,-81.27362,71.3244
