Frequency,Impedance,Phase Angle,Temperature (Dry Bath)
10.0,4963257.0,-3.872305,71.8757
21.544346900318832,5320584.0,-21.45733,71.8541
46.41588833612777,6738235.0,2.341854,71.8696
100.0,900293.3,-41.45519,71.8839
215.44346900318823,439663.3,44.20879,71.8584
464.15888336127773,414572.0,-111.555,71.8597
1000.0,333746.2,117.9912,71.8516
2154.4346900318824,428413.2,-106.8072,71.8602
4641.588833612777,137328.7,-67.6873,71.8753
10000.0,144228.5,-80.45324,71.8653
