Frequency,Impedance,Phase Angle,Temperature (Dry Bath)
10.0,5053581.0,-12.30693,71.0276
21.544346900318832,4557473.0,-21.72277,71.003
46.41588833612777,4422369.0,-30.22527,70.9961
100.0,2085205.0,7.78645,71.0168
215.44346900318823,1550579.0,-7.884827,71.0172
464.15888336127773,306456.2,-105.4738,71.0433
1000.0,1258151.0,-67.54831,71.0364
2154.4346900318824,258329.8,-65.2666,71.0131
4641.588833612777,129140.0,-87.82696,71.018
10000.0,59104.66,-83.93195,70.9989
