Frequency,Impedance,Phase Angle,Temperature (Dry Bath)
10.0,7112276.0,-53.07211,70.9631
21.544346900318832,6034601.0,-7.505678,70.9488
46.41588833612777,6909367.0,-44.56835,70.9483
100.0,256489.3,65.86156,70.9463
215.44346900318823,532374.4,-120.8034,70.9567
464.15888336127773,544993.2,0.353497,70.9672
1000.0,515999.5,-133.9816,70.9684
2154.4346900318824,205939.1,-70.58747,70.9503
4641.588833612777,126124.1,-73.66163,70.9535
10000.0,57320.08,-88.71645,70.9579
