Frequency,Impedance,Phase Angle,Temperature (Dry Bath)
10.0,5210731.0,-4.026992,66.25
21.544346900318832,6584873.0,9.391158,66.2436
46.41588833612777,7826796.0,-36.6132,66.2447
100.0,3160927.0,-36.55299,66.2584
215.44346900318823,662981.7,23.47866,66.2468
464.15888336127773,415781.8,-51.37539,66.2584
1000.0,231941.2,-22.0213,66.2577
2154.4346900318824,237382.8,-86.75506,66.2646
4641.588833612777,153227.0,-75.97795,66.2555
10000.0,72016.36,-84.39153,66.2541
