Frequency,Impedance,Phase Angle,Temperature (Dry Bath)
10.0,4802714.0,-11.16066,71.3662
21.544346900318832,3793894.0,-20.48875,71.3614
46.41588833612777,4897849.0,-16.31151,71.3499
100.0,906386.1,39.58589,71.3731
215.44346900318823,1223630.0,-121.6811,71.3707
464.15888336127773,1204241.0,158.9489,71.3553
1000.0,257155.9,-101.5591,71.3735
2154.4346900318824,296569.7,-61.77289,71.3751
4641.588833612777,203267.2,-86.7634,71.3759
10000.0,64907.63,-87.25927,71.3754
