Frequency,Impedance,Phase Angle,Temperature (Dry Bath)
10.0,1907880.0,-18.21358,65.7378
21.544346900318832,1866784.0,-16.26616,65.7339
46.41588833612777,1518490.0,-31.68377,65.7491
100.0,808488.8,-59.5921,65.7459
215.44346900318823,17844.54,-119.934,65.7386
464.15888336127773,1075631.0,-34.2741,65.7309
1000.0,438444.5,-48.05526,65.7361
2154.4346900318824,238625.1,-72.3416,65.7418
4641.588833612777,138701.9,-77.07917,65.7409
10000.0,80037.92,-84.20233,65.7195
