Frequency,Impedance,Phase Angle,Temperature (Dry Bath)
10.0,6499151.0,12.9012,66.2018
21.544346900318832,4620241.0,-4.204671,66.207
46.41588833612777,5027902.0,-24.276,66.2006
100.0,908890.1,-39.24232,66.2036
215.44346900318823,246836.9,-99.47816,66.1929
464.15888336127773,512495.8,-65.79411,66.217
1000.0,1263461.0,-95.05943,66.2011
2154.4346900318824,198492.6,-79.02868,66.2035
4641.588833612777,100516.5,-93.65737,66.2029
10000.0,66972.19,-83.75318,66.1873
