Frequency,Impedance,Phase Angle,Temperature (Dry Bath)
10.0,248174.0,-11.66626,71.4647
21.544346900318832,219956.7,-12.47604,71.4586
46.41588833612777,201380.8,-14.58434,71.4534
100.0,119122.6,-25.04378,71.4603
215.44346900318823,167157.6,-29.45369,71.4758
464.15888336127773,144281.2,-22.4777,71.4778
1000.0,92823.63,-49.03146,71.4554
2154.4346900318824,98103.76,-33.99469,71.4656
4641.588833612777,67586.69,-44.63153,71.4735
10000.0,46276.9,-58.35869,71.467
