Frequency,Impedance,Phase Angle,Temperature (Dry Bath)
10.0,56716.61,-17.89217,70.5346
21.544346900318832,49337.46,-16.61879,70.555
46.41588833612777,43353.9,-15.13948,70.5451
100.0,40641.11,-14.79241,70.5492
215.44346900318823,33228.46,-9.453093,70.5473
464.15888336127773,33132.59,-14.29215,70.5617
1000.0,29153.2,-12.80848,70.5525
2154.4346900318824,26399.39,-14.8834,70.561
4641.588833612777,24764.75,-16.88074,70.5572
10000.0,20782.9,-28.76018,70.5519
