Frequency,Impedance,Phase Angle,Temperature (Dry Bath)
10.0,563943.0,-27.18298,66.343
21.544346900318832,437017.6,-23.64527,66.3567
46.41588833612777,347207.2,-24.09457,66.352
100.0,314802.1,-37.86723,66.3395
215.44346900318823,323089.5,-31.27184,66.3353
464.15888336127773,197033.9,-37.09302,66.3353
1000.0,212563.4,-34.08511,66.3374
2154.4346900318824,121955.4,-52.89256,66.3209
4641.588833612777,85890.02,-50.8314,66.3247
10000.0,46613.89,-63.19316,66.3222
