Frequency,Impedance,Phase Angle,Temperature (Dry Bath)
10.0,914540.9,-30.83758,71.2197
21.544346900318832,644264.8,-27.34503,71.2239
46.41588833612777,524948.8,-26.43364,71.2283
100.0,179820.6,-16.18305,71.2344
215.44346900318823,138349.8,10.78975,71.2437
464.15888336127773,325688.0,-19.10163,71.2357
1000.0,218835.7,-40.29368,71.2189
2154.4346900318824,154011.7,-65.09812,71.2265
4641.588833612777,81423.79,-56.56346,71.2366
10000.0,57995.01,-73.87021,71.2213
