Frequency,Impedance,Phase Angle,Temperature (Dry Bath)
10.0,4445019.0,0.1399954,65.8674
21.544346900318832,4357632.0,-32.28863,65.8696
46.41588833612777,4233541.0,-15.30222,65.8666
100.0,247096.4,-167.0426,65.8494
215.44346900318823,19802.61,112.9807,65.8635
464.15888336127773,9956745.0,-166.2768,65.865
1000.0,622522.2,-141.3349,65.8665
2154.4346900318824,240418.3,-90.70987,65.889
4641.588833612777,184608.9,-89.89933,65.8545
10000.0,64376.64,-89.55538,65.8709
