Frequency,Impedance,Phase Angle,Temperature (Dry Bath)
10.0,3859165.0,12.65654,65.7065
21.544346900318832,5157219.0,-17.21005,65.7028
46.41588833612777,3826442.0,-16.76801,65.6978
100.0,406075.2,-36.62182,65.6971
215.44346900318823,566303.0,72.48185,65.696
464.15888336127773,1605549.0,-25.78543,65.7018
1000.0,399060.4,-91.3603,65.701
2154.4346900318824,268175.9,-67.33964,65.6962
4641.588833612777,156483.8,-87.56367,65.6963
10000.0,72234.61,-83.26671,65.6855
