Frequency,Impedance,Phase Angle,Temperature (Dry Bath)
10.0,5931668.0,-9.608256,71.4068
21.544346900318832,4782378.0,-4.133334,71.4064
46.41588833612777,4991840.0,-16.21076,71.3999
100.0,996676.5,46.85401,71.4299
215.44346900318823,1007772.0,31.28049,71.4058
464.15888336127773,549113.2,-1.048935,71.412
1000.0,1240412.0,-42.14876,71.4023
2154.4346900318824,513287.6,-75.98304,71.3892
4641.588833612777,232960.4,-95.45615,71.3775
10000.0,115244.7,-82.17629,71.384
