Frequency,Impedance,Phase Angle,Temperature (Dry Bath)
10.0,9124693.0,-30.09155,71.4689
21.544346900318832,4382701.0,-21.41874,71.475
46.41588833612777,4903602.0,-26.29511,71.4724
100.0,396005.2,-49.80324,71.4741
215.44346900318823,292749.3,-56.97195,71.4627
464.15888336127773,218371.2,-52.65978,71.462
1000.0,805685.7,-146.5698,71.4666
2154.4346900318824,180773.7,-93.83409,71.4603
4641.588833612777,153442.9,-61.33267,71.4691
10000.0,60434.7,-83.44471,71.4615
