Frequency,Impedance,Phase Angle,Temperature (Dry Bath)
10.0,7739834.0,9.948251,71.1453
21.544346900318832,6722626.0,-15.23672,71.1373
46.41588833612777,3774232.0,-23.7661,71.1365
100.0,961683.7,-41.45391,71.1363
215.44346900318823,626319.4,-39.50611,71.1414
464.15888336127773,420467.3,-35.62494,71.156
1000.0,1689534.0,-142.6244,71.1489
2154.4346900318824,213428.9,-67.10001,71.1572
4641.588833612777,128913.5,-94.08123,71.1544
10000.0,69463.35,-90.97257,71.1376
