Frequency,Impedance,Phase Angle,Temperature (Dry Bath)
10.0,2929982.0,1.765806,70.9198
21.544346900318832,3126519.0,-16.70071,70.9333
46.41588833612777,3628009.0,-4.282383,70.9306
100.0,418711.4,111.9205,70.9552
215.44346900318823,450241.3,-87.22695,70.9486
464.15888336127773,632229.4,-60.22442,70.94
1000.0,544405.1,-152.8089,70.926
2154.4346900318824,194271.3,-91.85157,70.9272
4641.588833612777,123248.9,-82.38331,70.9287
10000.0,52825.07,-91.12629,70.9258
