Frequency,Impedance,Phase Angle,Temperature (Dry Bath)
10.0,117454.4,-26.07541,71.7415
21.544346900318832,96345.77,-27.50264,71.7451
46.41588833612777,77797.85,-28.76772,71.7334
100.0,66722.38,-30.4049,71.7258
215.44346900318823,55248.84,-33.29139,71.7462
464.15888336127773,41234.78,-31.61536,71.7208
1000.0,25445.97,-27.25265,71.7609
2154.4346900318824,20619.81,-21.68349,71.7456
4641.588833612777,16413.39,-21.10903,71.7567
10000.0,15272.38,-19.40097,71.7294
