Frequency,Impedance,Phase Angle,Temperature (Dry Bath)
10.0,212197.8,-26.60679,71.4182
21.544346900318832,172300.5,-24.12953,71.4264
46.41588833612777,143066.6,-20.71187,71.4314
100.0,118494.8,-30.61062,71.4218
215.44346900318823,137798.8,70.27753,71.4162
464.15888336127773,87176.45,-21.68741,71.4165
1000.0,116314.1,-34.33401,71.4262
2154.4346900318824,64769.95,-28.46566,71.4323
4641.588833612777,48681.1,-40.0858,71.4203
10000.0,38002.65,-53.30053,71.4233
