Frequency,Impedance,Phase Angle,Temperature (Dry Bath)
10.0,201551.0,-25.97251,66.4141
21.544346900318832,160664.9,-25.24972,66.4105
46.41588833612777,132727.4,-22.17205,66.412
100.0,134473.1,-9.752376,66.4332
215.44346900318823,90239.96,-25.28668,66.4259
464.15888336127773,98302.42,-9.199873,66.4192
1000.0,65687.35,-25.67512,66.4395
2154.4346900318824,63534.66,-30.92813,66.4272
4641.588833612777,49228.33,-35.96711,66.4286
10000.0,35767.73,-53.876,66.4246
