Frequency,Impedance,Phase Angle,Temperature (Dry Bath)
10.0,12875170.0,35.01364,65.6844
21.544346900318832,4470944.0,10.05765,65.6925
46.41588833612777,4950580.0,-33.06968,65.6857
100.0,128164.8,-163.5325,65.6838
215.44346900318823,957753.8,168.7656,65.6787
464.15888336127773,3048180.0,-15.18508,65.6758
1000.0,309596.8,-80.10672,65.6788
2154.4346900318824,193028.5,-76.75868,65.6939
4641.588833612777,131175.8,-84.80956,65.6835
10000.0,74434.95,-88.67983,65.6977
