Frequency,Impedance,Phase Angle,Temperature (Dry Bath)
10.0,4960045.0,-2.123296,65.6354
21.544346900318832,5275113.0,-10.82773,65.6439
46.41588833612777,5125701.0,-19.13422,65.6683
100.0,6400558.0,169.6732,65.6712
215.44346900318823,7127.872,-71.98967,65.66
464.15888336127773,983061.9,-24.67556,65.66
1000.0,357442.7,-101.3173,65.6596
2154.4346900318824,354899.4,-105.7405,65.6641
4641.588833612777,115488.7,-85.81406,65.6764
10000.0,68146.18,-93.56321,65.6683
