Frequency,Impedance,Phase Angle,Temperature (Dry Bath)
10.0,3297834.0,-16.95293,70.7388
21.544346900318832,7430132.0,1.061428,70.7426
46.41588833612777,3491532.0,-26.04966,70.7494
100.0,391217.7,73.03707,70.7581
215.44346900318823,816113.6,-76.04332,70.7649
464.15888336127773,987621.2,74.76847,70.758
1000.0,219016.1,-80.94563,70.7541
2154.4346900318824,227452.1,-67.95788,70.7503
4641.588833612777,121230.6,-92.99769,70.7643
10000.0,55735.1,-90.16474,70.7566
