Frequency,Impedance,Phase Angle,Temperature (Dry Bath)
10.0,3926581.0,-9.393801,71.1882
21.544346900318832,9806996.0,-17.23789,71.189
46.41588833612777,4452467.0,-44.70071,71.1751
100.0,1341512.0,171.9259,71.1862
215.44346900318823,3916177.0,-82.17677,71.1852
464.15888336127773,362669.7,-97.09099,71.1948
1000.0,477771.6,-82.17405,71.1742
2154.4346900318824,547488.2,-62.98443,71.2023
4641.588833612777,152694.8,-85.13113,71.1897
10000.0,63892.21,-84.96471,71.2012
