Frequency,Impedance,Phase Angle,Temperature (Dry Bath)
10.0,3463902.0,-32.1708,70.9171
21.544346900318832,5094929.0,-28.40482,70.9078
46.41588833612777,7006812.0,-46.07548,70.9047
100.0,730647.2,-87.8135,70.9048
215.44346900318823,3554563.0,-35.64903,70.9036
464.15888336127773,373867.8,-60.41674,70.8952
1000.0,569391.2,-80.91479,70.901
2154.4346900318824,389136.9,-88.90291,70.8917
4641.588833612777,163260.0,-91.08649,70.9098
10000.0,58895.78,-90.44567,70.9062
