Frequency,Impedance,Phase Angle,Temperature (Dry Bath)
10.0,9489200.0,-35.0185,65.7581
21.544346900318832,5980862.0,-3.398263,65.7544
46.41588833612777,3937078.0,-49.93702,65.7466
100.0,559387.1,-99.19104,65.7522
215.44346900318823,15967.22,-33.50924,65.762
464.15888336127773,2266144.0,-73.27043,65.7517
1000.0,474642.2,-87.34143,65.7376
2154.4346900318824,260133.9,-73.53165,65.7536
4641.588833612777,140517.4,-87.81811,65.7614
10000.0,61019.6,-84.90894,65.7477
