Frequency,Impedance,Phase Angle,Temperature (Dry Bath)
10.0,6941902.0,64.61545,71.3462
21.544346900318832,5048083.0,-5.309887,71.3239
46.41588833612777,4703898.0,-18.13578,71.3349
100.0,726136.1,33.26492,71.3336
215.44346900318823,1237434.0,150.7572,71.3367
464.15888336127773,1093561.0,-104.5511,71.3388
1000.0,1089596.0,-120.9914,71.3423
2154.4346900318824,446120.4,-92.63582,71.3537
4641.588833612777,383563.4,-107.6156,71.3439
10000.0,166519.0,-86.22161,71.3602
