Frequency,Impedance,Phase Angle,Temperature (Dry Bath)
10.0,4012888.0,-20.99418,70.9963
21.544346900318832,4004283.0,-20.19389,70.9927
46.41588833612777,3867017.0,-25.54672,70.9865
100.0,537891.6,-88.53858,70.988
215.44346900318823,2516362.0,138.9319,70.9942
464.15888336127773,2802871.0,38.86821,71.0009
1000.0,1175905.0,-31.95658,70.9911
2154.4346900318824,219704.0,-78.04511,71.0011
4641.588833612777,186680.6,-72.51939,70.9933
10000.0,72955.57,-99.62079,70.974
