Frequency,Impedance,Phase Angle,Temperature (Dry Bath)
10.0,4029007.0,-7.274245,70.8072
21.544346900318832,4237351.0,-20.37394,70.8021
46.41588833612777,4393472.0,-24.21507,70.795
100.0,269364.1,-23.28262,70.7988
215.44346900318823,417162.4,-116.7723,70.7975
464.15888336127773,544055.5,31.02884,70.8106
1000.0,376251.3,-150.7956,70.7811
2154.4346900318824,208342.9,-57.73795,70.7973
4641.588833612777,130695.2,-98.98194,70.7868
10000.0,62992.2,-88.63832,70.7917
