Frequency,Impedance,Phase Angle,Temperature (Dry Bath)
10.0,5648657.0,4.596934,70.267
21.544346900318832,3296152.0,-4.133538,70.2758
46.41588833612777,4086346.0,-27.08693,70.2872
100.0,915001.9,-177.5788,70.2811
215.44346900318823,829467.0,-17.20103,70.2806
464.15888336127773,1365218.0,-15.61429,70.2673
1000.0,1240620.0,-143.7967,70.2754
2154.4346900318824,357030.7,-89.36564,70.2764
4641.588833612777,178821.6,-97.13085,70.2835
10000.0,64677.53,-88.07258,70.2775
