Frequency,Impedance,Phase Angle,Temperature (Dry Bath)
10.0,299733.9,-24.59304,71.1857
21.544346900318832,234312.5,-21.91061,71.1883
46.41588833612777,203109.0,-20.69091,71.1827
100.0,177273.8,-29.20599,71.1919
215.44346900318823,148629.1,-20.70851,71.1799
464.15888336127773,151821.5,-14.62824,71.1985
1000.0,102656.0,-19.13252,71.1871
2154.4346900318824,98252.84,-40.06029,71.1949
4641.588833612777,61385.71,-46.75107,71.2029
10000.0,44390.75,-60.35175,71.1946
