Frequency,Impedance,Phase Angle,Temperature (Dry Bath)
10.0,223399.5,-16.4772,71.3307
21.544346900318832,198529.3,-17.47361,71.3379
46.41588833612777,172494.6,-16.93927,71.3276
100.0,101073.9,-17.89442,71.3241
215.44346900318823,98654.68,-16.23491,71.323
464.15888336127773,119350.0,-15.19772,71.3282
1000.0,92436.76,-29.35211,71.3287
2154.4346900318824,76465.99,-35.1911,71.3311
4641.588833612777,61609.73,-48.4633,71.3175
10000.0,38022.71,-57.48979,71.3361
