Frequency,Impedance,Phase Angle,Temperature (Dry Bath)
10.0,21114.84,-18.64148,71.5139
21.544346900318832,18228.25,-17.6748,71.516
46.41588833612777,15834.67,-17.31874,71.5235
100.0,14039.71,-17.30838,71.511
215.44346900318823,12039.57,-16.07411,71.5105
464.15888336127773,10532.2,-14.02116,71.529
1000.0,9404.551,-12.83863,71.528
2154.4346900318824,8592.116,-12.00976,71.5104
4641.588833612777,7844.406,-10.96794,71.5267
10000.0,7232.838,-11.37008,71.5234
