Frequency,Impedance,Phase Angle,Temperature (Dry Bath)
10.0,8866624.0,-46.3063,71.5038
21.544346900318832,6012333.0,-1.073363,71.498
46.41588833612777,4112195.0,-9.714957,71.4857
100.0,2168452.0,-151.7809,71.4961
215.44346900318823,1261579.0,32.87524,71.4987
464.15888336127773,886686.1,-157.7413,71.5131
1000.0,662686.8,-54.34046,71.5145
2154.4346900318824,489670.9,-77.58041,71.5144
4641.588833612777,195955.1,-77.44154,71.5112
10000.0,95331.22,-82.4798,71.5012
