Frequency,Impedance,Phase Angle,Temperature (Dry Bath)
10.0,126551.6,-14.16979,71.3805
21.544346900318832,113281.7,-13.01873,71.3727
46.41588833612777,103545.8,-11.94948,71.3738
100.0,105367.9,-15.67868,71.3744
215.44346900318823,83947.49,-12.81726,71.3825
464.15888336127773,89410.46,-14.88065,71.3816
1000.0,77309.75,-11.94872,71.3682
2154.4346900318824,65137.57,-14.00837,71.3641
4641.588833612777,61678.15,-23.72477,71.3712
10000.0,55573.4,-36.17856,71.381
