Frequency,Impedance,Phase Angle,Temperature (Dry Bath)
10.0,5690086.0,-7.191742,70.9592
21.544346900318832,4492630.0,-26.29991,70.9671
46.41588833612777,4325583.0,-12.28436,70.9679
100.0,725390.2,-30.3076,70.962
215.44346900318823,744512.4,124.5595,70.9619
464.15888336127773,844930.9,-52.50306,70.9572
1000.0,522896.9,-149.8155,70.9521
2154.4346900318824,281193.2,-115.0898,70.9505
4641.588833612777,130693.8,-96.76058,70.9753
10000.0,59396.37,-90.71683,70.9503
