Frequency,Impedance,Phase Angle,Temperature (Dry Bath)
10.0,2975753.0,-8.408006,66.3126
21.544346900318832,3946788.0,-21.32746,66.2827
46.41588833612777,4566810.0,-28.5273,66.2693
100.0,434582.1,-116.3381,66.2877
215.44346900318823,603203.0,-141.1295,66.2787
464.15888336127773,1724239.0,-42.7256,66.264
1000.0,5408251.0,-30.36931,66.2619
2154.4346900318824,202233.8,-80.69882,66.234
4641.588833612777,134384.7,-75.32807,66.2329
10000.0,61053.6,-84.69068,66.2353
