Frequency,Impedance,Phase Angle,Temperature (Dry Bath)
10.0,249827.7,-23.9555,71.312
21.544346900318832,208855.6,-21.7702,71.3076
46.41588833612777,175721.0,-20.07327,71.3046
100.0,149358.2,-19.30752,71.306
215.44346900318823,17652.66,-120.0555,71.3247
464.15888336127773,123172.9,-24.85022,71.306
1000.0,85544.88,-27.42377,71.3008
2154.4346900318824,87793.09,-28.1167,71.3139
4641.588833612777,53080.38,-33.50705,71.3034
10000.0,40425.66,-52.87563,71.2847
