Frequency,Impedance,Phase Angle,Temperature (Dry Bath)
10.0,3575458.0,-21.48256,71.4241
21.544346900318832,8720062.0,-70.03022,71.414
46.41588833612777,5977476.0,-27.65568,71.4279
100.0,1083521.0,70.66186,71.4225
215.44346900318823,272173.8,-8.377773,71.4193
464.15888336127773,1024086.0,-67.26878,71.4215
1000.0,638510.4,-5.821991,71.4264
2154.4346900318824,255270.9,-89.39958,71.4189
4641.588833612777,167810.9,-73.38027,71.4325
10000.0,55483.33,-86.7432,71.4169
