Frequency,Impedance,Phase Angle,Temperature (Dry Bath)
10.0,6698694.0,-15.5613,71.3081
21.544346900318832,4623448.0,-3.058512,71.3109
46.41588833612777,4791849.0,-35.87767,71.2903
100.0,2614853.0,-25.54531,71.3017
215.44346900318823,963573.6,-17.15366,71.3021
464.15888336127773,700709.1,-66.61966,71.291
1000.0,884735.0,-85.93231,71.3129
2154.4346900318824,295525.7,-74.15705,71.2855
4641.588833612777,145327.0,-94.20981,71.2944
10000.0,69354.29,-84.41112,71.2828
