Frequency,Impedance,Phase Angle,Temperature (Dry Bath)
10.0,5468758.0,-17.11809,71.3155
21.544346900318832,11967370.0,-11.43503,71.3227
46.41588833612777,7754274.0,-16.62098,71.3168
100.0,1009751.0,-99.33169,71.3327
215.44346900318823,30913.71,139.4303,71.3259
464.15888336127773,978791.9,-49.87002,71.3125
1000.0,477817.6,-104.7601,71.3265
2154.4346900318824,367078.2,-95.55712,71.3213
4641.588833612777,117907.2,-86.00384,71.3174
10000.0,67798.63,-91.85256,71.3272
