Frequency,Impedance,Phase Angle,Temperature (Dry Bath)
10.0,81605.8,-36.8616,71.3036
21.544346900318832,60355.92,-32.62231,71.301
46.41588833612777,46501.37,-28.70934,71.2866
100.0,35014.22,-21.54412,71.2855
215.44346900318823,30960.33,-14.88969,71.2827
464.15888336127773,27491.38,-19.23393,71.3
1000.0,23060.1,-17.45343,71.294
2154.4346900318824,20977.67,-16.38313,71.2946
4641.588833612777,18866.81,-19.27285,71.3073
10000.0,16745.56,-23.44663,71.2972
