Frequency,Impedance,Phase Angle,Temperature (Dry Bath)
10.0,1618557.0,-24.4615,71.1412
21.544346900318832,1408076.0,-14.31892,71.133
46.41588833612777,1220335.0,-23.75123,71.1362
100.0,497377.9,-59.20762,71.1414
215.44346900318823,797785.0,-44.89798,71.1436
464.15888336127773,822582.9,-44.48864,71.1484
1000.0,316893.5,-11.18761,71.1599
2154.4346900318824,287503.8,-83.60356,71.1404
4641.588833612777,117760.1,-69.4674,71.1398
10000.0,55736.07,-81.27995,71.1398
