Frequency,Impedance,Phase Angle,Temperature (Dry Bath)
10.0,3393442.0,-9.531364,71.2011
21.544346900318832,7319260.0,17.48624,71.2046
46.41588833612777,6814079.0,-14.36868,71.1951
100.0,1421294.0,-121.4966,71.1976
215.44346900318823,1217736.0,-154.5676,71.2055
464.15888336127773,2048454.0,-21.89296,71.2037
1000.0,688437.3,-68.99266,71.1859
2154.4346900318824,509982.6,104.4506,71.1759
4641.588833612777,203916.3,-105.9466,71.1804
10000.0,227677.5,-62.54766,71.1671
