Frequency,Impedance,Phase Angle,Temperature (Dry Bath)
10.0,7116660.0,-1.677891,71.1744
21.544346900318832,3789208.0,-2.551305,71.1771
46.41588833612777,4172614.0,-2.62699,71.1791
100.0,3693538.0,-106.4185,71.1655
215.44346900318823,775067.6,-156.3652,71.1563
464.15888336127773,832668.9,-80.45477,71.1681
1000.0,776633.1,-71.28916,71.1859
2154.4346900318824,306096.9,-78.44908,71.1708
4641.588833612777,222133.2,-87.27423,71.1717
10000.0,153607.6,-82.61385,71.1756
