Frequency,Impedance,Phase Angle,Temperature (Dry Bath)
10.0,6163416.0,25.26483,65.7522
21.544346900318832,5095861.0,-3.825356,65.743
46.41588833612777,4696772.0,-31.88292,65.7608
100.0,1910280.0,-2.573122,65.7273
215.44346900318823,352658.5,-118.1282,65.7449
464.15888336127773,1024318.0,-133.9861,65.7622
1000.0,2095161.0,-46.2009,65.7378
2154.4346900318824,401237.3,-89.07562,65.7298
4641.588833612777,176732.0,-86.02018,65.7408
10000.0,71266.41,-86.78081,65.7399
