Frequency,Impedance,Phase Angle,Temperature (Dry Bath)
10.0,4717737.0,-1.195702,71.3105
21.544346900318832,3595077.0,-14.83788,71.3179
46.41588833612777,3147385.0,47.65043,71.3135
100.0,407063.8,-42.46327,71.3081
215.44346900318823,54256.03,-3.777392,71.3113
464.15888336127773,367459.8,-64.05581,71.3199
1000.0,639586.8,-57.86031,71.321
2154.4346900318824,197227.7,-75.68684,71.3058
4641.588833612777,168057.3,-68.87992,71.3083
10000.0,62898.6,-90.45128,71.3097
