Frequency,Impedance,Phase Angle,Temperature (Dry Bath)
10.0,134467.3,-18.46366,66.2623
21.544346900318832,115325.9,-17.82251,66.2452
46.41588833612777,100798.0,-16.51559,66.2426
100.0,85692.29,-19.52843,66.2321
215.44346900318823,89143.63,-4.992871,66.248
464.15888336127773,76776.61,-21.65318,66.2476
1000.0,58063.19,-25.53657,66.2353
2154.4346900318824,54921.44,-28.55632,66.2524
4641.588833612777,40706.8,-37.23014,66.2441
10000.0,29364.28,-45.03204,66.2578
