Frequency,Impedance,Phase Angle,Temperature (Dry Bath)
10.0,2154593.0,-7.350014,66.2636
21.544346900318832,1597897.0,-9.781054,66.2379
46.41588833612777,1472192.0,-21.20215,66.2364
100.0,367556.8,12.41895,66.2593
215.44346900318823,186935.4,85.68766,66.2677
464.15888336127773,801981.3,-96.47388,66.2695
1000.0,567474.0,-14.80242,66.2663
2154.4346900318824,191324.9,-81.02727,66.2799
4641.588833612777,96334.35,-84.66493,66.273
10000.0,55457.75,-85.71886,66.2777
