Frequency,Impedance,Phase Angle,Temperature (Dry Bath)
10.0,2098388.0,-24.44894,65.8354
21.544346900318832,1502554.0,-13.80921,65.8346
46.41588833612777,1353399.0,-19.73639,65.8446
100.0,366528.5,-32.60509,65.8379
215.44346900318823,5272.551,-170.5702,65.8204
464.15888336127773,1508984.0,-82.22235,65.8376
1000.0,419900.7,-94.46895,65.8377
2154.4346900318824,224779.9,-72.37419,65.835
4641.588833612777,117814.1,-82.76295,65.8328
10000.0,68584.01,-81.42801,65.8263
