Frequency,Impedance,Phase Angle,Temperature (Dry Bath)
10.0,2300384.0,-21.74155,71.1685
21.544346900318832,2137173.0,-9.711769,71.1591
46.41588833612777,2059055.0,-14.91122,71.1797
100.0,1352984.0,-66.58294,71.1837
215.44346900318823,494561.9,-32.38361,71.1664
464.15888336127773,198145.2,53.54244,71.1797
1000.0,494877.0,-45.07064,71.1777
2154.4346900318824,231538.2,-83.9937,71.1675
4641.588833612777,301975.2,-122.3754,71.172
10000.0,105464.9,-89.7536,71.1876
