Frequency,Impedance,Phase Angle,Temperature (Dry Bath)
10.0,1061091.0,-8.325824,70.9988
21.544346900318832,954019.1,-5.225919,70.9982
46.41588833612777,899495.1,-11.01884,70.9905
100.0,257667.9,-13.02358,70.997
215.44346900318823,440810.1,-29.28575,70.9915
464.15888336127773,232764.1,4.35985,70.9808
1000.0,2983931.0,62.883,70.9619
2154.4346900318824,370331.8,51.47254,70.9694
4641.588833612777,253450.2,-80.697,70.9784
10000.0,80724.69,-89.94282,70.9799
