Frequency,Impedance,Phase Angle,Temperature (Dry Bath)
10.0,2460625.0,-5.564674,71.3211
21.544346900318832,2810158.0,-25.29274,71.3186
46.41588833612777,2400676.0,-23.71476,71.3155
100.0,627356.8,130.4479,71.317
215.44346900318823,302599.1,-22.75773,71.3282
464.15888336127773,805446.3,125.5529,71.307
1000.0,1517598.0,-8.480038,71.3296
2154.4346900318824,366138.4,-83.22962,71.3167
4641.588833612777,88077.28,-116.006,71.3015
10000.0,82091.43,-98.795,71.318
