Frequency,Impedance,Phase Angle,Temperature (Dry Bath)
10.0,4954764.0,15.70139,70.947
21.544346900318832,4456794.0,-4.040951,70.9239
46.41588833612777,5027564.0,-5.378306,70.9322
100.0,469867.5,-9.703083,70.9348
215.44346900318823,505601.3,-8.844277,70.9231
464.15888336127773,1633172.0,-125.6168,70.9346
1000.0,2818206.0,-60.79822,70.9361
2154.4346900318824,340347.0,-47.60363,70.9166
4641.588833612777,451434.2,-85.52596,70.916
10000.0,260030.0,-98.61611,70.9233
