Frequency,Impedance,Phase Angle,Temperature (Dry Bath)
10.0,3060420.0,-19.09745,70.8803
21.544346900318832,1879222.0,-20.06242,70.8766
46.41588833612777,1779148.0,-27.88957,70.8725
100.0,270274.0,155.9087,70.8909
215.44346900318823,362408.4,-107.5883,70.8885
464.15888336127773,882756.2,-28.16741,70.8825
1000.0,439878.2,-13.91997,70.8905
2154.4346900318824,172931.0,-73.75885,70.8862
4641.588833612777,103889.6,-64.95349,70.8721
10000.0,53032.05,-84.98662,70.8682
