Frequency,Impedance,Phase Angle,Temperature (Dry Bath)
10.0,4622058.0,-4.026522,65.6935
21.544346900318832,11763130.0,7.802823,65.693
46.41588833612777,6898450.0,-23.51431,65.6978
100.0,571975.0,-145.37,65.6915
215.44346900318823,574546.9,-89.65208,65.7046
464.15888336127773,730258.1,-82.88566,65.6791
1000.0,1337615.0,-57.63205,65.7028
2154.4346900318824,489924.6,-61.46475,65.6937
4641.588833612777,142706.1,-83.26299,65.6994
10000.0,67459.43,-88.89899,65.6809
