Frequency,Impedance,Phase Angle,Temperature (Dry Bath)
10.0,6857176.0,26.55703,71.3736
21.544346900318832,6050164.0,-0.2160141,71.3638
46.41588833612777,4724839.0,-13.02795,71.3643
100.0,2638313.0,-43.76511,71.3608
215.44346900318823,846365.9,-130.4506,71.352
464.15888336127773,797068.4,26.53537,71.3689
1000.0,652053.5,-75.7241,71.3817
2154.4346900318824,602692.6,-49.22586,71.3594
4641.588833612777,271984.8,-81.44126,71.36
10000.0,142751.2,-81.78177,71.3629
