Frequency,Impedance,Phase Angle,Temperature (Dry Bath)
10.0,7469697.0,-3.904018,70.6819
21.544346900318832,4679097.0,-12.57994,70.6832
46.41588833612777,3672544.0,-29.54459,70.6825
100.0,817473.5,-57.70368,70.6753
215.44346900318823,4714187.0,-50.48798,70.6885
464.15888336127773,463666.8,-61.87245,70.6929
1000.0,289571.0,-74.22687,70.7032
2154.4346900318824,655814.8,-19.96089,70.6838
4641.588833612777,209801.6,-85.65947,70.6871
10000.0,63994.57,-90.61489,70.6908
