Frequency,Impedance,Phase Angle,Temperature (Dry Bath)
10.0,7345718.0,6.644204,71.0659
21.544346900318832,4533478.0,-4.01849,71.0573
46.41588833612777,4826902.0,-22.25087,71.0576
100.0,303196.9,-73.3452,71.0557
215.44346900318823,1452608.0,-94.32179,71.0557
464.15888336127773,338410.1,-88.61288,71.0628
1000.0,720233.5,-108.5144,71.0573
2154.4346900318824,266415.2,-88.71894,71.0524
4641.588833612777,107227.1,-87.38835,71.0575
10000.0,52363.16,-88.39636,71.0768
