Frequency,Impedance,Phase Angle,Temperature (Dry Bath)
10.0,3926555.0,-0.3308945,70.8289
21.544346900318832,13748260.0,131.4163,70.8264
46.41588833612777,5250745.0,-47.13545,70.8436
100.0,380334.4,-118.1682,70.8154
215.44346900318823,861864.7,-46.25159,70.8254
464.15888336127773,419189.1,-78.42418,70.8298
1000.0,636643.6,-41.07418,70.8499
2154.4346900318824,401471.9,-88.95633,70.8362
4641.588833612777,92076.77,-88.07439,70.8368
10000.0,64832.06,-90.17413,70.8345
