Frequency,Impedance,Phase Angle,Temperature (Dry Bath)
10.0,160328.9,-9.464251,66.4355
21.544346900318832,151859.2,-8.513473,66.4195
46.41588833612777,141887.6,-8.092446,66.4315
100.0,134914.6,-5.735507,66.4367
215.44346900318823,105543.5,-25.52004,66.4267
464.15888336127773,121001.2,-13.07112,66.4428
1000.0,121199.4,-21.995,66.4285
2154.4346900318824,90235.1,-23.94058,66.4355
4641.588833612777,63091.69,-38.23448,66.4382
10000.0,44500.15,-65.13626,66.4327
