Frequency,Impedance,Phase Angle,Temperature (Dry Bath)
10.0,978147.6,-29.5048,71.4061
21.544346900318832,777123.7,-20.77622,71.4208
46.41588833612777,655927.6,-25.40702,71.4014
100.0,184521.9,26.12917,71.3939
215.44346900318823,229808.6,-6.401946,71.4034
464.15888336127773,467515.7,-10.18636,71.3933
1000.0,355640.0,-32.33616,71.3906
2154.4346900318824,213078.2,-67.46882,71.4048
4641.588833612777,120758.6,-70.30562,71.3834
10000.0,64288.63,-70.58402,71.3891
