Frequency,Impedance,Phase Angle,Temperature (Dry Bath)
10.0,191392.3,-26.97253,65.7672
21.544346900318832,153766.6,-24.13287,65.767
46.41588833612777,126622.3,-21.85929,65.774
100.0,110156.3,-20.58557,65.7614
215.44346900318823,11789.42,5.815237,65.7701
464.15888336127773,87030.26,-17.6419,65.7692
1000.0,73840.68,-17.34175,65.7711
2154.4346900318824,62086.55,-29.97119,65.7649
4641.588833612777,48729.71,-37.0658,65.7607
10000.0,34681.74,-49.30465,65.7631
