Frequency,Impedance,Phase Angle,Temperature (Dry Bath)
10.0,3628536.0,-7.411649,70.9869
21.544346900318832,3482163.0,2.456968,70.9852
46.41588833612777,3006142.0,-29.11223,70.9915
100.0,481020.7,-45.91096,70.9883
215.44346900318823,433777.0,-34.21393,71.0016
464.15888336127773,421226.2,-32.89465,71.0044
1000.0,425479.2,-80.4709,71.0168
2154.4346900318824,614650.3,-130.3254,70.9853
4641.588833612777,237187.6,-82.80064,71.0132
10000.0,75117.6,-92.7882,70.9959
