Frequency,Impedance,Phase Angle,Temperature (Dry Bath)
10.0,105045.7,-14.73111,71.4814
21.544346900318832,95206.45,-13.32723,71.5041
46.41588833612777,85536.11,-11.99924,71.4781
100.0,73571.74,-11.23773,71.4829
215.44346900318823,72440.6,-10.47352,71.4958
464.15888336127773,62213.82,-10.25016,71.4744
1000.0,59608.12,-14.65294,71.4767
2154.4346900318824,54691.83,-15.1214,71.4619
4641.588833612777,56887.09,-22.69324,71.4785
10000.0,46504.38,-28.97312,71.4654
