Frequency,Impedance,Phase Angle,Temperature (Dry Bath)
10.0,19850.08,-12.14697,71.3897
21.544346900318832,18109.05,-10.87237,71.3956
46.41588833612777,16676.47,-10.04355,71.3656
100.0,15345.8,-8.937748,71.3674
215.44346900318823,14186.83,-8.955868,71.3963
464.15888336127773,13550.69,-7.432891,71.3807
1000.0,12678.91,-7.598098,71.3623
2154.4346900318824,11835.92,-7.707579,71.3802
4641.588833612777,11323.78,-7.650668,71.3728
10000.0,10806.23,-8.203275,71.3925
