Frequency,Impedance,Phase Angle,Temperature (Dry Bath)
10.0,5801211.0,9.186877,71.3082
21.544346900318832,7931312.0,1.304224,71.3198
46.41588833612777,4051237.0,-14.88083,71.3207
100.0,653836.2,-56.62973,71.3096
215.44346900318823,643693.1,-134.4113,71.3128
464.15888336127773,578817.3,99.06443,71.3133
1000.0,785961.1,-92.78146,71.3135
2154.4346900318824,370866.9,-77.37526,71.3213
4641.588833612777,244412.6,-93.39276,71.3214
10000.0,103192.5,-83.50178,71.3255
