Frequency,Impedance,Phase Angle,Temperature (Dry Bath)
10.0,1747274.0,-14.49175,66.1362
21.544346900318832,1409623.0,-12.32416,66.1416
46.41588833612777,1231440.0,-18.58794,66.1364
100.0,413405.0,-21.7458,66.1404
215.44346900318823,224781.3,126.8131,66.1454
464.15888336127773,1182334.0,-69.46121,66.1386
1000.0,455012.6,-2.936192,66.155
2154.4346900318824,235733.3,-67.39371,66.1379
4641.588833612777,108738.6,-73.00449,66.1387
10000.0,68034.82,-82.8029,66.1528
