Frequency,Impedance,Phase Angle,Temperature (Dry Bath)
10.0,3650731.0,8.147893,71.5497
21.544346900318832,6153125.0,4.42099,71.5399
46.41588833612777,5010448.0,-8.765122,71.5415
100.0,1056374.0,64.46764,71.5264
215.44346900318823,732890.2,-70.6866,71.5467
464.15888336127773,382453.0,9.632534,71.5573
1000.0,1017145.0,-69.74739,71.5455
2154.4346900318824,1040756.0,-58.30417,71.5438
4641.588833612777,248141.3,-154.343,71.5463
10000.0,139725.0,-95.95843,71.5526
