Frequency,Impedance,Phase Angle,Temperature (Dry Bath)
10.0,5105686.0,5.241238,71.5079
21.544346900318832,7215357.0,14.6515,71.5007
46.41588833612777,3686756.0,-11.18949,71.5164
100.0,372277.0,30.48347,71.5049
215.44346900318823,2664227.0,-42.88518,71.5194
464.15888336127773,2098526.0,114.054,71.516
1000.0,796731.2,-133.2136,71.5115
2154.4346900318824,524565.8,-60.32124,71.5184
4641.588833612777,277135.8,-83.72633,71.5276
10000.0,111960.3,-92.69867,71.5254
