Frequency,Impedance,Phase Angle,Temperature (Dry Bath)
10.0,159858.9,-10.10616,71.3041
21.544346900318832,149518.9,-8.884689,71.3097
46.41588833612777,137613.6,-7.979049,71.31
100.0,101637.2,-5.773444,71.3158
215.44346900318823,128644.1,-10.53379,71.304
464.15888336127773,123640.8,-18.58544,71.3166
1000.0,109783.0,-9.681778,71.3105
2154.4346900318824,100040.1,-24.23545,71.3059
4641.588833612777,69180.19,-43.08524,71.3122
10000.0,40942.06,-56.93511,71.2991
