Frequency,Impedance,Phase Angle,Temperature (Dry Bath)
10.0,38421.35,-19.8328,71.3014
21.544346900318832,32644.24,-19.335,71.2984
46.41588833612777,27987.13,-19.87605,71.2865
100.0,24290.55,-21.87748,71.2845
215.44346900318823,19443.06,-22.38187,71.2939
464.15888336127773,17502.71,-20.84693,71.2861
1000.0,13773.53,-24.05348,71.3022
2154.4346900318824,10856.15,-23.22755,71.2858
4641.588833612777,8802.286,-22.54079,71.2944
10000.0,7548.778,-20.20387,71.2818
