Frequency,Impedance,Phase Angle,Temperature (Dry Bath)
10.0,27117.99,-13.1638,70.4073
21.544346900318832,24565.55,-11.6948,70.3808
46.41588833612777,22398.78,-10.94316,70.3672
100.0,19924.94,-8.968582,70.385
215.44346900318823,18571.04,-11.31889,70.3814
464.15888336127773,18069.04,-7.926745,70.3667
1000.0,16337.38,-8.126265,70.3809
2154.4346900318824,15684.31,-8.773085,70.3705
4641.588833612777,14307.92,-6.958188,70.3867
10000.0,14368.86,-10.38696,70.3805
