Frequency,Impedance,Phase Angle,Temperature (Dry Bath)
10.0,6178849.0,-12.2862,70.7532
21.544346900318832,4615628.0,-4.271614,70.7609
46.41588833612777,5789144.0,-6.467898,70.7414
100.0,859906.1,82.73932,70.7509
215.44346900318823,779211.9,-32.01838,70.7529
464.15888336127773,546109.1,-114.3066,70.7476
1000.0,211199.7,14.98961,70.7512
2154.4346900318824,421582.3,-24.5233,70.7508
4641.588833612777,171933.4,-80.72518,70.7417
10000.0,70680.4,-88.54361,70.7663
