Frequency,Impedance,Phase Angle,Temperature (Dry Bath)
10.0,8019125.0,-19.08327,66.3698
21.544346900318832,6093338.0,-19.37569,66.3996
46.41588833612777,4133861.0,-35.04071,66.4073
100.0,486818.0,-17.75922,66.386
215.44346900318823,379688.0,55.13837,66.3993
464.15888336127773,1001158.0,-114.171,66.3842
1000.0,502412.2,-67.37637,66.404
2154.4346900318824,307524.5,-93.09567,66.3835
4641.588833612777,156997.6,-77.31612,66.4115
10000.0,61504.42,-83.95232,66.4081
