Frequency,Impedance,Phase Angle,Temperature (Dry Bath)
10.0,678620.3,-7.833368,71.0594
21.544346900318832,662264.1,-3.480048,71.0559
46.41588833612777,629727.4,-2.938911,71.0451
100.0,487098.9,-53.62507,71.0534
215.44346900318823,2978717.0,152.3739,71.0677
464.15888336127773,336998.5,7.767679,71.0703
1000.0,482547.2,-69.5465,71.09
2154.4346900318824,397403.3,-63.83332,71.0691
4641.588833612777,229688.2,-77.16689,71.0619
10000.0,98670.2,-65.23208,71.0854
