Frequency,Impedance,Phase Angle,Temperature (Dry Bath)
10.0,586400.7,-24.66207,71.1212
21.544346900318832,460804.7,-22.05736,71.1275
46.41588833612777,397579.2,-22.34023,71.1309
100.0,169671.8,-21.39752,71.1254
215.44346900318823,272557.6,-51.58849,71.1281
464.15888336127773,191103.1,-29.31113,71.1314
1000.0,208676.2,-44.55243,71.149
2154.4346900318824,143998.8,-44.31958,71.1333
4641.588833612777,76615.75,-61.48389,71.137
10000.0,44694.47,-70.51162,71.119
