Frequency,Impedance,Phase Angle,Temperature (Dry Bath)
10.0,7387483.0,-10.64521,71.513
21.544346900318832,5331657.0,-16.88406,71.5024
46.41588833612777,4474161.0,-4.586031,71.4984
100.0,238350.2,-14.09137,71.4895
215.44346900318823,429093.4,-53.62944,71.492
464.15888336127773,722128.4,-153.5662,71.5018
1000.0,1057652.0,-140.3919,71.498
2154.4346900318824,288042.6,-75.37619,71.5053
4641.588833612777,196212.6,-73.85686,71.4968
10000.0,119387.5,-65.38829,71.5039
