Frequency,Impedance,Phase Angle,Temperature (Dry Bath)
10.0,4203251.0,-11.063,71.0544
21.544346900318832,4326809.0,-18.24937,71.053
46.41588833612777,4851095.0,-38.88351,71.0423
100.0,301603.2,15.94821,71.0643
215.44346900318823,1358025.0,-136.1711,71.0736
464.15888336127773,589546.8,-80.41966,71.0662
1000.0,472951.8,-64.96201,71.0644
2154.4346900318824,213425.8,-90.65654,71.056
4641.588833612777,126390.7,-69.51514,71.0735
10000.0,59765.36,-84.33029,71.0735
