Frequency,Impedance,Phase Angle,Temperature (Dry Bath)
10.0,80533.84,-36.79448,71.3171
21.544346900318832,60410.5,-32.70184,71.3179
46.41588833612777,46496.93,-28.57437,71.3106
100.0,37196.16,-23.0649,71.3148
215.44346900318823,30428.95,-22.96174,71.3188
464.15888336127773,26042.79,-18.6407,71.3212
1000.0,23060.48,-16.91435,71.3264
2154.4346900318824,21264.63,-16.94854,71.32
4641.588833612777,17731.29,-20.11111,71.3236
10000.0,16474.91,-23.6142,71.3132
