Frequency,Impedance,Phase Angle,Temperature (Dry Bath)
10.0,7708119.0,-33.80595,71.1297
21.544346900318832,4014016.0,0.8033541,71.1378
46.41588833612777,6131712.0,-14.55116,71.1431
100.0,1259273.0,70.07442,71.1394
215.44346900318823,501065.8,-15.31002,71.1514
464.15888336127773,588934.2,101.6051,71.1523
1000.0,373861.6,-44.5948,71.1571
2154.4346900318824,875390.7,-21.60818,71.1268
4641.588833612777,216008.4,-137.7361,71.1357
10000.0,279629.3,-32.63525,71.1424
