Frequency,Impedance,Phase Angle,Temperature (Dry Bath)
10.0,6527790.0,18.63391,66.3061
21.544346900318832,7028807.0,-13.26762,66.2995
46.41588833612777,3720711.0,-27.20445,66.2829
100.0,3592377.0,29.30828,66.3059
215.44346900318823,415966.6,172.8282,66.2991
464.15888336127773,668156.1,-106.9749,66.2996
1000.0,538643.2,-99.2157,66.2902
2154.4346900318824,277443.7,-73.28096,66.3042
4641.588833612777,137176.7,-81.55562,66.3042
10000.0,62962.0,-87.0187,66.2876
