Frequency,Impedance,Phase Angle,Temperature (Dry Bath)
10.0,954120.9,-28.41992,71.2633
21.544346900318832,737969.1,-22.51131,71.2515
46.41588833612777,627394.1,-23.88249,71.2457
100.0,268999.6,-32.19479,71.2487
215.44346900318823,496023.3,-44.83817,71.2579
464.15888336127773,231319.1,-28.8052,71.2562
1000.0,257406.3,-21.09998,71.2616
2154.4346900318824,251611.1,-58.42517,71.2339
4641.588833612777,112598.2,-61.30265,71.2602
10000.0,52007.06,-78.20352,71.2366
