Frequency,Impedance,Phase Angle,Temperature (Dry Bath)
10.0,7599056.0,-26.95435,71.0527
21.544346900318832,6311203.0,-9.863769,71.0438
46.41588833612777,5401921.0,-17.71451,71.034
100.0,1051960.0,-173.4643,71.0465
215.44346900318823,3922933.0,-93.70938,71.026
464.15888336127773,528531.2,-37.35689,71.0322
1000.0,494994.3,-85.25953,71.0261
2154.4346900318824,299534.3,-70.73516,71.0371
4641.588833612777,121603.5,-82.62139,71.0286
10000.0,75620.6,-79.6537,71.0402
