Frequency,Impedance,Phase Angle,Temperature (Dry Bath)
10.0,6469248.0,-9.673983,71.2721
21.544346900318832,3931294.0,6.596397,71.2995
46.41588833612777,3911390.0,-23.06249,71.2992
100.0,385089.1,-82.50962,71.2883
215.44346900318823,1188975.0,136.5006,71.2879
464.15888336127773,463480.9,171.0707,71.2674
1000.0,755102.3,29.70054,71.2872
2154.4346900318824,439035.4,-113.0529,71.2707
4641.588833612777,157025.5,-100.42,71.2798
10000.0,74959.61,-95.83211,71.2761
