Frequency,Impedance,Phase Angle,Temperature (Dry Bath)
10.0,7365.069,-36.62856,71.241
21.544346900318832,5522.151,-32.32235,71.2235
46.41588833612777,4293.448,-28.14002,71.2289
100.0,3475.706,-24.10279,71.234
215.44346900318823,2883.707,-19.8527,71.2332
464.15888336127773,2496.509,-16.45828,71.2173
1000.0,2203.255,-13.28067,71.2179
2154.4346900318824,2002.461,-11.52669,71.2267
4641.588833612777,1837.953,-9.699288,71.2094
10000.0,1733.567,-9.134402,71.2024
