Frequency,Impedance,Phase Angle,Temperature (Dry Bath)
10.0,24777.14,-20.32579,71.2985
21.544346900318832,21073.16,-17.9193,71.3045
46.41588833612777,18317.46,-15.63038,71.3061
100.0,16922.04,-11.63607,71.2923
215.44346900318823,14356.29,-13.26426,71.3069
464.15888336127773,13692.62,-9.850427,71.2899
1000.0,12768.41,-7.260333,71.2823
2154.4346900318824,11890.76,-10.33334,71.3071
4641.588833612777,11185.77,-9.819707,71.2957
10000.0,10043.35,-16.2949,71.2975
