Frequency,Impedance,Phase Angle,Temperature (Dry Bath)
10.0,7106910.0,-14.5044,71.1646
21.544346900318832,4704000.0,5.004418,71.1867
46.41588833612777,3951301.0,-15.50469,71.1613
100.0,1063880.0,174.9697,71.1813
215.44346900318823,1474186.0,23.19389,71.1784
464.15888336127773,1272991.0,-170.9818,71.1904
1000.0,368750.3,-72.61785,71.1899
2154.4346900318824,211688.3,-89.67918,71.1736
4641.588833612777,164839.4,-98.11249,71.1804
10000.0,67615.19,-82.5878,71.1829
