Frequency,Impedance,Phase Angle,Temperature (Dry Bath)
10.0,5230502.0,15.18036,71.2834
21.544346900318832,3956434.0,5.356955,71.288
46.41588833612777,4051052.0,-40.42273,71.2682
100.0,1332269.0,-168.5958,71.2705
215.44346900318823,585347.6,18.31053,71.2679
464.15888336127773,636779.1,-9.051691,71.2804
1000.0,855517.5,-117.9421,71.2676
2154.4346900318824,288541.8,-82.82871,71.2806
4641.588833612777,128321.3,-86.99669,71.273
10000.0,68575.34,-82.73013,71.2744
