Frequency,Impedance,Phase Angle,Temperature (Dry Bath)
10.0,12471.97,-26.89568,71.1782
21.544346900318832,10059.89,-24.18422,71.182
46.41588833612777,8307.206,-21.43743,71.1736
100.0,6995.005,-19.12585,71.184
215.44346900318823,6126.111,-16.30121,71.1819
464.15888336127773,5388.151,-14.33,71.1858
1000.0,4810.905,-12.31176,71.1709
2154.4346900318824,4398.788,-11.59156,71.189
4641.588833612777,4014.571,-11.80727,71.1851
10000.0,3698.785,-12.64452,71.1813
