Frequency,Impedance,Phase Angle,Temperature (Dry Bath)
10.0,5302279.0,10.84934,65.8431
21.544346900318832,7157547.0,-5.201893,65.8241
46.41588833612777,5346443.0,-34.248,65.8346
100.0,1484100.0,-70.72346,65.8385
215.44346900318823,420336.5,-89.27385,65.8365
464.15888336127773,702834.4,-76.54754,65.8412
1000.0,1158412.0,-23.31696,65.8234
2154.4346900318824,574124.5,-78.14195,65.8237
4641.588833612777,154133.1,-88.49574,65.8425
10000.0,72842.67,-88.63395,65.8253
