Frequency,Impedance,Phase Angle,Temperature (Dry Bath)
10.0,6700965.0,-27.00971,70.63
21.544346900318832,5647521.0,21.41616,70.6465
46.41588833612777,5067791.0,-32.12386,70.6391
100.0,440397.8,-84.46841,70.6156
215.44346900318823,1715138.0,32.59364,70.6385
464.15888336127773,422695.7,-87.04013,70.6266
1000.0,375293.2,-112.6968,70.6398
2154.4346900318824,225544.9,-58.06228,70.6336
4641.588833612777,129227.5,-96.91343,70.639
10000.0,56760.99,-79.89068,70.6281
