Frequency,Impedance,Phase Angle,Temperature (Dry Bath)
10.0,190844.7,-26.55768,65.8484
21.544346900318832,154294.6,-24.83893,65.8425
46.41588833612777,124965.8,-22.58913,65.8477
100.0,105758.0,-21.79011,65.845
215.44346900318823,9826.622,-133.6449,65.8349
464.15888336127773,82365.39,-14.2812,65.8488
1000.0,70995.76,-16.31283,65.8508
2154.4346900318824,57849.31,-24.3527,65.8508
4641.588833612777,47841.43,-32.96402,65.8383
10000.0,37337.41,-48.88616,65.8364
