Frequency,Impedance,Phase Angle,Temperature (Dry Bath)
10.0,6637497.0,-17.7948,65.6558
21.544346900318832,6645169.0,-9.597529,65.6529
46.41588833612777,6481586.0,-17.80348,65.6435
100.0,714327.6,-61.12764,65.6468
215.44346900318823,7528.662,-117.7721,65.6592
464.15888336127773,962909.9,-4.133991,65.6418
1000.0,701589.0,-84.39003,65.665
2154.4346900318824,279406.2,-74.74746,65.6444
4641.588833612777,151996.2,-92.44862,65.6614
10000.0,68555.59,-83.0927,65.6534
