Frequency,Impedance,Phase Angle,Temperature (Dry Bath)
10.0,7588400.0,4.032616,70.604
21.544346900318832,5330317.0,-17.50888,70.5981
46.41588833612777,4096789.0,-24.42193,70.5907
100.0,271787.5,-7.338805,70.6159
215.44346900318823,857102.1,-84.36175,70.5985
464.15888336127773,701502.2,-78.99464,70.5955
1000.0,870645.5,-85.01837,70.5762
2154.4346900318824,476646.2,-99.46543,70.5848
4641.588833612777,100812.5,-86.07225,70.5901
10000.0,53664.69,-90.83542,70.5961
