Frequency,Impedance,Phase Angle,Temperature (Dry Bath)
10.0,266248.4,-14.99645,71.0229
21.544346900318832,237965.9,-15.94731,71.0241
46.41588833612777,208572.4,-15.87967,71.0224
100.0,151090.3,-32.80576,71.0265
215.44346900318823,137295.1,-35.88907,71.024
464.15888336127773,148443.3,-9.595802,71.0345
1000.0,95506.55,-20.60005,71.0238
2154.4346900318824,107477.0,-36.75052,71.0191
4641.588833612777,59858.21,-24.95058,71.0372
10000.0,77419.88,-44.15797,71.0228
