Frequency,Impedance,Phase Angle,Temperature (Dry Bath)
10.0,3238472.0,-4.248153,71.1724
21.544346900318832,4670191.0,-17.37636,71.1803
46.41588833612777,4680727.0,7.264112,71.1811
100.0,1450582.0,-174.4964,71.1881
215.44346900318823,680130.1,21.40642,71.1782
464.15888336127773,1117080.0,-97.53076,71.1663
1000.0,835267.2,-164.6337,71.172
2154.4346900318824,436620.5,-91.64916,71.1878
4641.588833612777,199427.1,-82.96859,71.1829
10000.0,128173.8,-92.20258,71.1853
