Frequency,Impedance,Phase Angle,Temperature (Dry Bath)
10.0,3691292.0,-29.36429,71.1693
21.544346900318832,7852710.0,-25.94944,71.182
46.41588833612777,5345427.0,-13.21298,71.1816
100.0,1345501.0,126.7944,71.1833
215.44346900318823,988003.2,-113.7324,71.1767
464.15888336127773,453073.4,-78.50674,71.163
1000.0,1355686.0,-49.26665,71.1693
2154.4346900318824,559953.3,-91.05172,71.1789
4641.588833612777,112363.3,-85.88863,71.1678
10000.0,63728.07,-87.63046,71.1758
