Frequency,Impedance,Phase Angle,Temperature (Dry Bath)
10.0,18652.82,-22.55773,71.5217
21.544346900318832,15421.73,-21.58083,71.5262
46.41588833612777,12894.82,-20.1593,71.5193
100.0,10845.89,-16.66687,71.5254
215.44346900318823,9532.571,-15.76444,71.5143
464.15888336127773,8378.71,-13.60743,71.5157
1000.0,7602.4,-11.43219,71.5268
2154.4346900318824,6989.629,-10.33016,71.5279
4641.588833612777,6520.749,-9.6338,71.5144
10000.0,6073.862,-9.948281,71.505
