Frequency,Impedance,Phase Angle,Temperature (Dry Bath)
10.0,10644.97,-25.92877,71.4612
21.544346900318832,8669.87,-22.93143,71.4766
46.41588833612777,7235.129,-20.07686,71.4719
100.0,6230.66,-16.96585,71.4626
215.44346900318823,5378.779,-15.00707,71.459
464.15888336127773,4837.789,-12.77259,71.4658
1000.0,4359.106,-10.8345,71.4775
2154.4346900318824,4028.263,-10.13195,71.4659
4641.588833612777,3776.792,-9.234007,71.4663
10000.0,3556.892,-10.73454,71.4733
