Frequency,Impedance,Phase Angle,Temperature (Dry Bath)
10.0,1645351.0,-7.036401,66.1648
21.544346900318832,1684392.0,-15.34385,66.1782
46.41588833612777,1483134.0,-12.08017,66.1591
100.0,396422.2,70.70522,66.182
215.44346900318823,282489.2,-173.0249,66.1707
464.15888336127773,487889.3,-94.09818,66.1683
1000.0,294687.3,-55.55763,66.1919
2154.4346900318824,266627.1,-83.78395,66.1929
4641.588833612777,98136.87,-75.40435,66.1893
10000.0,65455.94,-77.78041,66.2048
