Frequency,Impedance,Phase Angle,Temperature (Dry Bath)
10.0,4651102.0,0.7290581,70.6867
21.544346900318832,3551476.0,18.65785,70.7089
46.41588833612777,4800663.0,-46.0213,70.6952
100.0,1470635.0,-160.3747,70.7157
215.44346900318823,541101.7,52.24417,70.6995
464.15888336127773,1844790.0,2.346893,70.687
1000.0,281189.0,-77.70956,70.6843
2154.4346900318824,347669.6,-120.3097,70.6895
4641.588833612777,108150.7,-74.09177,70.7108
10000.0,52048.14,-92.85649,70.7074
