Frequency,Impedance,Phase Angle,Temperature (Dry Bath)
10.0,6863410.0,1.745303,71.5577
21.544346900318832,6578359.0,-23.84749,71.535
46.41588833612777,5068600.0,-8.650545,71.5616
100.0,2165646.0,35.05971,71.5367
215.44346900318823,1628486.0,16.68117,71.5425
464.15888336127773,1596689.0,-27.12721,71.5357
1000.0,786092.1,-55.62592,71.5385
2154.4346900318824,611348.5,-67.99477,71.5322
4641.588833612777,277897.0,-85.60996,71.5167
10000.0,132885.7,-87.04393,71.5362
