Frequency,Impedance,Phase Angle,Temperature (Dry Bath)
10.0,3320734.0,-29.16236,70.9572
21.544346900318832,2558942.0,-35.98871,70.9683
46.41588833612777,2560519.0,-33.68056,70.9519
100.0,3038216.0,134.953,70.9677
215.44346900318823,426792.8,-63.93135,70.9535
464.15888336127773,1955504.0,171.6204,70.9622
1000.0,306936.7,-36.82234,70.9687
2154.4346900318824,255719.0,-92.96636,70.9643
4641.588833612777,112831.8,-76.54536,70.9649
10000.0,74211.42,-83.47474,70.951
