Frequency,Impedance,Phase Angle,Temperature (Dry Bath)
10.0,60153.91,-15.10331,71.4051
21.544346900318832,53986.02,-14.31852,71.4221
46.41588833612777,48552.36,-13.56275,71.4175
100.0,41036.59,-14.37757,71.4078
215.44346900318823,38111.93,-13.56101,71.4304
464.15888336127773,39931.55,-10.40204,71.4361
1000.0,37122.87,-13.00407,71.4346
2154.4346900318824,32373.98,-12.11296,71.4278
4641.588833612777,28166.1,-22.29946,71.4313
10000.0,25378.17,-29.93592,71.4241
