Frequency,Impedance,Phase Angle,Temperature (Dry Bath)
10.0,8148.421,-26.28565,70.9236
21.544346900318832,6602.418,-22.94614,70.9229
46.41588833612777,5533.251,-19.71584,70.9268
100.0,4786.992,-16.61761,70.9187
215.44346900318823,4234.711,-14.09906,70.917
464.15888336127773,3806.928,-12.06307,70.9264
1000.0,3480.446,-10.40658,70.9108
2154.4346900318824,3212.759,-9.787137,70.9119
4641.588833612777,3010.015,-9.02641,70.9301
10000.0,2816.325,-10.29854,70.9174
