Frequency,Impedance,Phase Angle,Temperature (Dry Bath)
10.0,3028036.0,-24.32729,71.1131
21.544346900318832,2430002.0,-23.74435,71.1476
46.41588833612777,3191792.0,-32.66688,71.1273
100.0,1108017.0,20.89865,71.1402
215.44346900318823,543267.9,-61.50516,71.1447
464.15888336127773,343739.1,-160.9896,71.157
1000.0,286025.0,-96.48834,71.1557
2154.4346900318824,211704.4,-71.71553,71.1519
4641.588833612777,134196.6,-90.23302,71.1306
10000.0,58475.9,-81.11644,71.1365
