Frequency,Impedance,Phase Angle,Temperature (Dry Bath)
10.0,4588678.0,-10.23528,65.7182
21.544346900318832,5404788.0,8.8431,65.716
46.41588833612777,4375575.0,-43.39466,65.6925
100.0,2122290.0,109.4354,65.693
215.44346900318823,942126.1,95.65266,65.6883
464.15888336127773,806555.3,-36.94428,65.7062
1000.0,350996.6,1.524498,65.6956
2154.4346900318824,203609.4,-80.26869,65.7011
4641.588833612777,203801.2,-81.10591,65.689
10000.0,73293.61,-78.86772,65.6905
