Frequency,Impedance,Phase Angle,Temperature (Dry Bath)
10.0,692637.8,-24.63831,71.0541
21.544346900318832,565812.9,-20.98399,71.0403
46.41588833612777,470102.2,-23.91139,71.0499
100.0,218617.7,-49.19962,71.0506
215.44346900318823,325574.1,-14.83496,71.0309
464.15888336127773,228724.4,-31.56387,71.0417
1000.0,250782.6,-36.12461,71.0276
2154.4346900318824,158765.8,-48.47322,71.0438
4641.588833612777,81652.49,-61.67102,71.0544
10000.0,49820.18,-76.37733,71.0474
