Frequency,Impedance,Phase Angle,Temperature (Dry Bath)
10.0,5268839.0,-14.80752,71.084
21.544346900318832,21327990.0,-29.4095,71.0841
46.41588833612777,4822017.0,-1.126152,71.0914
100.0,675481.8,133.9089,71.0929
215.44346900318823,2092922.0,-167.1224,71.0735
464.15888336127773,874844.6,-56.39334,71.0994
1000.0,415526.5,27.86419,71.0833
2154.4346900318824,387452.2,89.01831,71.1012
4641.588833612777,1071375.0,-151.525,71.1047
10000.0,135983.8,-90.67805,71.0949
