Frequency,Impedance,Phase Angle,Temperature (Dry Bath)
10.0,5149191.0,-20.59179,71.3606
21.544346900318832,5564338.0,17.81851,71.3698
46.41588833612777,4627315.0,-35.38109,71.358
100.0,373267.6,-89.36671,71.3775
215.44346900318823,1168740.0,-102.8235,71.3526
464.15888336127773,1025536.0,-59.8767,71.3583
1000.0,317727.9,-107.79,71.3643
2154.4346900318824,346888.5,-46.31782,71.3671
4641.588833612777,131021.1,-86.67511,71.3689
10000.0,63084.71,-80.91616,71.3796
