Frequency,Impedance,Phase Angle,Temperature (Dry Bath)
10.0,81889.3,-36.7378,66.3043
21.544346900318832,61791.52,-32.57372,66.2951
46.41588833612777,47378.59,-28.39266,66.2868
100.0,40109.1,-25.38927,66.2897
215.44346900318823,29911.95,-23.64492,66.2995
464.15888336127773,27846.43,-16.93183,66.3
1000.0,25168.47,-20.62537,66.2934
2154.4346900318824,20729.82,-14.93342,66.2842
4641.588833612777,19245.43,-21.37538,66.2882
10000.0,17652.33,-23.83029,66.297
