Frequency,Impedance,Phase Angle,Temperature (Dry Bath)
10.0,4176458.0,-3.920946,71.7716
21.544346900318832,7456346.0,0.6884284,71.7936
46.41588833612777,5134002.0,-18.41169,71.7693
100.0,601324.8,-91.21258,71.7876
215.44346900318823,368618.2,-8.831239,71.771
464.15888336127773,4196839.0,-27.27885,71.7571
1000.0,212835.8,-106.1656,71.7737
2154.4346900318824,394460.2,-81.83194,71.7519
4641.588833612777,263731.6,-62.92973,71.7617
10000.0,114749.8,-75.79544,71.7868
