Frequency,Impedance,Phase Angle,Temperature (Dry Bath)
10.0,4917224.0,-11.27365,71.5361
21.544346900318832,4137553.0,-5.102606,71.5429
46.41588833612777,4170148.0,-3.302826,71.5513
100.0,735541.2,-87.81435,71.5446
215.44346900318823,519251.1,5.981309,71.5429
464.15888336127773,448649.1,-96.22692,71.5476
1000.0,1338279.0,-22.90997,71.5495
2154.4346900318824,474429.4,-125.7112,71.5379
4641.588833612777,190155.1,-83.28131,71.5423
10000.0,146867.4,-84.71174,71.5504
