Frequency,Impedance,Phase Angle,Temperature (Dry Bath)
10.0,5677283.0,-6.844229,71.4784
21.544346900318832,3963784.0,-12.30672,71.5026
46.41588833612777,5723156.0,-1.654528,71.4982
100.0,558858.6,42.63917,71.492
215.44346900318823,716028.8,-170.1329,71.5028
464.15888336127773,1147449.0,-78.69664,71.5096
1000.0,808107.9,-34.58565,71.4885
2154.4346900318824,704662.1,-131.4282,71.4949
4641.588833612777,295501.3,-86.66955,71.5117
10000.0,168530.7,-84.22484,71.5104
