Frequency,Impedance,Phase Angle,Temperature (Dry Bath)
10.0,5665681.0,-15.26159,70.9902
21.544346900318832,2695277.0,-14.97534,70.9972
46.41588833612777,3804764.0,-22.77689,70.9884
100.0,403998.3,-12.62232,71.0009
215.44346900318823,684529.9,90.75837,70.9942
464.15888336127773,349710.1,-75.00278,70.9959
1000.0,2206234.0,22.34604,70.9903
2154.4346900318824,291099.4,-72.12216,70.9891
4641.588833612777,153368.0,-87.05322,70.9684
10000.0,63037.35,-82.43827,71.0009
