Frequency,Impedance,Phase Angle,Temperature (Dry Bath)
10.0,174112.0,-13.24774,66.3686
21.544346900318832,159164.1,-10.56038,66.3778
46.41588833612777,147065.8,-10.89494,66.3722
100.0,154023.1,-6.652898,66.3701
215.44346900318823,132399.0,-16.82813,66.3774
464.15888336127773,120220.2,-19.02909,66.3744
1000.0,91468.47,-14.41532,66.3738
2154.4346900318824,85290.62,-15.09167,66.3597
4641.588833612777,66743.21,-44.71915,66.3848
10000.0,46144.6,-54.74675,66.3857
