Frequency,Impedance,Phase Angle,Temperature (Dry Bath)
10.0,5980824.0,-8.30776,65.7004
21.544346900318832,2763901.0,-11.8497,65.7133
46.41588833612777,3912407.0,-23.16401,65.711
100.0,1875901.0,-51.95798,65.7042
215.44346900318823,17316.99,53.4126,65.7205
464.15888336127773,1098033.0,-112.3526,65.6988
1000.0,496344.1,-75.83089,65.7078
2154.4346900318824,436095.0,-76.00744,65.7097
4641.588833612777,129329.4,-80.61633,65.7091
10000.0,66851.64,-80.71527,65.7033
