Frequency,Impedance,Phase Angle,Temperature (Dry Bath)
10.0,5562080.0,-9.355111,65.8136
21.544346900318832,3371727.0,12.33203,65.8216
46.41588833612777,5399643.0,-23.10637,65.8133
100.0,1082074.0,73.89367,65.8303
215.44346900318823,357794.0,-80.75666,65.8266
464.15888336127773,3711093.0,-64.87087,65.8183
1000.0,462758.1,-54.43049,65.8176
2154.4346900318824,281394.7,-65.5518,65.8111
4641.588833612777,115110.5,-88.37664,65.8257
10000.0,64073.7,-85.50197,65.8193
