Frequency,Impedance,Phase Angle,Temperature (Dry Bath)
10.0,22648.43,-21.49911,65.7606
21.544346900318832,19109.71,-18.52312,65.7724
46.41588833612777,16548.12,-15.43084,65.7696
100.0,14552.72,-13.62701,65.7588
215.44346900318823,6405.514,27.64533,65.7633
464.15888336127773,12433.06,-9.70987,65.7597
1000.0,11950.21,-7.377154,65.7707
2154.4346900318824,11055.48,-7.846374,65.7683
4641.588833612777,10600.92,-10.7827,65.755
10000.0,10133.29,-14.20959,65.7679
