Frequency,Impedance,Phase Angle,Temperature (Dry Bath)
10.0,5513074.0,13.512,71.1273
21.544346900318832,5103795.0,-6.072559,71.1286
46.41588833612777,4158911.0,-14.9767,71.129
100.0,305112.5,24.09446,71.1263
215.44346900318823,813608.1,-170.1095,71.124
464.15888336127773,325747.6,35.80779,71.1354
1000.0,629840.4,42.56187,71.1218
2154.4346900318824,846472.6,-27.37209,71.1245
4641.588833612777,160031.5,-102.2785,71.1299
10000.0,144891.7,-94.41197,71.1183
