Frequency,Impedance,Phase Angle,Temperature (Dry Bath)
10.0,2610149.0,-11.07939,71.0646
21.544346900318832,2830661.0,0.4855062,71.0726
46.41588833612777,2577257.0,-13.98725,71.0612
100.0,246087.0,-52.1816,71.0722
215.44346900318823,594850.0,-39.73964,71.0735
464.15888336127773,379306.2,81.26754,71.0692
1000.0,92568.1,-92.79398,71.0805
2154.4346900318824,516148.4,-0.3247732,71.0758
4641.588833612777,246648.1,-84.34715,71.0737
10000.0,125610.2,-94.68291,71.0721
