Frequency,Impedance,Phase Angle,Temperature (Dry Bath)
10.0,4395925.0,-10.78856,71.2769
21.544346900318832,3627831.0,-17.46933,71.2763
46.41588833612777,3498181.0,-46.27589,71.2685
100.0,394311.0,-83.18132,71.2766
215.44346900318823,18216.39,-88.38147,71.2768
464.15888336127773,545737.3,-120.3484,71.2749
1000.0,621310.0,-31.76077,71.2686
2154.4346900318824,334980.1,-84.56118,71.2738
4641.588833612777,130796.0,-81.90017,71.2726
10000.0,55430.45,-84.78263,71.2739
