Frequency,Impedance,Phase Angle,Temperature (Dry Bath)
10.0,5216410.0,-3.280134,71.0124
21.544346900318832,4646500.0,-24.22997,71.0263
46.41588833612777,4874051.0,-30.94773,71.0122
100.0,911384.9,-55.61862,71.0238
215.44346900318823,4840845.0,-132.2602,71.0214
464.15888336127773,1602543.0,-128.2852,71.0237
1000.0,214413.9,-49.23853,71.0097
2154.4346900318824,236444.1,-101.27,71.0152
4641.588833612777,145337.8,-80.11741,71.0083
10000.0,74196.77,-74.15644,71.0324
