Frequency,Impedance,Phase Angle,Temperature (Dry Bath)
10.0,5683916.0,-6.66278,71.3777
21.544346900318832,6197060.0,-7.773789,71.388
46.41588833612777,6344288.0,-12.3662,71.382
100.0,446109.0,-35.1671,71.3808
215.44346900318823,2984361.0,34.86254,71.3829
464.15888336127773,1234084.0,33.10357,71.3923
1000.0,1253838.0,-48.44244,71.3909
2154.4346900318824,647773.0,-55.29942,71.3828
4641.588833612777,279368.1,-101.376,71.3711
10000.0,141246.5,-86.71302,71.3853
