Frequency,Impedance,Phase Angle,Temperature (Dry Bath)
10.0,3888886.0,-7.471441,65.7346
21.544346900318832,3728758.0,-20.98133,65.7419
46.41588833612777,5178534.0,-47.07326,65.7405
100.0,363321.5,0.1657689,65.7257
215.44346900318823,21525.3,37.98633,65.7361
464.15888336127773,841024.9,-80.23343,65.7441
1000.0,469541.8,-35.63942,65.7332
2154.4346900318824,159927.6,-80.86608,65.7466
4641.588833612777,137239.0,-87.30346,65.7408
10000.0,69190.51,-84.75176,65.7437
