Frequency,Impedance,Phase Angle,Temperature (Dry Bath)
10.0,4764390.0,-20.89247,71.0877
21.544346900318832,3555896.0,-58.80252,71.088
46.41588833612777,2730999.0,-40.33001,71.0976
100.0,334949.9,23.59482,71.0887
215.44346900318823,519608.2,-43.46224,71.0771
464.15888336127773,1004942.0,177.7882,71.0846
1000.0,1059069.0,-50.51238,71.0515
2154.4346900318824,326263.9,-66.24022,71.08
4641.588833612777,159757.5,-95.69644,71.0661
10000.0,63877.55,-73.99621,71.0496
