Frequency,Impedance,Phase Angle,Temperature (Dry Bath)
10.0,3653778.0,-33.43675,71.2487
21.544346900318832,3859515.0,-18.49528,71.2641
46.41588833612777,4821237.0,-21.99432,71.2747
100.0,2828314.0,-97.40886,71.2493
215.44346900318823,484497.1,-107.1393,71.2488
464.15888336127773,2370677.0,7.467675,71.2623
1000.0,532563.0,-84.20838,71.251
2154.4346900318824,233923.0,-92.28813,71.2722
4641.588833612777,180927.9,-88.06037,71.2555
10000.0,71602.37,-84.67906,71.2614
