Frequency,Impedance,Phase Angle,Temperature (Dry Bath)
10.0,5384453.0,16.31645,71.2594
21.544346900318832,5008996.0,-34.52731,71.2749
46.41588833612777,5702682.0,-10.23502,71.2552
100.0,656125.1,-0.08211472,71.2816
215.44346900318823,959425.3,-146.6496,71.2866
464.15888336127773,768996.7,122.0321,71.2891
1000.0,1060493.0,-24.57798,71.3046
2154.4346900318824,896013.5,-100.5428,71.3035
4641.588833612777,501259.2,-87.0663,71.2864
10000.0,109364.1,-84.65621,71.3295
