Frequency,Impedance,Phase Angle,Temperature (Dry Bath)
10.0,4138355.0,-25.00783,71.305
21.544346900318832,3388161.0,-37.17525,71.3189
46.41588833612777,2490946.0,-33.49232,71.3125
100.0,316241.5,-93.20107,71.3148
215.44346900318823,908183.2,-76.58251,71.3115
464.15888336127773,1198128.0,-49.70474,71.3082
1000.0,828432.0,-74.41947,71.2962
2154.4346900318824,315525.5,-80.27617,71.3097
4641.588833612777,118861.6,-84.26872,71.3199
10000.0,60740.49,-90.71124,71.3199
