Frequency,Impedance,Phase Angle,Temperature (Dry Bath)
10.0,1568425.0,-12.69715,66.2766
21.544346900318832,1553654.0,-15.98419,66.2634
46.41588833612777,1370045.0,-15.91847,66.2783
100.0,589353.3,18.39552,66.2874
215.44346900318823,471744.3,84.12651,66.2768
464.15888336127773,648577.2,-28.85649,66.2484
1000.0,309662.7,-80.91002,66.2595
2154.4346900318824,253892.5,-68.50883,66.2236
4641.588833612777,113411.1,-65.96566,66.2291
10000.0,54325.69,-79.93411,66.2172
