Frequency,Impedance,Phase Angle,Temperature (Dry Bath)
10.0,4178427.0,22.34573,70.9104
21.544346900318832,5890431.0,7.776232,70.9029
46.41588833612777,6140598.0,-28.24261,70.8943
100.0,2120716.0,97.26938,70.9135
215.44346900318823,791352.0,-123.7098,70.9026
464.15888336127773,368936.5,-65.29951,70.8932
1000.0,265909.3,-151.9128,70.8979
2154.4346900318824,238089.0,-87.867,70.8909
4641.588833612777,131550.5,-86.15072,70.8962
10000.0,80275.35,-89.99634,70.9094
