Frequency,Impedance,Phase Angle,Temperature (Dry Bath)
10.0,554386.4,-3.818084,71.5057
21.544346900318832,563454.3,-4.375731,71.4932
46.41588833612777,538877.2,-4.454688,71.4968
100.0,911370.7,10.80547,71.5016
215.44346900318823,384279.6,5.787172,71.5031
464.15888336127773,417349.9,-66.34566,71.4954
1000.0,298883.3,-43.14193,71.4968
2154.4346900318824,356345.1,-37.01109,71.492
4641.588833612777,200375.3,-61.26302,71.5094
10000.0,96891.99,-71.48491,71.4963
