Frequency,Impedance,Phase Angle,Temperature (Dry Bath)
10.0,4317458.0,-33.68838,69.5172
21.544346900318832,5404510.0,-21.7363,69.5201
46.41588833612777,4011478.0,-41.8685,69.5338
100.0,1935409.0,-129.7552,69.5232
215.44346900318823,758922.1,80.93199,69.5227
464.15888336127773,698829.6,-31.34645,69.5398
1000.0,460983.3,-29.52519,69.5268
2154.4346900318824,220883.9,-97.47127,69.5447
4641.588833612777,94662.63,-79.53143,69.5454
10000.0,44389.78,-88.25813,69.5446
