Frequency,Impedance,Phase Angle,Temperature (Dry Bath)
10.0,23668.24,-19.64522,71.1665
21.544346900318832,20357.39,-17.44423,71.1683
46.41588833612777,17719.09,-15.70395,71.1646
100.0,15655.18,-13.26307,71.1563
215.44346900318823,14359.27,-13.50705,71.1519
464.15888336127773,12704.82,-11.26734,71.1612
1000.0,11456.29,-8.188342,71.1672
2154.4346900318824,11002.07,-9.456557,71.1607
4641.588833612777,10188.69,-11.72223,71.1762
10000.0,9420.913,-18.12167,71.1562
