Frequency,Impedance,Phase Angle,Temperature (Dry Bath)
10.0,5700158.0,-6.343898,71.2827
21.544346900318832,5371248.0,-20.81982,71.2627
46.41588833612777,5043722.0,-12.43495,71.2651
100.0,1679175.0,-173.302,71.2665
215.44346900318823,559848.3,-79.55765,71.2822
464.15888336127773,1633142.0,157.0393,71.2695
1000.0,289369.6,-44.76877,71.2668
2154.4346900318824,398528.6,-98.12766,71.2827
4641.588833612777,132130.6,-84.31476,71.2931
10000.0,67427.02,-89.13991,71.296
