Frequency,Impedance,Phase Angle,Temperature (Dry Bath)
10.0,270921.6,-22.63617,71.2832
21.544346900318832,224223.9,-22.47157,71.2858
46.41588833612777,189013.3,-19.928,71.2561
100.0,116872.9,-23.69263,71.288
215.44346900318823,130208.0,-15.22218,71.2751
464.15888336127773,119671.5,-17.89332,71.2619
1000.0,95135.49,-22.9217,71.2751
2154.4346900318824,88360.62,-26.60156,71.2742
4641.588833612777,68567.37,-45.78284,71.2683
10000.0,41818.42,-60.47019,71.2763
