Frequency,Impedance,Phase Angle,Temperature (Dry Bath)
10.0,5083861.0,-22.56645,71.859
21.544346900318832,5291536.0,17.13424,71.8611
46.41588833612777,5163702.0,-2.804981,71.8609
100.0,405526.9,60.01006,71.8592
215.44346900318823,2229970.0,55.35499,71.8507
464.15888336127773,1122758.0,-55.34419,71.8554
1000.0,1644727.0,79.92736,71.8742
2154.4346900318824,179224.7,-99.35274,71.8589
4641.588833612777,291774.2,-61.50501,71.8615
10000.0,94958.92,-95.85725,71.8563
