Frequency,Impedance,Phase Angle,Temperature (Dry Bath)
10.0,12255390.0,-31.97101,71.3535
21.544346900318832,5228898.0,1.237487,71.3515
46.41588833612777,5406442.0,20.95026,71.3455
100.0,523084.2,45.4551,71.3679
215.44346900318823,7924.16,-13.44826,71.3327
464.15888336127773,988012.3,-97.88126,71.3364
1000.0,379709.4,-74.40194,71.3508
2154.4346900318824,243953.6,-88.6797,71.3475
4641.588833612777,117720.1,-95.51637,71.3513
10000.0,53029.14,-85.50891,71.3549
