Frequency,Impedance,Phase Angle,Temperature (Dry Bath)
10.0,174570.5,-11.96286,66.225
21.544346900318832,159996.6,-11.13963,66.2256
46.41588833612777,145729.9,-11.30765,66.2204
100.0,131144.2,-6.088271,66.2364
215.44346900318823,101360.9,5.243451,66.2185
464.15888336127773,103091.2,-17.62744,66.2202
1000.0,118854.5,-10.25882,66.2318
2154.4346900318824,87083.66,-20.65558,66.2348
4641.588833612777,85057.4,-38.98675,66.2427
10000.0,48440.45,-59.58012,66.2228
