Frequency,Impedance,Phase Angle,Temperature (Dry Bath)
10.0,13356450.0,-21.3337,71.266
21.544346900318832,5091836.0,-20.81058,71.2564
46.41588833612777,3880608.0,8.773192,71.2762
100.0,872823.7,10.60751,71.2717
215.44346900318823,2401544.0,-90.31759,71.2624
464.15888336127773,1099159.0,-63.50198,71.2609
1000.0,600378.7,-48.00414,71.2763
2154.4346900318824,551618.0,-101.0479,71.2582
4641.588833612777,306730.1,-84.84657,71.262
10000.0,122537.7,-92.37034,71.2673
