Frequency,Impedance,Phase Angle,Temperature (Dry Bath)
10.0,4824144.0,-9.522678,71.117
21.544346900318832,6800025.0,30.37246,71.124
46.41588833612777,5848388.0,-37.41828,71.135
100.0,302239.5,59.06923,71.1328
215.44346900318823,538180.4,2.238183,71.138
464.15888336127773,597114.1,-135.4465,71.1404
1000.0,403493.3,-137.8654,71.1337
2154.4346900318824,660519.4,-67.31674,71.1336
4641.588833612777,146231.4,-94.16435,71.1437
10000.0,73146.75,-92.56019,71.1414
