Frequency,Impedance,Phase Angle,Temperature (Dry Bath)
10.0,1868409.0,-20.44973,65.7543
21.544346900318832,1853926.0,-18.7136,65.7645
46.41588833612777,1437352.0,-14.30569,65.7566
100.0,283679.6,-18.00838,65.7643
215.44346900318823,13862.51,-76.81327,65.7574
464.15888336127773,1078809.0,-18.33762,65.7743
1000.0,709190.5,18.64908,65.7753
2154.4346900318824,196278.2,-72.58317,65.7659
4641.588833612777,143211.5,-87.42462,65.7662
10000.0,113295.5,-70.02306,65.7686
