Frequency,Impedance,Phase Angle,Temperature (Dry Bath)
10.0,49267.6,-68.71331,69.6699
21.544346900318832,27443.3,-64.11134,69.6862
46.41588833612777,16135.74,-58.16123,69.6744
100.0,9871.773,-52.55599,69.6603
215.44346900318823,6472.552,-44.82201,69.6705
464.15888336127773,4573.827,-35.73412,69.6837
1000.0,3568.4,-27.11902,69.6743
2154.4346900318824,2990.839,-21.01861,69.6876
4641.588833612777,2602.353,-18.17788,69.6826
10000.0,2280.759,-15.85398,69.6817
