Frequency,Impedance,Phase Angle,Temperature (Dry Bath)
10.0,5916740.0,-1.543108,71.7431
21.544346900318832,3414378.0,-10.76394,71.7408
46.41588833612777,5246806.0,2.394489,71.7425
100.0,400385.6,10.44218,71.746
215.44346900318823,350367.6,113.2662,71.7481
464.15888336127773,796632.3,-164.2515,71.7448
1000.0,633884.2,-9.490613,71.7415
2154.4346900318824,510609.3,-141.7491,71.7301
4641.588833612777,153362.8,-67.52231,71.7291
10000.0,136366.2,-82.65936,71.7304
