Frequency,Impedance,Phase Angle,Temperature (Dry Bath)
10.0,23241.73,-21.33343,66.3
21.544346900318832,19575.23,-18.27036,66.3033
46.41588833612777,16988.98,-15.52255,66.3092
100.0,14845.78,-13.34596,66.3123
215.44346900318823,13088.02,-14.27959,66.2997
464.15888336127773,12702.74,-8.090399,66.3089
1000.0,11930.68,-8.203274,66.3071
2154.4346900318824,11294.25,-7.919478,66.3036
4641.588833612777,10927.97,-11.49634,66.3042
10000.0,10176.23,-14.68178,66.3036
