Frequency,Impedance,Phase Angle,Temperature (Dry Bath)
10.0,151751.6,-14.46084,71.1075
21.544346900318832,134265.0,-12.18691,71.1342
46.41588833612777,123894.3,-12.10425,71.1309
100.0,104711.0,-13.1161,71.1406
215.44346900318823,94110.17,-9.536397,71.1244
464.15888336127773,81544.04,-11.58516,71.1234
1000.0,86485.49,-12.64433,71.1272
2154.4346900318824,78862.05,-16.54216,71.1242
4641.588833612777,59157.91,-22.49008,71.1242
10000.0,73189.47,-19.543,71.1256
