Frequency,Impedance,Phase Angle,Temperature (Dry Bath)
10.0,8452772.0,-29.49121,71.4071
21.544346900318832,3750866.0,-2.420227,71.4056
46.41588833612777,3734892.0,-28.18812,71.4248
100.0,117281.9,14.63237,71.3948
215.44346900318823,437939.5,-81.21261,71.4058
464.15888336127773,799723.3,-50.57915,71.4058
1000.0,335438.7,-119.26,71.4108
2154.4346900318824,284035.7,-69.64621,71.391
4641.588833612777,137539.4,-87.26087,71.3944
10000.0,69409.18,-85.71477,71.3929
