Frequency,Impedance,Phase Angle,Temperature (Dry Bath)
10.0,6496069.0,-24.70235,65.6475
21.544346900318832,6323796.0,-25.81192,65.6542
46.41588833612777,4137534.0,-47.55993,65.6531
100.0,590011.1,-76.46471,65.6562
215.44346900318823,61490.7,37.72028,65.6546
464.15888336127773,809611.8,-33.89329,65.6616
1000.0,589724.3,-112.7162,65.6634
2154.4346900318824,264485.5,-96.35648,65.666
4641.588833612777,149869.0,-82.44902,65.6587
10000.0,61425.23,-90.78302,65.655
