Frequency,Impedance,Phase Angle,Temperature (Dry Bath)
10.0,2639359.0,13.42324,70.8075
21.544346900318832,3938384.0,-11.09742,70.8031
46.41588833612777,2600264.0,-13.14811,70.8238
100.0,379635.3,75.48009,70.8051
215.44346900318823,596925.4,-84.80285,70.8056
464.15888336127773,827300.6,-144.4486,70.8043
1000.0,730580.9,-50.33136,70.8003
2154.4346900318824,310318.7,-82.85955,70.8103
4641.588833612777,95437.86,-95.11477,70.8028
10000.0,54005.49,-88.08529,70.816
