Frequency,Impedance,Phase Angle,Temperature (Dry Bath)
10.0,5788647.0,5.804048,71.2433
21.544346900318832,3667124.0,-4.361131,71.2341
46.41588833612777,4964155.0,-4.185286,71.2236
100.0,592439.5,-1.40063,71.2156
215.44346900318823,334416.3,-30.27458,71.237
464.15888336127773,509845.2,-132.8499,71.2364
1000.0,772373.7,178.7734,71.2313
2154.4346900318824,380943.1,-7.938181,71.2373
4641.588833612777,904883.4,-133.5361,71.2297
10000.0,182549.5,-78.20704,71.2219
