Frequency,Impedance,Phase Angle,Temperature (Dry Bath)
10.0,4872206.0,1.333085,72.2293
21.544346900318832,4886932.0,0.1602267,72.2377
46.41588833612777,6469372.0,-29.0897,72.2297
100.0,1048255.0,-125.9031,72.242
215.44346900318823,436761.5,-170.6244,72.2322
464.15888336127773,610249.2,-57.91837,72.2217
1000.0,2090879.0,117.102,72.2399
2154.4346900318824,572970.4,-159.6018,72.2519
4641.588833612777,208431.1,-109.1002,72.2392
10000.0,129089.3,-102.0333,72.2206
