Frequency,Impedance,Phase Angle,Temperature (Dry Bath)
10.0,3278327.0,-5.686132,71.3704
21.544346900318832,2894774.0,-11.89837,71.369
46.41588833612777,2043002.0,-29.54973,71.3782
100.0,1822646.0,-91.8548,71.3756
215.44346900318823,1132348.0,8.734337,71.362
464.15888336127773,766279.9,-114.7297,71.3661
1000.0,515342.0,-48.19212,71.3674
2154.4346900318824,254417.5,-81.96371,71.3705
4641.588833612777,110277.7,-76.79437,71.363
10000.0,76279.79,-80.32717,71.3802
