Frequency,Impedance,Phase Angle,Temperature (Dry Bath)
10.0,287675.1,-15.02178,71.9976
21.544346900318832,246290.1,-14.80217,71.994
46.41588833612777,218430.8,-14.96497,72.0031
100.0,133937.4,-24.26458,71.9975
215.44346900318823,172652.7,-31.65291,72.0139
464.15888336127773,128450.4,-12.15227,71.9979
1000.0,160153.9,-5.646851,72.0024
2154.4346900318824,109163.1,-34.24926,71.9985
4641.588833612777,71991.17,-44.16562,71.9915
10000.0,74491.95,-53.51543,71.9875
