Frequency,Impedance,Phase Angle,Temperature (Dry Bath)
10.0,11408870.0,-25.36166,71.2382
21.544346900318832,4945970.0,11.83775,71.252
46.41588833612777,6437051.0,1.055133,71.232
100.0,1307778.0,-99.73714,71.2154
215.44346900318823,590464.3,-163.1554,71.2278
464.15888336127773,2011086.0,167.6922,71.2394
1000.0,1360688.0,44.16848,71.235
2154.4346900318824,201291.0,-88.51364,71.242
4641.588833612777,136591.1,-90.06241,71.2857
10000.0,64865.08,-86.98352,71.2345
