Frequency,Impedance,Phase Angle,Temperature (Dry Bath)
10.0,160937.7,-9.447992,66.4301
21.544346900318832,153013.1,-7.724365,66.427
46.41588833612777,142601.5,-7.898056,66.4331
100.0,110780.1,-14.2662,66.4271
215.44346900318823,132226.7,-8.736796,66.4331
464.15888336127773,119615.6,-8.334432,66.4247
1000.0,113906.3,-23.96896,66.4292
2154.4346900318824,100773.1,-25.44799,66.4351
4641.588833612777,62185.13,-53.02457,66.4265
10000.0,45516.35,-64.7223,66.4306
