Frequency,Impedance,Phase Angle,Temperature (Dry Bath)
10.0,148662.8,-10.61819,71.185
21.544346900318832,139699.3,-8.473835,71.1874
46.41588833612777,131550.5,-8.8447,71.1936
100.0,116161.4,-0.7771445,71.1965
215.44346900318823,112770.8,-13.63245,71.191
464.15888336127773,100668.7,-15.76936,71.1861
1000.0,104165.9,-15.03966,71.1918
2154.4346900318824,86331.7,-22.18841,71.18
4641.588833612777,77408.19,-55.81681,71.1854
10000.0,39790.64,-56.62112,71.2036
