Frequency,Impedance,Phase Angle,Temperature (Dry Bath)
10.0,4518385.0,-15.69826,71.3005
21.544346900318832,6006223.0,-42.35877,71.306
46.41588833612777,12493190.0,-26.55672,71.3023
100.0,1128049.0,-80.25002,71.298
215.44346900318823,65391.64,53.79044,71.2875
464.15888336127773,534651.3,-65.4044,71.2874
1000.0,430150.7,-125.9739,71.2963
2154.4346900318824,269344.8,-89.29154,71.308
4641.588833612777,123601.9,-75.66798,71.2948
10000.0,60765.28,-82.41641,71.2942
