Frequency,Impedance,Phase Angle,Temperature (Dry Bath)
10.0,202605.7,-26.93365,66.1788
21.544346900318832,168089.3,-24.26058,66.1685
46.41588833612777,134172.2,-22.19192,66.1671
100.0,104050.6,-14.46381,66.1851
215.44346900318823,81223.81,-14.26178,66.1761
464.15888336127773,90887.49,-16.66919,66.1808
1000.0,74479.72,-18.93169,66.1819
2154.4346900318824,61663.23,-34.56102,66.1799
4641.588833612777,54287.92,-32.44524,66.1677
10000.0,34390.41,-51.61517,66.1848
