Frequency,Impedance,Phase Angle,Temperature (Dry Bath)
10.0,11607.24,-27.03312,70.7647
21.544346900318832,9373.171,-23.87248,70.7626
46.41588833612777,7770.297,-20.67776,70.7559
100.0,6650.489,-17.88391,70.7517
215.44346900318823,5818.856,-15.10645,70.7603
464.15888336127773,5224.117,-12.25988,70.7581
1000.0,4824.139,-11.79132,70.7759
2154.4346900318824,4377.087,-10.00001,70.7611
4641.588833612777,4077.883,-10.31845,70.7634
10000.0,3788.202,-11.89655,70.7503
