Frequency,Impedance,Phase Angle,Temperature (Dry Bath)
10.0,5688063.0,-34.83317,71.468
21.544346900318832,5310431.0,11.00834,71.4683
46.41588833612777,4435533.0,-34.29283,71.4473
100.0,405394.5,54.12712,71.4615
215.44346900318823,818038.1,-64.74835,71.4628
464.15888336127773,835377.6,-48.57971,71.4622
1000.0,1072052.0,119.5615,71.477
2154.4346900318824,366822.2,-60.71161,71.4675
4641.588833612777,172229.6,-87.16683,71.4637
10000.0,65932.95,-89.17048,71.466
