Frequency,Impedance,Phase Angle,Temperature (Dry Bath)
10.0,876030.4,-27.62708,71.2625
21.544346900318832,649509.6,-31.23846,71.2469
46.41588833612777,525198.2,-26.61505,71.2732
100.0,372728.2,-21.98933,71.2439
215.44346900318823,214919.1,51.40244,71.2624
464.15888336127773,250277.9,-18.01442,71.2591
1000.0,452022.7,-35.3322,71.2541
2154.4346900318824,150731.6,-44.97075,71.2651
4641.588833612777,95411.92,-57.17302,71.2624
10000.0,54060.66,-71.56454,71.2441
