Frequency,Impedance,Phase Angle,Temperature (Dry Bath)
10.0,4154893.0,-15.173,65.7222
21.544346900318832,9023094.0,-12.88989,65.7264
46.41588833612777,4256487.0,-24.85928,65.7134
100.0,1358926.0,-129.4591,65.7149
215.44346900318823,25441.09,-146.0225,65.7301
464.15888336127773,1546891.0,-18.44352,65.7335
1000.0,336024.4,-58.01204,65.7265
2154.4346900318824,284780.2,-73.13266,65.717
4641.588833612777,124327.1,-87.50241,65.7313
10000.0,67089.92,-86.4224,65.7243
