Frequency,Impedance,Phase Angle,Temperature (Dry Bath)
10.0,641668.0,-6.92967,71.5459
21.544346900318832,605679.1,-6.073458,71.5509
46.41588833612777,581519.0,-6.495382,71.5536
100.0,1082927.0,40.69729,71.5545
215.44346900318823,512861.2,-17.31056,71.5565
464.15888336127773,468968.3,-52.32416,71.5602
1000.0,608774.5,-32.39744,71.5566
2154.4346900318824,443555.8,-56.68836,71.565
4641.588833612777,206592.8,-54.83554,71.5638
10000.0,108849.5,-63.6217,71.5711
