Frequency,Impedance,Phase Angle,Temperature (Dry Bath)
10.0,3346647.0,-21.2729,71.1152
21.544346900318832,15560590.0,-32.66342,71.1168
46.41588833612777,4132666.0,-33.41578,71.1039
100.0,566880.4,-92.56658,71.1013
215.44346900318823,684072.1,-13.69397,71.1302
464.15888336127773,697794.3,-36.519,71.1423
1000.0,551406.3,-72.48827,71.13
2154.4346900318824,354603.2,-78.75526,71.1157
4641.588833612777,129488.6,-83.43399,71.1078
10000.0,68309.02,-94.27021,71.1362
