Frequency,Impedance,Phase Angle,Temperature (Dry Bath)
10.0,13764.18,-27.93095,71.0799
21.544346900318832,10951.71,-25.4301,71.0766
46.41588833612777,8934.811,-22.79863,71.0763
100.0,7521.016,-19.85949,71.0682
215.44346900318823,6482.236,-17.39274,71.0717
464.15888336127773,5666.363,-15.20852,71.0479
1000.0,4963.05,-14.06999,71.0567
2154.4346900318824,4503.08,-12.19909,71.0639
4641.588833612777,4059.539,-12.38997,71.071
10000.0,3739.325,-13.36895,71.0709
