Frequency,Impedance,Phase Angle,Temperature (Dry Bath)
10.0,162395.3,-9.040692,65.6908
21.544346900318832,149128.5,-8.01544,65.7012
46.41588833612777,143628.0,-8.507304,65.7052
100.0,120107.4,-19.35391,65.7067
215.44346900318823,24796.24,49.15575,65.7184
464.15888336127773,115703.6,-13.92569,65.7042
1000.0,106090.7,-19.04602,65.7006
2154.4346900318824,107144.8,-30.63487,65.6946
4641.588833612777,76350.71,-48.03386,65.6968
10000.0,44792.02,-62.54386,65.6939
