Frequency,Impedance,Phase Angle,Temperature (Dry Bath)
10.0,4736933.0,-15.76595,25.8938
21.544346900318832,14450300.0,6.388534,26.0075
46.41588833612777,5445188.0,-22.61028,25.6657
100.0,1209463.0,-33.44234,26.1003
215.44346900318823,1105917.0,11.73269,26.0658
464.15888336127773,1125122.0,165.7554,26.1235
1000.0,641381.2,25.18237,26.1164
2154.4346900318824,574835.4,-70.48279,26.0954
4641.588833612777,247097.0,-85.67228,25.6569
10000.0,135437.8,-83.19323,26.1789
