Frequency,Impedance,Phase Angle,Temperature (Dry Bath)
10.0,111957.9,-14.60949,71.6518
21.544346900318832,101186.5,-13.27654,71.6533
46.41588833612777,91070.69,-12.1761,71.6594
100.0,73634.66,-8.450413,71.6527
215.44346900318823,76667.84,-7.625563,71.6423
464.15888336127773,69533.0,-7.655332,71.6627
1000.0,65594.22,-13.89187,71.659
2154.4346900318824,58640.78,-15.06293,71.6379
4641.588833612777,53055.63,-24.11402,71.6576
10000.0,46769.84,-30.62344,71.6423
