Frequency,Impedance,Phase Angle,Temperature (Dry Bath)
10.0,5783732.0,-46.85587,71.056
21.544346900318832,3609180.0,-34.06625,71.0312
46.41588833612777,2727792.0,-25.81278,71.0365
100.0,363023.4,-41.6361,71.0428
215.44346900318823,492587.9,-89.30922,71.0333
464.15888336127773,762602.2,-66.56731,71.0394
1000.0,342441.0,-66.74943,71.0191
2154.4346900318824,680849.4,-63.21995,71.0258
4641.588833612777,212716.9,-81.59725,71.0255
10000.0,65024.09,-91.27099,71.0289
