Frequency,Impedance,Phase Angle,Temperature (Dry Bath)
10.0,5166202.0,-13.61548,71.4717
21.544346900318832,3217636.0,-20.04139,71.4699
46.41588833612777,5168499.0,-32.88036,71.4636
100.0,361576.0,-1.441068,71.4611
215.44346900318823,1457551.0,14.20284,71.461
464.15888336127773,459899.0,-130.5069,71.4655
1000.0,254736.9,-80.8975,71.461
2154.4346900318824,327396.4,-97.33189,71.4437
4641.588833612777,123385.9,-102.0665,71.4574
10000.0,55615.5,-79.70177,71.4497
