Frequency,Impedance,Phase Angle,Temperature (Dry Bath)
10.0,160753.0,-9.760583,66.2059
21.544346900318832,151328.5,-9.375215,66.1831
46.41588833612777,142861.9,-8.002563,66.1799
100.0,115120.0,3.955811,66.2067
215.44346900318823,183587.7,5.033599,66.1565
464.15888336127773,122468.9,-29.80974,66.1699
1000.0,99289.3,-17.72315,66.1649
2154.4346900318824,85208.36,-32.41166,66.1892
4641.588833612777,66558.83,-42.95726,66.202
10000.0,44970.33,-59.51037,66.168
