Frequency,Impedance,Phase Angle,Temperature (Dry Bath)
10.0,3999889.0,-15.39847,71.3126
21.544346900318832,10580710.0,-12.68676,71.3276
46.41588833612777,4235629.0,-33.10681,71.3305
100.0,263156.6,-59.28901,71.3104
215.44346900318823,1357033.0,105.9288,71.3135
464.15888336127773,2552391.0,-45.88549,71.3183
1000.0,1222455.0,0.5223812,71.3309
2154.4346900318824,270045.2,-91.26504,71.3175
4641.588833612777,158770.7,-65.91353,71.3316
10000.0,72205.63,-85.98832,71.3164
