Frequency,Impedance,Phase Angle,Temperature (Dry Bath)
10.0,22114.48,-21.70064,65.7861
21.544346900318832,18639.88,-18.46674,65.7701
46.41588833612777,16154.6,-15.29406,65.7676
100.0,15040.61,-17.59847,65.7639
215.44346900318823,13861.95,-6.437982,65.7649
464.15888336127773,12552.03,-8.423828,65.7873
1000.0,11438.05,-7.006317,65.7808
2154.4346900318824,11436.68,-8.254585,65.7604
4641.588833612777,10757.69,-10.24069,65.7666
10000.0,10188.12,-14.61583,65.771
