Frequency,Impedance,Phase Angle,Temperature (Dry Bath)
10.0,4170947.0,-1.151755,70.4593
21.544346900318832,4097088.0,-31.37753,70.491
46.41588833612777,5902750.0,-39.32879,70.4677
100.0,1369503.0,40.67929,70.4845
215.44346900318823,582668.8,13.81613,70.469
464.15888336127773,428836.6,-62.83983,70.4743
1000.0,218019.3,-168.5159,70.4557
2154.4346900318824,183164.9,-85.65164,70.4893
4641.588833612777,101144.6,-64.50183,70.4698
10000.0,42861.46,-83.70494,70.4546
