Frequency,Impedance,Phase Angle,Temperature (Dry Bath)
10.0,6644871.0,5.159582,70.8747
21.544346900318832,4026248.0,-14.7897,70.892
46.41588833612777,4104985.0,-24.44433,70.8807
100.0,257119.9,-20.04406,70.8743
215.44346900318823,313678.0,-45.57421,70.8686
464.15888336127773,717452.8,-80.87834,70.8861
1000.0,642639.4,-145.2607,70.8806
2154.4346900318824,150090.5,-93.12114,70.8843
4641.588833612777,130462.0,-74.44236,70.8675
10000.0,61679.12,-83.92066,70.8751
