Frequency,Impedance,Phase Angle,Temperature (Dry Bath)
10.0,3745791.0,-1.619013,70.8327
21.544346900318832,4412313.0,-4.334708,70.8191
46.41588833612777,4574612.0,-9.631151,70.816
100.0,544058.2,-16.6556,70.8086
215.44346900318823,498110.1,-126.9046,70.8299
464.15888336127773,749011.4,-74.66044,70.8147
1000.0,397402.7,-97.75344,70.8071
2154.4346900318824,206444.2,-102.1478,70.8217
4641.588833612777,119460.3,-88.86098,70.8126
10000.0,57648.31,-88.84715,70.7996
