Frequency,Impedance,Phase Angle,Temperature (Dry Bath)
10.0,55737.66,-14.58437,70.9346
21.544346900318832,49414.33,-13.26229,70.9413
46.41588833612777,44851.06,-12.55162,70.9392
100.0,42695.41,-13.40123,70.9356
215.44346900318823,37088.62,-13.91083,70.936
464.15888336127773,33596.17,-12.43472,70.9426
1000.0,33080.19,-10.5898,70.9383
2154.4346900318824,27445.91,-19.75967,70.9592
4641.588833612777,23860.35,-23.04058,70.9299
10000.0,19504.67,-33.73967,70.9349
