Frequency,Impedance,Phase Angle,Temperature (Dry Bath)
10.0,7996.464,-30.89697,70.9816
21.544346900318832,6141.861,-29.57744,70.9772
46.41588833612777,4789.1,-27.55673,70.9846
100.0,3796.126,-24.67228,70.9799
215.44346900318823,3123.446,-21.62911,70.985
464.15888336127773,2629.116,-18.74086,70.973
1000.0,2277.823,-15.7897,70.979
2154.4346900318824,2027.467,-13.58799,70.9645
4641.588833612777,1835.904,-11.28029,70.9787
10000.0,1693.723,-10.93134,70.9801
