Frequency,Impedance,Phase Angle,Temperature (Dry Bath)
10.0,3804380.0,2.558469,71.3772
21.544346900318832,4962256.0,-0.5016455,71.3764
46.41588833612777,3163410.0,-10.8721,71.3751
100.0,5576426.0,-11.12184,71.3766
215.44346900318823,1450051.0,-149.9253,71.373
464.15888336127773,994116.0,-140.4448,71.3612
1000.0,1315661.0,170.3782,71.3657
2154.4346900318824,267806.0,-84.39426,71.3717
4641.588833612777,227270.1,-91.49164,71.3712
10000.0,88886.07,-79.29929,71.3949
