Frequency,Impedance,Phase Angle,Temperature (Dry Bath)
10.0,5413593.0,9.340955,66.3553
21.544346900318832,3512062.0,-14.28508,66.342
46.41588833612777,5643419.0,-40.95964,66.3361
100.0,1134643.0,-77.20108,66.3465
215.44346900318823,257895.9,105.2321,66.3367
464.15888336127773,1010735.0,-72.04864,66.344
1000.0,705653.8,-87.80047,66.3479
2154.4346900318824,228006.7,-88.66352,66.3445
4641.588833612777,153999.2,-72.81943,66.345
10000.0,72310.58,-86.58789,66.3495
