Frequency,Impedance,Phase Angle,Temperature (Dry Bath)
10.0,4785036.0,-14.58979,71.2482
21.544346900318832,5420121.0,-40.87262,71.2499
46.41588833612777,4532409.0,-40.94833,71.2557
100.0,1060441.0,-82.14492,71.2505
215.44346900318823,5069539.0,-76.56608,71.2494
464.15888336127773,787992.7,-16.13678,71.2402
1000.0,352701.3,-39.61292,71.2493
2154.4346900318824,248633.0,-86.79702,71.2593
4641.588833612777,114599.0,-82.43374,71.2372
10000.0,61549.29,-85.55023,71.2534
