Frequency,Impedance,Phase Angle,Temperature (Dry Bath)
10.0,4424391.0,-7.180093,70.9592
21.544346900318832,3953676.0,1.427869,70.9796
46.41588833612777,4563441.0,-13.89474,70.9699
100.0,427145.3,-145.8128,70.9445
215.44346900318823,589554.4,-87.67673,70.9663
464.15888336127773,625678.4,-109.954,70.9726
1000.0,753140.3,-73.6067,70.9696
2154.4346900318824,210866.9,-75.14418,70.9791
4641.588833612777,123930.3,-82.00698,70.9726
10000.0,62587.08,-88.32201,70.9942
