Frequency,Impedance,Phase Angle,Temperature (Dry Bath)
10.0,4390411.0,3.443704,71.4628
21.544346900318832,4595816.0,6.928411,71.459
46.41588833612777,4863031.0,-9.357563,71.4571
100.0,692622.3,-9.512778,71.4696
215.44346900318823,1066427.0,11.42989,71.4462
464.15888336127773,1293455.0,-51.05816,71.4639
1000.0,823113.5,-160.5545,71.4564
2154.4346900318824,417606.7,-71.93561,71.4731
4641.588833612777,284401.2,-83.50788,71.4511
10000.0,150602.0,-76.02053,71.4536
