Frequency,Impedance,Phase Angle,Temperature (Dry Bath)
10.0,4545122.0,0.405228,70.5894
21.544346900318832,10326100.0,0.1402888,70.602
46.41588833612777,3832673.0,-21.67482,70.599
100.0,961542.3,177.3767,70.6055
215.44346900318823,543649.7,-25.59691,70.5852
464.15888336127773,524123.9,-57.81098,70.5922
1000.0,423205.2,-126.058,70.5781
2154.4346900318824,315400.5,-94.47926,70.5881
4641.588833612777,110126.0,-92.96381,70.5858
10000.0,55709.11,-82.64601,70.5851
