Frequency,Impedance,Phase Angle,Temperature (Dry Bath)
10.0,6289352.0,6.441636,70.9915
21.544346900318832,7900106.0,-31.12646,70.9633
46.41588833612777,4095836.0,-27.4637,70.9769
100.0,945820.4,-41.37996,70.9877
215.44346900318823,1783902.0,80.48415,70.962
464.15888336127773,564171.0,-71.21407,70.9849
1000.0,658948.6,-118.3689,70.9733
2154.4346900318824,242554.2,-84.21018,70.9694
4641.588833612777,125437.7,-86.53012,70.9822
10000.0,63821.75,-93.27358,70.963
