Frequency,Impedance,Phase Angle,Temperature (Dry Bath)
10.0,5266460.0,1.812448,66.4208
21.544346900318832,4387180.0,-8.789039,66.4083
46.41588833612777,3679693.0,-13.47042,66.4077
100.0,722878.0,178.8879,66.4046
215.44346900318823,653901.9,-129.6659,66.4068
464.15888336127773,1122713.0,-101.0382,66.3981
1000.0,242830.4,-75.99297,66.4113
2154.4346900318824,356331.9,-79.01163,66.4242
4641.588833612777,151426.2,-86.07515,66.4261
10000.0,66224.02,-89.33924,66.4049
