Frequency,Impedance,Phase Angle,Temperature (Dry Bath)
10.0,2995901.0,-12.05888,71.3335
21.544346900318832,5325662.0,-42.24301,71.3262
46.41588833612777,3036473.0,21.34244,71.3262
100.0,444009.8,31.55816,71.3257
215.44346900318823,26223.62,-90.73682,71.3205
464.15888336127773,2424805.0,-111.1895,71.3359
1000.0,517372.7,-98.53869,71.3174
2154.4346900318824,344998.3,-90.88705,71.3161
4641.588833612777,162542.1,-92.26416,71.3319
10000.0,70768.72,-92.245,71.3176
