Frequency,Impedance,Phase Angle,Temperature (Dry Bath)
10.0,8740953.0,-16.3076,70.9305
21.544346900318832,5213748.0,-29.3567,70.924
46.41588833612777,4690534.0,-30.91379,70.9195
100.0,568011.0,90.99741,70.9198
215.44346900318823,542304.4,-53.26871,70.9226
464.15888336127773,786969.3,-111.0531,70.9117
1000.0,1698426.0,116.7252,70.9209
2154.4346900318824,171031.6,-88.79879,70.9132
4641.588833612777,112385.2,-88.77037,70.9118
10000.0,54347.42,-85.20061,70.9271
