Frequency,Impedance,Phase Angle,Temperature (Dry Bath)
10.0,67928.56,-14.75719,71.5035
21.544346900318832,61020.63,-12.95777,71.5096
46.41588833612777,55648.57,-12.08746,71.5178
100.0,53232.81,-12.62751,71.5146
215.44346900318823,50259.01,-9.886341,71.5015
464.15888336127773,41663.74,-6.824056,71.5069
1000.0,37369.79,-12.21524,71.5036
2154.4346900318824,38614.43,-15.69019,71.5214
4641.588833612777,34024.3,-16.59817,71.5095
10000.0,28628.87,-23.86556,71.5144
