Frequency,Impedance,Phase Angle,Temperature (Dry Bath)
10.0,5352551.0,-1.888354,65.8777
21.544346900318832,9241188.0,-20.04322,65.8859
46.41588833612777,7043749.0,-16.95243,65.8977
100.0,390957.9,64.11775,65.8813
215.44346900318823,6675.262,-83.82814,65.8629
464.15888336127773,1709190.0,-39.62701,65.8755
1000.0,539401.2,-90.05632,65.8682
2154.4346900318824,303521.4,-64.31009,65.8636
4641.588833612777,130070.5,-78.56069,65.8791
10000.0,69589.87,-84.36343,65.876
