Frequency,Impedance,Phase Angle,Temperature (Dry Bath)
10.0,11900.45,-24.1415,71.5041
21.544346900318832,9687.194,-24.36908,71.4884
46.41588833612777,7813.328,-24.32398,71.4724
100.0,6424.341,-22.64811,71.4933
215.44346900318823,5158.453,-22.36376,71.4823
464.15888336127773,4344.511,-19.63553,71.4985
1000.0,3710.614,-17.569,71.4963
2154.4346900318824,3220.213,-14.8505,71.4805
4641.588833612777,2880.411,-13.69714,71.4757
10000.0,2608.284,-12.42853,71.499
