Frequency,Impedance,Phase Angle,Temperature (Dry Bath)
10.0,14483.0,-17.72237,71.2092
21.544346900318832,12705.25,-16.38721,71.2043
46.41588833612777,11213.35,-15.85197,71.2181
100.0,10047.83,-15.71132,71.2137
215.44346900318823,8737.815,-13.69825,71.2286
464.15888336127773,7853.445,-12.15153,71.2073
1000.0,7046.638,-12.1966,71.2134
2154.4346900318824,6497.225,-10.13337,71.2247
4641.588833612777,6052.63,-9.855451,71.2166
10000.0,5624.965,-11.45397,71.2308
