Frequency,Impedance,Phase Angle,Temperature (Dry Bath)
10.0,1348794.0,-19.98619,70.9078
21.544346900318832,1048395.0,-23.77379,70.9208
46.41588833612777,824613.6,-24.57028,70.9045
100.0,366891.9,-26.72045,70.9225
215.44346900318823,351917.3,1.613972,70.9012
464.15888336127773,1265500.0,-18.3369,70.9145
1000.0,662143.8,-17.16547,70.9226
2154.4346900318824,152222.2,-74.92044,70.9174
4641.588833612777,82269.04,-75.11523,70.9166
10000.0,52468.94,-75.52888,70.9215
