Frequency,Impedance,Phase Angle,Temperature (Dry Bath)
10.0,907004.2,-29.15962,71.3495
21.544346900318832,679905.8,-28.78618,71.3586
46.41588833612777,625725.4,-17.91602,71.352
100.0,189398.9,-16.86026,71.3695
215.44346900318823,80089.1,51.86002,71.37
464.15888336127773,502734.3,-7.321978,71.3562
1000.0,236864.0,-55.51921,71.3548
2154.4346900318824,162987.1,-40.72437,71.3699
4641.588833612777,101876.6,-50.28226,71.3589
10000.0,54585.94,-70.57055,71.3513
