Frequency,Impedance,Phase Angle,Temperature (Dry Bath)
10.0,4844422.0,15.13273,71.4097
21.544346900318832,8283361.0,-4.945656,71.3896
46.41588833612777,4067480.0,-24.69184,71.3928
100.0,1597878.0,17.63538,71.3981
215.44346900318823,1604335.0,-145.0384,71.379
464.15888336127773,1152157.0,-112.2728,71.384
1000.0,512637.0,-66.43424,71.3879
2154.4346900318824,226204.8,-56.97873,71.3835
4641.588833612777,252783.1,-100.7921,71.4064
10000.0,106869.0,-85.92313,71.3804
