Frequency,Impedance,Phase Angle,Temperature (Dry Bath)
10.0,13265.97,-20.2252,71.0278
21.544346900318832,11376.87,-17.40586,71.0128
46.41588833612777,9973.067,-15.21832,71.0045
100.0,8739.58,-13.22011,70.9966
215.44346900318823,8060.485,-12.07115,71.0037
464.15888336127773,7329.454,-11.14105,71.0037
1000.0,6656.38,-10.56335,71.0172
2154.4346900318824,6300.164,-9.222849,70.9846
4641.588833612777,5907.987,-10.59862,70.9998
10000.0,5462.599,-13.15755,71.0004
