Frequency,Impedance,Phase Angle,Temperature (Dry Bath)
10.0,466188.8,-10.76297,71.0857
21.544346900318832,441546.6,-11.63858,71.0843
46.41588833612777,405328.2,-11.48967,71.0837
100.0,442857.5,-30.92057,71.0849
215.44346900318823,270389.6,-23.83096,71.0972
464.15888336127773,345583.1,-40.04925,71.0867
1000.0,143601.5,-35.38191,71.0985
2154.4346900318824,180444.6,-15.76343,71.0887
4641.588833612777,186954.4,-37.08867,71.089
10000.0,76057.93,-57.28371,71.0765
