Frequency,Impedance,Phase Angle,Temperature (Dry Bath)
10.0,4464003.0,0.9810165,66.0938
21.544346900318832,9255305.0,-61.4942,66.1156
46.41588833612777,3319827.0,-31.20207,66.1096
100.0,1144631.0,-169.0882,66.1106
215.44346900318823,1429928.0,-51.92109,66.1151
464.15888336127773,482591.5,-87.86373,66.114
1000.0,286224.4,-40.70957,66.1248
2154.4346900318824,224631.0,-66.5147,66.1195
4641.588833612777,113807.2,-86.58643,66.1164
10000.0,63214.5,-80.98537,66.1148
