Frequency,Impedance,Phase Angle,Temperature (Dry Bath)
10.0,10735110.0,28.52589,71.2584
21.544346900318832,7225622.0,20.07692,71.2428
46.41588833612777,6445646.0,-22.17734,71.2469
100.0,388862.7,24.94177,71.2632
215.44346900318823,649163.5,-29.65702,71.2598
464.15888336127773,908030.7,-45.98257,71.271
1000.0,497281.1,-102.0291,71.2672
2154.4346900318824,286144.1,-85.03674,71.2653
4641.588833612777,125211.7,-93.96791,71.2574
10000.0,56145.49,-83.2245,71.248
