Frequency,Impedance,Phase Angle,Temperature (Dry Bath)
10.0,6414732.0,-41.06834,71.3051
21.544346900318832,3632817.0,-10.52211,71.3077
46.41588833612777,4964478.0,-14.20878,71.3011
100.0,632388.8,170.3687,71.3114
215.44346900318823,658807.6,-166.9309,71.3065
464.15888336127773,680325.3,79.84616,71.3063
1000.0,703543.3,-45.68087,71.3107
2154.4346900318824,221354.1,-66.41829,71.2935
4641.588833612777,130120.4,-89.85236,71.3115
10000.0,68010.87,-93.40986,71.3196
