Frequency,Impedance,Phase Angle,Temperature (Dry Bath)
10.0,4873524.0,-8.995205,71.3115
21.544346900318832,8362156.0,-16.42796,71.3092
46.41588833612777,5458321.0,-11.22675,71.3007
100.0,369508.6,-12.97932,71.3069
215.44346900318823,857554.4,-67.6001,71.3025
464.15888336127773,555400.9,-167.009,71.3063
1000.0,470420.8,-19.83528,71.3185
2154.4346900318824,285673.3,-113.1156,71.3152
4641.588833612777,184977.9,-74.63247,71.2866
10000.0,73167.42,-75.54986,71.307
