Frequency,Impedance,Phase Angle,Temperature (Dry Bath)
10.0,600910.1,-24.78175,71.2979
21.544346900318832,460312.0,-26.21032,71.3111
46.41588833612777,368207.6,-25.0897,71.3162
100.0,1071529.0,-45.05331,71.2998
215.44346900318823,346153.9,-1.571125,71.3044
464.15888336127773,215107.4,-34.29775,71.3107
1000.0,118444.0,-24.22638,71.3158
2154.4346900318824,136228.3,-36.87642,71.3132
4641.588833612777,101728.4,-55.42942,71.3087
10000.0,55599.27,-67.79863,71.2862
