Frequency,Impedance,Phase Angle,Temperature (Dry Bath)
10.0,791039.6,-2.249927,71.0869
21.544346900318832,779546.0,-4.437445,71.1001
46.41588833612777,729762.7,-4.401702,71.0978
100.0,324498.4,-4.167181,71.1018
215.44346900318823,502872.0,71.72912,71.109
464.15888336127773,694796.7,8.178515,71.1167
1000.0,365884.3,-14.1198,71.1008
2154.4346900318824,401398.5,-2.428389,71.1044
4641.588833612777,247565.9,-42.36204,71.1068
10000.0,116833.0,-61.22323,71.0991
