Frequency,Impedance,Phase Angle,Temperature (Dry Bath)
10.0,8720.824,-25.51722,71.4047
21.544346900318832,6939.222,-26.34818,71.3945
46.41588833612777,5487.562,-26.28154,71.3896
100.0,4376.969,-25.3888,71.3997
215.44346900318823,3511.79,-23.6414,71.394
464.15888336127773,2904.269,-21.54718,71.3986
1000.0,2436.951,-19.00068,71.3915
2154.4346900318824,2090.068,-16.54809,71.396
4641.588833612777,1840.106,-14.40033,71.3946
10000.0,1656.752,-12.85123,71.3836
