Frequency,Impedance,Phase Angle,Temperature (Dry Bath)
10.0,7600098.0,3.270087,66.3409
21.544346900318832,4947407.0,12.68724,66.3518
46.41588833612777,4662446.0,-11.35739,66.3339
100.0,658849.8,15.71544,66.3339
215.44346900318823,470952.5,-96.73835,66.3479
464.15888336127773,2363902.0,-116.628,66.3432
1000.0,373126.2,-121.3955,66.3376
2154.4346900318824,306616.8,-89.49697,66.3482
4641.588833612777,156170.2,-106.7366,66.3537
10000.0,74405.09,-75.78691,66.358
