Frequency,Impedance,Phase Angle,Temperature (Dry Bath)
10.0,7948820.0,-14.65193,65.8031
21.544346900318832,3395156.0,-22.09367,65.8104
46.41588833612777,4761355.0,0.9353663,65.8041
100.0,6461091.0,-112.9357,65.7938
215.44346900318823,21616.61,-60.42795,65.7936
464.15888336127773,1393559.0,-101.0549,65.7951
1000.0,1984824.0,-168.7333,65.7981
2154.4346900318824,272151.7,-80.57673,65.8052
4641.588833612777,129674.6,-98.69001,65.8053
10000.0,70164.68,-83.4978,65.8026
