Frequency,Impedance,Phase Angle,Temperature (Dry Bath)
10.0,5326393.0,-31.75757,70.9299
21.544346900318832,7831217.0,22.11107,70.9275
46.41588833612777,4566201.0,-12.96573,70.9443
100.0,302352.7,-148.0846,70.9311
215.44346900318823,1062872.0,-20.53628,70.9446
464.15888336127773,528960.5,-49.95575,70.9353
1000.0,588424.4,-81.21646,70.9356
2154.4346900318824,238301.2,-109.3734,70.9386
4641.588833612777,126058.8,-85.88219,70.9297
10000.0,68844.97,-84.83344,70.9337
