Frequency,Impedance,Phase Angle,Temperature (Dry Bath)
10.0,4583822.0,-21.40023,66.3918
21.544346900318832,4201040.0,-3.727165,66.4039
46.41588833612777,6376473.0,-39.26503,66.415
100.0,651768.4,-78.01146,66.3984
215.44346900318823,454510.1,-108.621,66.4239
464.15888336127773,570400.2,-87.56196,66.3977
1000.0,513726.8,-80.42579,66.3844
2154.4346900318824,271556.6,-88.6453,66.3924
4641.588833612777,166250.2,-90.6237,66.4141
10000.0,63576.4,-81.54004,66.4002
