Frequency,Impedance,Phase Angle,Temperature (Dry Bath)
10.0,157506.9,-15.86163,29.1406
21.544346900318832,139637.9,-14.62813,29.1079
46.41588833612777,126054.5,-13.92424,29.0867
100.0,108812.4,-14.34684,28.7243
215.44346900318823,101274.1,-10.85954,28.6464
464.15888336127773,91503.61,-13.93766,28.8868
1000.0,82324.7,-16.46482,28.8579
2154.4346900318824,79090.14,-15.53343,28.7476
4641.588833612777,67222.89,-23.06497,28.8225
10000.0,58210.51,-29.34203,28.8937
