Frequency,Impedance,Phase Angle,Temperature (Dry Bath)
10.0,4376049.0,-28.73872,70.8722
21.544346900318832,5774397.0,12.26601,70.8973
46.41588833612777,3817465.0,-37.22651,70.8826
100.0,923693.1,-73.34655,70.8849
215.44346900318823,496051.3,-87.65504,70.881
464.15888336127773,1167047.0,-96.48241,70.885
1000.0,467237.8,-127.0138,70.8856
2154.4346900318824,331249.6,-94.021,70.873
4641.588833612777,140798.9,-87.00506,70.883
10000.0,60306.3,-84.87261,70.8819
