Frequency,Impedance,Phase Angle,Temperature (Dry Bath)
10.0,356479.8,-26.35188,71.0629
21.544346900318832,290959.5,-22.88445,71.0705
46.41588833612777,244975.0,-21.33667,71.0743
100.0,270382.6,3.160892,71.0626
215.44346900318823,151208.9,-24.21302,71.0787
464.15888336127773,158161.4,-24.86405,71.0638
1000.0,134789.1,-29.56518,71.068
2154.4346900318824,111312.8,-38.18462,71.0789
4641.588833612777,69987.29,-53.09388,71.0809
10000.0,41754.8,-65.06811,71.0863
