Frequency,Impedance,Phase Angle,Temperature (Dry Bath)
10.0,1071401.0,-10.88447,71.6582
21.544346900318832,1155408.0,-12.63786,71.6676
46.41588833612777,1002343.0,-8.651357,71.671
100.0,297283.8,3.53176,71.6799
215.44346900318823,606316.0,-68.93407,71.6648
464.15888336127773,2178257.0,-103.635,71.6625
1000.0,464995.5,-87.54175,71.661
2154.4346900318824,1757743.0,-176.6063,71.6705
4641.588833612777,355914.9,-69.42032,71.652
10000.0,103955.9,-76.15715,71.6598
