Frequency,Impedance,Phase Angle,Temperature (Dry Bath)
10.0,10051700.0,-25.9588,65.7194
21.544346900318832,9147301.0,-18.41562,65.7223
46.41588833612777,4847474.0,-20.74789,65.6983
100.0,965236.8,58.14577,65.7168
215.44346900318823,6606.336,93.82506,65.6839
464.15888336127773,3336486.0,-142.1236,65.7143
1000.0,537222.9,-77.34667,65.694
2154.4346900318824,191120.9,-85.94178,65.6941
4641.588833612777,147511.7,-68.65789,65.6841
10000.0,67408.21,-82.36683,65.7058
