Frequency,Impedance,Phase Angle,Temperature (Dry Bath)
10.0,4194275.0,-10.2645,71.0747
21.544346900318832,3839260.0,-7.208618,71.0715
46.41588833612777,5902691.0,-19.26435,71.0759
100.0,386696.4,50.76777,71.0545
215.44346900318823,1062515.0,-70.25188,71.0635
464.15888336127773,699248.6,52.8138,71.059
1000.0,431072.5,-134.7703,71.0743
2154.4346900318824,464131.1,161.9283,71.0614
4641.588833612777,302202.1,-88.04986,71.0602
10000.0,120828.1,-67.78802,71.0584
