Frequency,Impedance,Phase Angle,Temperature (Dry Bath)
10.0,269453.9,-24.35262,71.283
21.544346900318832,220372.2,-22.27078,71.3119
46.41588833612777,185171.0,-19.89486,71.2936
100.0,140245.3,-4.178721,71.2925
215.44346900318823,155591.6,-24.75672,71.2858
464.15888336127773,138056.5,-23.49596,71.2987
1000.0,89132.61,-32.33206,71.2882
2154.4346900318824,89457.81,-29.07047,71.2729
4641.588833612777,66182.72,-47.35453,71.2771
10000.0,39174.57,-61.43974,71.2823
