Frequency,Impedance,Phase Angle,Temperature (Dry Bath)
10.0,22601.06,-21.46989,65.7626
21.544346900318832,19002.72,-18.39206,65.7537
46.41588833612777,16461.13,-15.41218,65.7657
100.0,14851.86,-12.1142,65.7669
215.44346900318823,8578.704,32.83043,65.7827
464.15888336127773,12731.06,-9.703487,65.7655
1000.0,11792.4,-7.743582,65.7638
2154.4346900318824,11211.57,-7.607041,65.7637
4641.588833612777,10757.17,-9.719596,65.7697
10000.0,9909.125,-15.56475,65.7626
