Frequency,Impedance,Phase Angle,Temperature (Dry Bath)
10.0,7476.537,-30.52491,70.751
21.544346900318832,5889.669,-26.95773,70.7513
46.41588833612777,4785.789,-23.52898,70.7666
100.0,4000.94,-20.51678,70.7617
215.44346900318823,3424.223,-16.99924,70.7651
464.15888336127773,3011.094,-14.033,70.7577
1000.0,2748.216,-11.25136,70.7622
2154.4346900318824,2494.289,-9.45925,70.7613
4641.588833612777,2363.62,-8.272824,70.7444
10000.0,2238.354,-7.922396,70.7376
