Frequency,Impedance,Phase Angle,Temperature (Dry Bath)
10.0,5697377.0,-21.88423,70.7618
21.544346900318832,5167931.0,-30.65441,70.7831
46.41588833612777,4344904.0,-26.8739,70.7724
100.0,478144.1,7.513097,70.7589
215.44346900318823,4461467.0,-46.24725,70.7705
464.15888336127773,680317.4,19.03912,70.7545
1000.0,371260.5,-42.39421,70.7789
2154.4346900318824,212548.7,-84.14858,70.7678
4641.588833612777,172605.7,-76.56313,70.7478
10000.0,61448.56,-90.73087,70.7583
