Frequency,Impedance,Phase Angle,Temperature (Dry Bath)
10.0,14401.48,-20.02311,71.2268
21.544346900318832,12378.24,-17.2732,71.2389
46.41588833612777,10867.95,-15.06297,71.2293
100.0,9680.971,-14.07631,71.222
215.44346900318823,8731.402,-11.14732,71.222
464.15888336127773,8058.538,-10.32746,71.2226
1000.0,7383.518,-9.455451,71.2366
2154.4346900318824,6874.785,-9.447869,71.2274
4641.588833612777,6409.149,-9.807194,71.2273
10000.0,6045.541,-12.28355,71.2259
