Frequency,Impedance,Phase Angle,Temperature (Dry Bath)
10.0,5569345.0,-6.211174,71.4636
21.544346900318832,5953537.0,13.83764,71.4587
46.41588833612777,6058913.0,-29.4166,71.4617
100.0,783430.6,54.16524,71.4512
215.44346900318823,1649463.0,-111.7218,71.4552
464.15888336127773,752077.1,-13.85397,71.4579
1000.0,925145.9,-77.08719,71.448
2154.4346900318824,2631623.0,-63.24915,71.4511
4641.588833612777,322740.7,-72.72256,71.4602
10000.0,110657.1,-85.53321,71.4597
