Frequency,Impedance,Phase Angle,Temperature (Dry Bath)
10.0,3838219.0,27.59516,70.6905
21.544346900318832,5100190.0,-15.39324,70.6922
46.41588833612777,4010119.0,-28.35644,70.6973
100.0,392024.8,-46.36857,70.6906
215.44346900318823,2153483.0,-45.37945,70.6894
464.15888336127773,626258.1,-81.61894,70.6912
1000.0,461875.0,-118.4649,70.6871
2154.4346900318824,287112.9,-76.62148,70.6988
4641.588833612777,155317.4,-102.5242,70.6918
10000.0,70955.04,-94.40805,70.6866
