Frequency,Impedance,Phase Angle,Temperature (Dry Bath)
10.0,6336368.0,-33.12013,71.6253
21.544346900318832,8338149.0,-3.606883,71.621
46.41588833612777,6269333.0,-29.20058,71.6242
100.0,568748.3,-96.68542,71.6339
215.44346900318823,1076848.0,-76.17715,71.6184
464.15888336127773,1174388.0,7.981991,71.6363
1000.0,232096.2,-117.557,71.6184
2154.4346900318824,445796.6,-106.8967,71.6275
4641.588833612777,213326.9,-102.9696,71.6011
10000.0,824460.8,-53.82778,71.6285
