Frequency,Impedance,Phase Angle,Temperature (Dry Bath)
10.0,232327.0,-17.33643,71.6471
21.544346900318832,199202.6,-17.92001,71.6292
46.41588833612777,171654.6,-17.29336,71.6256
100.0,111995.5,-18.59313,71.625
215.44346900318823,150853.6,-11.83926,71.6411
464.15888336127773,126455.5,-25.2775,71.6387
1000.0,105170.4,-13.28695,71.6133
2154.4346900318824,76352.15,-21.8528,71.6393
4641.588833612777,65076.97,-11.57398,71.6168
10000.0,70943.15,-24.59805,71.6467
