Frequency,Impedance,Phase Angle,Temperature (Dry Bath)
10.0,378530.6,-17.20489,70.9751
21.544346900318832,303840.7,-19.7592,70.9997
46.41588833612777,263179.2,-18.89219,70.9637
100.0,131268.8,-35.18102,70.9838
215.44346900318823,165517.3,-16.23637,71.0114
464.15888336127773,178162.1,-36.70616,70.999
1000.0,148312.4,-9.397061,70.9954
2154.4346900318824,135394.8,-27.45421,70.9931
4641.588833612777,98687.36,-49.04872,71.0118
10000.0,55544.72,-61.83338,70.9966
