Frequency,Impedance,Phase Angle,Temperature (Dry Bath)
10.0,6365349.0,0.9965161,66.4401
21.544346900318832,4124109.0,-4.051259,66.4139
46.41588833612777,4016414.0,-6.413548,66.4252
100.0,1211226.0,-34.44834,66.4376
215.44346900318823,366141.6,133.8635,66.4207
464.15888336127773,8935493.0,-24.91343,66.428
1000.0,928725.1,-61.91164,66.4281
2154.4346900318824,247321.4,-72.41047,66.4366
4641.588833612777,123769.0,-77.45786,66.4261
10000.0,68836.08,-90.60016,66.434
