Frequency,Impedance,Phase Angle,Temperature (Dry Bath)
10.0,4922349.0,-11.85171,65.7843
21.544346900318832,4618234.0,4.438034,65.7814
46.41588833612777,7688288.0,-3.668136,65.7879
100.0,436056.3,-62.54685,65.7888
215.44346900318823,26782.8,-75.9738,65.7883
464.15888336127773,494959.4,-138.1917,65.7987
1000.0,609700.1,-63.78307,65.7897
2154.4346900318824,282611.3,-92.79275,65.7825
4641.588833612777,126893.8,-83.10134,65.7904
10000.0,63762.57,-80.79868,65.7971
