Frequency,Impedance,Phase Angle,Temperature (Dry Bath)
10.0,19259.18,-20.16443,70.983
21.544346900318832,16551.57,-17.55508,70.9722
46.41588833612777,14443.19,-15.51968,70.9841
100.0,12914.22,-13.5594,70.9796
215.44346900318823,11399.17,-13.26963,70.9584
464.15888336127773,10428.6,-11.36143,70.99
1000.0,9579.033,-10.34524,70.9741
2154.4346900318824,9004.575,-9.730655,70.9809
4641.588833612777,8396.677,-9.709319,70.9916
10000.0,7903.331,-14.38546,70.9711
