Frequency,Impedance,Phase Angle,Temperature (Dry Bath)
10.0,4277061.0,13.50428,70.9344
21.544346900318832,12376340.0,-18.4965,70.9452
46.41588833612777,4642130.0,17.17459,70.9472
100.0,251887.4,-78.42978,70.9478
215.44346900318823,720035.4,-167.4743,70.9446
464.15888336127773,1470394.0,-111.2096,70.9193
1000.0,1503636.0,-179.6544,70.9404
2154.4346900318824,250877.6,-71.78398,70.9405
4641.588833612777,177066.3,-86.84441,70.9383
10000.0,78988.55,-88.51298,70.9236
