Frequency,Impedance,Phase Angle,Temperature (Dry Bath)
10.0,7370094.0,7.251075,71.3635
21.544346900318832,8430900.0,-51.47925,71.3691
46.41588833612777,2929222.0,5.099228,71.3647
100.0,506070.9,20.59721,71.3573
215.44346900318823,85035.65,171.8708,71.3591
464.15888336127773,416633.1,-68.5949,71.3691
1000.0,642188.8,-59.29098,71.3511
2154.4346900318824,215759.7,-95.36921,71.3527
4641.588833612777,128865.4,-101.8363,71.358
10000.0,66153.47,-83.10311,71.3529
