Frequency,Impedance,Phase Angle,Temperature (Dry Bath)
10.0,6210558.0,3.441561,71.0823
21.544346900318832,4966394.0,-7.607454,71.0942
46.41588833612777,3750007.0,-30.69482,71.1071
100.0,549071.8,-172.3142,71.0923
215.44346900318823,2235193.0,88.74472,71.0947
464.15888336127773,363307.0,-137.1383,71.088
1000.0,291736.7,-115.4487,71.0777
2154.4346900318824,226545.2,-96.82902,71.0823
4641.588833612777,138354.8,-84.95594,71.0977
10000.0,54870.47,-84.67515,71.0857
