Frequency,Impedance,Phase Angle,Temperature (Dry Bath)
10.0,6110844.0,-5.454842,70.7921
21.544346900318832,6274014.0,-29.37615,70.7849
46.41588833612777,4675190.0,-22.02434,70.7888
100.0,652718.0,-109.7907,70.7794
215.44346900318823,1117037.0,-26.08599,70.8069
464.15888336127773,884650.2,-54.36235,70.7872
1000.0,319101.0,-57.85191,70.775
2154.4346900318824,409133.8,-104.5223,70.7852
4641.588833612777,121622.1,-86.15455,70.7782
10000.0,68137.78,-91.31858,70.7982
