Frequency,Impedance,Phase Angle,Temperature (Dry Bath)
10.0,8672058.0,1.267521,71.3041
21.544346900318832,6585576.0,-18.93097,71.3009
46.41588833612777,6921899.0,-0.9134554,71.3168
100.0,2297336.0,14.30717,71.3231
215.44346900318823,7110.304,-46.81162,71.3151
464.15888336127773,1000689.0,-61.18907,71.2959
1000.0,389586.1,-89.68199,71.3074
2154.4346900318824,360906.0,-63.6532,71.3035
4641.588833612777,114077.3,-83.95524,71.3172
10000.0,59103.29,-85.81255,71.2962
