Frequency,Impedance,Phase Angle,Temperature (Dry Bath)
10.0,2456642.0,-8.762488,71.0028
21.544346900318832,2027376.0,-13.21288,71.0141
46.41588833612777,2138305.0,-5.17421,71.0252
100.0,246054.5,-111.9936,71.0151
215.44346900318823,351695.3,-30.94538,71.0277
464.15888336127773,556958.5,-43.94159,71.0287
1000.0,287634.5,-10.02731,71.0158
2154.4346900318824,515470.4,-89.47513,71.025
4641.588833612777,235221.7,-75.831,71.0252
10000.0,92646.14,-100.4924,71.0293
