Frequency,Impedance,Phase Angle,Temperature (Dry Bath)
10.0,160169.7,-9.374224,66.3989
21.544346900318832,152694.8,-9.03739,66.4039
46.41588833612777,142023.8,-9.031034,66.4025
100.0,142777.5,2.689437,66.4031
215.44346900318823,223030.0,-27.11963,66.4017
464.15888336127773,116565.6,-5.71969,66.4056
1000.0,106818.1,-15.93316,66.401
2154.4346900318824,99930.01,-22.89666,66.3995
4641.588833612777,67808.55,-33.40999,66.4179
10000.0,43937.62,-63.91627,66.4076
