Frequency,Impedance,Phase Angle,Temperature (Dry Bath)
10.0,32800.13,-22.36604,71.0575
21.544346900318832,27181.84,-22.13832,71.0669
46.41588833612777,22831.97,-22.03612,71.0783
100.0,19316.34,-20.15564,71.0642
215.44346900318823,16109.7,-22.13676,71.0648
464.15888336127773,12930.41,-23.30402,71.0666
1000.0,10985.37,-22.58434,71.0701
2154.4346900318824,8817.267,-22.78746,71.067
4641.588833612777,7222.581,-22.25487,71.0656
10000.0,5878.626,-20.03905,71.059
