Frequency,Impedance,Phase Angle,Temperature (Dry Bath)
10.0,97829.76,-13.12838,71.8416
21.544346900318832,87253.41,-11.49435,71.8324
46.41588833612777,81328.75,-10.14384,71.839
100.0,68321.99,-7.493969,71.8231
215.44346900318823,59650.9,-15.86222,71.8403
464.15888336127773,66785.03,-11.31547,71.8511
1000.0,62971.24,-14.19109,71.8388
2154.4346900318824,60316.84,-2.971767,71.8574
4641.588833612777,55906.13,-9.403698,71.8593
10000.0,43489.12,-34.71958,71.8465
