Frequency,Impedance,Phase Angle,Temperature (Dry Bath)
10.0,10143.42,-25.28696,70.8413
21.544346900318832,8344.941,-21.75521,70.8468
46.41588833612777,7064.892,-18.5557,70.8386
100.0,6143.871,-15.41217,70.8401
215.44346900318823,5483.045,-13.26306,70.8424
464.15888336127773,5028.948,-11.07375,70.8474
1000.0,4612.72,-9.424453,70.825
2154.4346900318824,4320.56,-9.29331,70.8437
4641.588833612777,4041.248,-9.618498,70.8544
10000.0,3711.191,-10.7783,70.8461
