Frequency,Impedance,Phase Angle,Temperature (Dry Bath)
10.0,1208170.0,-20.55387,71.2236
21.544346900318832,1130103.0,-22.32654,71.2141
46.41588833612777,1011475.0,-18.0502,71.2265
100.0,332949.8,-60.45688,71.2024
215.44346900318823,472657.4,-20.01359,71.2034
464.15888336127773,615123.7,-28.31354,71.2083
1000.0,733814.9,-98.92618,71.2101
2154.4346900318824,210869.8,-43.7671,71.1978
4641.588833612777,137397.1,-62.69575,71.2182
10000.0,61867.13,-78.045,71.2219
