Frequency,Impedance,Phase Angle,Temperature (Dry Bath)
10.0,4677433.0,-13.23272,70.6744
21.544346900318832,7803634.0,-16.99393,70.6849
46.41588833612777,4118141.0,-32.51985,70.6742
100.0,461225.1,-33.42222,70.6806
215.44346900318823,431564.4,18.63937,70.6822
464.15888336127773,486930.0,-120.2614,70.6698
1000.0,614769.0,-82.32601,70.6692
2154.4346900318824,235963.8,-85.17144,70.6786
4641.588833612777,127138.9,-87.40236,70.662
10000.0,57453.32,-90.78151,70.6744
