Frequency,Impedance,Phase Angle,Temperature (Dry Bath)
10.0,3856129.0,-14.78716,71.2947
21.544346900318832,3532053.0,-10.68225,71.314
46.41588833612777,5323337.0,-10.21019,71.3074
100.0,771174.1,-90.13801,71.304
215.44346900318823,849191.5,-30.97166,71.309
464.15888336127773,920809.1,-62.52923,71.3058
1000.0,654689.2,-34.07871,71.304
2154.4346900318824,297889.6,-78.01362,71.3065
4641.588833612777,104315.9,-91.16147,71.311
10000.0,76253.46,-89.15917,71.3028
