Frequency,Impedance,Phase Angle,Temperature (Dry Bath)
10.0,213653.1,-25.92882,66.2426
21.544346900318832,170443.3,-24.27832,66.2437
46.41588833612777,139397.9,-21.91411,66.2688
100.0,123170.5,-23.63144,66.247
215.44346900318823,79651.16,-33.41849,66.2483
464.15888336127773,83702.03,-23.60052,66.2336
1000.0,68388.84,-16.82629,66.2407
2154.4346900318824,67381.06,-27.1372,66.2542
4641.588833612777,51896.21,-36.31622,66.2507
10000.0,36998.17,-52.94737,66.2535
