Frequency,Impedance,Phase Angle,Temperature (Dry Bath)
10.0,6392262.0,11.82805,70.9582
21.544346900318832,3404265.0,7.423857,70.9649
46.41588833612777,3913045.0,-22.65164,70.9663
100.0,592086.3,76.38366,70.9716
215.44346900318823,320769.8,-73.14629,70.9731
464.15888336127773,1230904.0,176.8815,70.9731
1000.0,640006.3,-30.50677,70.9697
2154.4346900318824,563916.9,-38.28037,70.9539
4641.588833612777,393849.3,-149.7713,70.976
10000.0,135483.1,-72.47723,70.9682
