Frequency,Impedance,Phase Angle,Temperature (Dry Bath)
10.0,4668534.0,-4.554079,72.2245
21.544346900318832,6096560.0,-39.61409,72.2307
46.41588833612777,6501082.0,-12.49319,72.2195
100.0,384661.4,135.465,72.219
215.44346900318823,361174.2,40.60451,72.2176
464.15888336127773,276609.3,34.91054,72.2331
1000.0,889641.7,-96.37024,72.2175
2154.4346900318824,259717.5,-70.26886,72.2225
4641.588833612777,285084.2,-107.6436,72.2221
10000.0,148601.2,-58.94114,72.2176
