Frequency,Impedance,Phase Angle,Temperature (Dry Bath)
10.0,269398.3,-15.22076,72.0994
21.544346900318832,247609.8,-15.30993,72.1075
46.41588833612777,223837.7,-14.91131,72.1145
100.0,188256.0,3.908378,72.0936
215.44346900318823,185947.6,-10.41198,72.1178
464.15888336127773,106541.5,-16.01456,72.1059
1000.0,120777.3,-14.86155,72.1069
2154.4346900318824,135535.8,-26.43447,72.1017
4641.588833612777,96384.75,-15.66969,72.1125
10000.0,74737.97,-52.39394,72.1241
