Frequency,Impedance,Phase Angle,Temperature (Dry Bath)
10.0,8382199.0,-10.41237,71.2425
21.544346900318832,9868343.0,-4.180778,71.2388
46.41588833612777,5411649.0,-10.1505,71.2395
100.0,888995.9,-23.22271,71.2374
215.44346900318823,509489.1,-104.0223,71.2605
464.15888336127773,720112.0,-148.5465,71.2389
1000.0,521475.1,-81.01199,71.247
2154.4346900318824,335996.6,-88.7477,71.2444
4641.588833612777,144738.4,-79.61734,71.2333
10000.0,70863.39,-89.93124,71.2537
