Frequency,Impedance,Phase Angle,Temperature (Dry Bath)
10.0,34771.81,-13.56831,71.3254
21.544346900318832,31193.88,-12.30556,71.309
46.41588833612777,28374.07,-11.15998,71.3193
100.0,26980.38,-9.636671,71.3246
215.44346900318823,25272.07,-7.615484,71.3136
464.15888336127773,22374.15,-6.899878,71.3197
1000.0,20844.07,-6.979991,71.3134
2154.4346900318824,19342.6,-10.07905,71.3202
4641.588833612777,18846.23,-9.544549,71.3219
10000.0,17303.86,-13.25837,71.3177
