Frequency,Impedance,Phase Angle,Temperature (Dry Bath)
10.0,14712.72,-19.48643,70.905
21.544346900318832,12702.53,-16.73861,70.9164
46.41588833612777,11197.3,-14.50758,70.9235
100.0,10076.31,-13.36496,70.936
215.44346900318823,9065.586,-11.49172,70.9062
464.15888336127773,8397.005,-9.812566,70.9043
1000.0,7728.71,-9.906442,70.9265
2154.4346900318824,7286.09,-9.958838,70.9105
4641.588833612777,6808.056,-9.998571,70.9139
10000.0,6254.304,-13.23442,70.9196
