Frequency,Impedance,Phase Angle,Temperature (Dry Bath)
10.0,3250673.0,-8.948733,66.1818
21.544346900318832,4805738.0,-20.4368,66.1862
46.41588833612777,6102274.0,-29.36955,66.1813
100.0,595160.5,-92.68425,66.1798
215.44346900318823,615407.8,97.50214,66.1726
464.15888336127773,540040.1,-56.37007,66.1836
1000.0,545938.9,-101.7124,66.1924
2154.4346900318824,249100.8,-75.31559,66.1869
4641.588833612777,178762.1,-84.20417,66.1932
10000.0,71750.67,-83.73491,66.1939
