Frequency,Impedance,Phase Angle,Temperature (Dry Bath)
10.0,3104159.0,-0.9809718,71.1019
21.544346900318832,2582087.0,-13.09713,71.0934
46.41588833612777,2519417.0,-11.10883,71.1008
100.0,525047.9,-2.292417,71.0982
215.44346900318823,423884.2,-65.94021,71.0943
464.15888336127773,782894.5,11.66659,71.0803
1000.0,1182503.0,-24.24389,71.0842
2154.4346900318824,215252.7,-32.59563,71.079
4641.588833612777,350129.5,-109.3095,71.0849
10000.0,92152.04,-81.77086,71.0785
