Frequency,Impedance,Phase Angle,Temperature (Dry Bath)
10.0,3243484.0,7.743821,71.4263
21.544346900318832,4420864.0,3.501022,71.4415
46.41588833612777,6034552.0,-11.83728,71.4437
100.0,1829349.0,-68.93133,71.4654
215.44346900318823,3037712.0,159.5344,71.4386
464.15888336127773,1016680.0,-72.13208,71.4377
1000.0,874520.7,-126.438,71.4411
2154.4346900318824,840758.9,-54.99121,71.4611
4641.588833612777,333594.2,-65.68807,71.4464
10000.0,116562.2,-95.91992,71.4499
