Frequency,Impedance,Phase Angle,Temperature (Dry Bath)
10.0,34622.53,-11.36041,70.4767
21.544346900318832,32200.35,-9.712476,70.4678
46.41588833612777,30001.12,-9.166726,70.4756
100.0,30357.5,-8.21987,70.4651
215.44346900318823,27567.72,-9.225033,70.5002
464.15888336127773,25547.96,-7.517507,70.4833
1000.0,22513.21,-12.14105,70.4694
2154.4346900318824,21676.87,-13.2808,70.4775
4641.588833612777,20126.31,-13.98144,70.4744
10000.0,18270.18,-23.11147,70.4799
