Frequency,Impedance,Phase Angle,Temperature (Dry Bath)
10.0,2675559.0,-29.93188,70.964
21.544346900318832,4774845.0,-17.33626,70.9812
46.41588833612777,2308227.0,-18.27822,70.9908
100.0,468190.1,-43.68138,70.9851
215.44346900318823,920669.2,-52.96268,70.9682
464.15888336127773,7748349.0,126.8278,71.0103
1000.0,351752.3,-57.75404,70.9749
2154.4346900318824,354151.2,-98.86544,70.9753
4641.588833612777,120139.1,-84.46381,70.9872
10000.0,59469.47,-86.17768,70.9816
