Frequency,Impedance,Phase Angle,Temperature (Dry Bath)
10.0,35321.05,-20.20945,71.0414
21.544346900318832,30057.44,-19.5628,71.0481
46.41588833612777,25615.35,-20.09733,71.033
100.0,21863.17,-22.24861,71.0467
215.44346900318823,18683.96,-21.43594,71.0446
464.15888336127773,15225.66,-24.77358,71.0445
1000.0,12461.21,-22.66387,71.0513
2154.4346900318824,10040.53,-25.07071,71.0309
4641.588833612777,8186.035,-19.95759,71.0431
10000.0,7002.436,-19.6982,71.0544
