Frequency,Impedance,Phase Angle,Temperature (Dry Bath)
10.0,55803.0,-14.78842,70.3837
21.544346900318832,50410.56,-13.37583,70.3719
46.41588833612777,45448.13,-12.50845,70.3779
100.0,39049.67,-14.38681,70.3795
215.44346900318823,38888.66,-13.55465,70.3732
464.15888336127773,38728.93,-16.5493,70.3759
1000.0,30853.88,-10.08231,70.3891
2154.4346900318824,28438.72,-19.554,70.3712
4641.588833612777,23731.5,-25.69048,70.3659
10000.0,19126.09,-34.59736,70.3794
