Frequency,Impedance,Phase Angle,Temperature (Dry Bath)
10.0,7779967.0,28.90739,71.4759
21.544346900318832,4585129.0,-10.55837,71.4857
46.41588833612777,4613858.0,-16.52095,71.4776
100.0,965451.7,66.81847,71.4746
215.44346900318823,4207239.0,128.9805,71.477
464.15888336127773,938922.8,16.75221,71.468
1000.0,997367.5,-45.09356,71.4778
2154.4346900318824,988739.5,-50.20875,71.4717
4641.588833612777,304695.7,-71.07085,71.4826
10000.0,136172.4,-92.12307,71.4758
