Frequency,Impedance,Phase Angle,Temperature (Dry Bath)
10.0,2921809.0,-7.945947,70.4052
21.544346900318832,2298138.0,-18.57817,70.385
46.41588833612777,2591246.0,-13.51346,70.4078
100.0,347868.0,97.26905,70.418
215.44346900318823,2467370.0,-109.9022,70.4174
464.15888336127773,483855.1,179.1831,70.4141
1000.0,335207.1,-64.77383,70.4351
2154.4346900318824,174647.0,-84.6104,70.4211
4641.588833612777,96905.24,-84.27004,70.4022
10000.0,54463.05,-90.15806,70.408
