Frequency,Impedance,Phase Angle,Temperature (Dry Bath)
10.0,7958317.0,-7.054175,70.9883
21.544346900318832,5984379.0,-9.619044,70.9865
46.41588833612777,5861844.0,-11.22136,70.9906
100.0,618811.6,-9.391433,70.9971
215.44346900318823,2944842.0,-62.63214,71.0034
464.15888336127773,287622.7,-17.32315,71.0055
1000.0,322010.8,-111.8893,71.018
2154.4346900318824,213839.5,-95.3111,70.9977
4641.588833612777,295156.9,-146.1332,71.0083
10000.0,161875.8,-76.81661,70.9889
