Frequency,Impedance,Phase Angle,Temperature (Dry Bath)
10.0,2939986.0,-6.127201,71.0796
21.544346900318832,3188171.0,-21.58863,71.0827
46.41588833612777,2207413.0,-18.95396,71.0804
100.0,1075728.0,-32.1722,71.0756
215.44346900318823,450860.2,10.01229,71.0934
464.15888336127773,240199.8,-59.77881,71.0732
1000.0,434282.1,-75.58608,71.0774
2154.4346900318824,242263.1,-68.61624,71.0797
4641.588833612777,155268.6,-83.78011,71.0822
10000.0,61696.77,-86.03392,71.0771
