Frequency,Impedance,Phase Angle,Temperature (Dry Bath)
10.0,73036.86,-13.62349,71.1536
21.544346900318832,66497.91,-11.67298,71.1487
46.41588833612777,60326.65,-10.4013,71.1523
100.0,50688.85,-8.248164,71.1582
215.44346900318823,49338.24,-7.702376,71.1483
464.15888336127773,49642.52,-15.07684,71.1517
1000.0,45169.61,-13.21456,71.1537
2154.4346900318824,43398.28,-15.98347,71.1464
4641.588833612777,35027.05,-21.36594,71.1735
10000.0,30549.01,-36.15976,71.1561
