Frequency,Impedance,Phase Angle,Temperature (Dry Bath)
10.0,13726.38,-28.07448,70.9742
21.544346900318832,10931.03,-25.56326,70.9931
46.41588833612777,8889.712,-22.89874,70.98
100.0,7388.089,-18.45719,70.9754
215.44346900318823,6414.463,-17.67788,70.9862
464.15888336127773,5603.433,-15.83717,70.956
1000.0,4922.214,-13.9393,70.9768
2154.4346900318824,4457.814,-12.91982,70.9783
4641.588833612777,4067.165,-12.26085,70.984
10000.0,3694.57,-13.2376,70.9852
