Frequency,Impedance,Phase Angle,Temperature (Dry Bath)
10.0,5142459.0,8.546673,71.2378
21.544346900318832,4574369.0,-22.02884,71.249
46.41588833612777,4116429.0,-34.30464,71.2455
100.0,758367.0,10.1579,71.2477
215.44346900318823,1440570.0,-117.6581,71.2468
464.15888336127773,2661777.0,-30.57347,71.2505
1000.0,939785.6,-64.84129,71.2465
2154.4346900318824,416345.4,-89.47592,71.2367
4641.588833612777,102677.6,-80.06309,71.2329
10000.0,53724.15,-81.7625,71.2354
