Frequency,Impedance,Phase Angle,Temperature (Dry Bath)
10.0,18329.25,-29.38037,70.7308
21.544346900318832,14466.85,-26.96734,70.7396
46.41588833612777,11656.98,-24.73391,70.7481
100.0,9429.289,-21.23143,70.7572
215.44346900318823,8026.495,-18.68367,70.7195
464.15888336127773,7017.072,-16.19685,70.7297
1000.0,6115.891,-14.08905,70.7545
2154.4346900318824,5563.073,-11.98732,70.7447
4641.588833612777,5100.724,-11.00588,70.7323
10000.0,4763.803,-11.86192,70.7549
