Frequency,Impedance,Phase Angle,Temperature (Dry Bath)
10.0,15943.49,-25.47147,71.4529
21.544346900318832,12753.61,-26.37365,71.457
46.41588833612777,10096.12,-26.72717,71.4512
100.0,8047.115,-26.56283,71.432
215.44346900318823,6343.042,-24.64445,71.4398
464.15888336127773,5189.056,-22.81555,71.4403
1000.0,4276.008,-20.41216,71.4375
2154.4346900318824,3653.195,-18.07918,71.4361
4641.588833612777,3167.852,-15.95001,71.4365
10000.0,2809.317,-14.77197,71.4433
