Frequency,Impedance,Phase Angle,Temperature (Dry Bath)
10.0,1188773.0,-23.94064,71.1595
21.544346900318832,986287.5,-18.2799,71.1548
46.41588833612777,791413.9,-18.8775,71.1559
100.0,361612.5,-28.45273,71.1704
215.44346900318823,523302.0,-3.283709,71.1542
464.15888336127773,355940.9,-36.16635,71.1653
1000.0,215313.4,-50.93467,71.1723
2154.4346900318824,185111.5,-51.13991,71.1678
4641.588833612777,131602.3,-77.57077,71.1684
10000.0,58658.84,-76.73154,71.1635
