Frequency,Impedance,Phase Angle,Temperature (Dry Bath)
10.0,4061911.0,-7.951566,70.8572
21.544346900318832,3954555.0,-15.17819,70.865
46.41588833612777,4611789.0,-29.24914,70.8577
100.0,551429.0,84.28024,70.8703
215.44346900318823,1025942.0,-132.5115,70.8648
464.15888336127773,529643.5,52.25462,70.8715
1000.0,591719.6,-46.81137,70.8633
2154.4346900318824,194381.2,-78.53413,70.8773
4641.588833612777,143659.2,-86.85088,70.8659
10000.0,66175.43,-83.06251,70.8612
