Frequency,Impedance,Phase Angle,Temperature (Dry Bath)
10.0,251615.8,-25.29832,71.3186
21.544346900318832,199991.6,-21.0202,71.2945
46.41588833612777,178539.8,-20.83323,71.3049
100.0,147536.7,-31.43873,71.2993
215.44346900318823,23627.17,-123.8479,71.3077
464.15888336127773,115529.2,-30.04808,71.3076
1000.0,105685.1,-25.86212,71.3054
2154.4346900318824,75496.29,-36.52139,71.3136
4641.588833612777,65536.02,-47.16517,71.2953
10000.0,39502.65,-55.85692,71.3187
