Frequency,Impedance,Phase Angle,Temperature (Dry Bath)
10.0,5162556.0,-14.09571,71.6037
21.544346900318832,5314523.0,20.13469,71.5948
46.41588833612777,5213509.0,-18.05005,71.59
100.0,642794.3,-114.639,71.6019
215.44346900318823,320532.9,153.4702,71.6108
464.15888336127773,513292.1,-34.25966,71.5897
1000.0,529544.6,-150.7029,71.6002
2154.4346900318824,380650.6,-61.43797,71.6132
4641.588833612777,267902.2,-57.43539,71.5993
10000.0,185346.3,-96.71866,71.5967
