Frequency,Impedance,Phase Angle,Temperature (Dry Bath)
10.0,5987715.0,14.06724,71.2906
21.544346900318832,5921577.0,17.48151,71.3087
46.41588833612777,8315358.0,-11.2065,71.2859
100.0,1016040.0,89.92225,71.2981
215.44346900318823,1152115.0,39.65779,71.2848
464.15888336127773,695624.9,-48.65985,71.3072
1000.0,326764.3,37.64147,71.3075
2154.4346900318824,470880.0,91.24593,71.2875
4641.588833612777,382886.9,-111.8122,71.297
10000.0,263321.8,-92.69919,71.2847
