Frequency,Impedance,Phase Angle,Temperature (Dry Bath)
10.0,33392.54,-13.55532,71.0573
21.544346900318832,30188.05,-12.19788,71.0547
46.41588833612777,27433.99,-11.23745,71.0487
100.0,27182.6,-10.69178,71.0548
215.44346900318823,23370.93,-9.843669,71.0526
464.15888336127773,23307.34,-7.847031,71.0549
1000.0,20612.0,-1.944582,71.0501
2154.4346900318824,19434.31,-7.403916,71.0717
4641.588833612777,17901.78,-9.942044,71.0493
10000.0,16489.14,-12.38943,71.0622
