Frequency,Impedance,Phase Angle,Temperature (Dry Bath)
10.0,12294.78,-25.96239,71.2877
21.544346900318832,9749.909,-26.72819,71.3232
46.41588833612777,7673.012,-26.56502,71.3115
100.0,6066.726,-25.02058,71.3336
215.44346900318823,4922.094,-23.13634,71.3016
464.15888336127773,4083.933,-20.39037,71.3106
1000.0,3453.196,-18.21685,71.3122
2154.4346900318824,2996.487,-15.81107,71.3146
4641.588833612777,2658.962,-13.82242,71.3048
10000.0,2365.949,-12.43528,71.3204
