Frequency,Impedance,Phase Angle,Temperature (Dry Bath)
10.0,10855.0,-23.93516,71.4887
21.544346900318832,8881.292,-23.80359,71.4847
46.41588833612777,7224.304,-23.51655,71.4934
100.0,5820.65,-22.28358,71.479
215.44346900318823,4900.525,-21.03935,71.4839
464.15888336127773,4106.42,-19.04095,71.4853
1000.0,3521.38,-16.71486,71.4809
2154.4346900318824,3075.612,-14.77088,71.491
4641.588833612777,2749.524,-13.23947,71.4928
10000.0,2506.396,-11.88386,71.4964
