Frequency,Impedance,Phase Angle,Temperature (Dry Bath)
10.0,143213.8,-14.01524,71.1637
21.544346900318832,127168.7,-12.81141,71.1663
46.41588833612777,115355.1,-12.18912,71.1559
100.0,104089.5,-5.469898,71.1688
215.44346900318823,97472.59,-7.988562,71.1583
464.15888336127773,81925.89,-15.04428,71.1705
1000.0,79509.78,-12.73628,71.174
2154.4346900318824,74649.1,-11.0274,71.1697
4641.588833612777,63522.74,-26.66771,71.1629
10000.0,56624.39,-40.71145,71.1692
