Frequency,Impedance,Phase Angle,Temperature (Dry Bath)
10.0,111877.6,-14.0195,71.795
21.544346900318832,102086.4,-12.59712,71.7903
46.41588833612777,91532.4,-11.29069,71.7825
100.0,66640.87,-3.839056,71.7942
215.44346900318823,68459.85,-8.081128,71.7901
464.15888336127773,61895.25,-13.28755,71.7818
1000.0,59411.79,-6.468292,71.7843
2154.4346900318824,62206.11,-7.750195,71.7674
4641.588833612777,63359.18,-22.05905,71.7843
10000.0,48858.99,-31.89242,71.7638
