Frequency,Impedance,Phase Angle,Temperature (Dry Bath)
10.0,32028.93,-19.17949,71.4852
21.544346900318832,27584.78,-18.04451,71.4779
46.41588833612777,23864.05,-17.57291,71.4673
100.0,20685.0,-16.52538,71.4844
215.44346900318823,17799.76,-15.90008,71.4611
464.15888336127773,16090.36,-15.21058,71.4636
1000.0,14199.51,-12.98449,71.4761
2154.4346900318824,12565.39,-12.12172,71.4686
4641.588833612777,11838.33,-11.47553,71.4659
10000.0,10728.98,-13.11711,71.4837
