Frequency,Impedance,Phase Angle,Temperature (Dry Bath)
10.0,71270.66,-10.50015,71.092
21.544346900318832,66743.44,-8.837088,71.0825
46.41588833612777,62779.06,-7.600862,71.0803
100.0,53682.19,-9.876391,71.0834
215.44346900318823,54858.71,0.3834779,71.0743
464.15888336127773,51333.8,-2.199834,71.0735
1000.0,45574.55,-6.907082,71.0825
2154.4346900318824,45759.53,-13.18979,71.0819
4641.588833612777,54454.17,-23.586,71.0938
10000.0,40554.13,-30.26533,71.0764
