Frequency,Impedance,Phase Angle,Temperature (Dry Bath)
10.0,6511047.0,-0.9105724,70.6769
21.544346900318832,5510035.0,-13.95905,70.6759
46.41588833612777,3888888.0,-26.39963,70.6819
100.0,280922.9,-16.31277,70.676
215.44346900318823,721628.0,-46.12003,70.7038
464.15888336127773,636266.7,-135.4019,70.6866
1000.0,344555.3,-106.5063,70.6884
2154.4346900318824,220715.5,-76.30308,70.6977
4641.588833612777,101864.2,-84.19682,70.699
10000.0,59827.57,-95.70317,70.6934
