Frequency,Impedance,Phase Angle,Temperature (Dry Bath)
10.0,38839.68,-16.68116,70.746
21.544346900318832,34221.48,-15.13271,70.7499
46.41588833612777,30338.77,-13.59921,70.7449
100.0,29228.33,-10.51261,70.7388
215.44346900318823,24402.65,-12.33268,70.7378
464.15888336127773,23813.45,-8.571091,70.7316
1000.0,20840.88,-17.74206,70.7496
2154.4346900318824,20291.95,-11.87287,70.741
4641.588833612777,18800.24,-11.87252,70.7387
10000.0,16481.75,-21.81206,70.736
