Frequency,Impedance,Phase Angle,Temperature (Dry Bath)
10.0,315896.4,-8.664858,71.4037
21.544346900318832,292915.8,-10.12439,71.397
46.41588833612777,264290.9,-12.57907,71.4
100.0,237454.2,6.410171,71.4143
215.44346900318823,22943.0,12.69052,71.4223
464.15888336127773,250079.8,-27.2997,71.4334
1000.0,236515.5,-4.729846,71.4075
2154.4346900318824,116048.6,-32.1471,71.41
4641.588833612777,91111.6,-51.22185,71.4345
10000.0,51042.11,-74.45349,71.4266
