Frequency,Impedance,Phase Angle,Temperature (Dry Bath)
10.0,5726914.0,1.810685,71.2118
21.544346900318832,3441678.0,-25.89073,71.2302
46.41588833612777,5154252.0,-12.94747,71.2115
100.0,308157.0,-23.4075,71.2181
215.44346900318823,436284.5,-68.53475,71.2295
464.15888336127773,520383.8,-84.57951,71.2218
1000.0,238812.5,-140.4237,71.2184
2154.4346900318824,266204.3,-89.74914,71.2297
4641.588833612777,127453.7,-94.08246,71.2279
10000.0,69708.4,-83.70448,71.2112
