Frequency,Impedance,Phase Angle,Temperature (Dry Bath)
10.0,8250899.0,1.297225,71.3482
21.544346900318832,4480204.0,-13.06344,71.3523
46.41588833612777,5521806.0,-11.02959,71.3362
100.0,966621.3,10.66929,71.356
215.44346900318823,710994.4,23.7532,71.3427
464.15888336127773,3660886.0,56.21131,71.3506
1000.0,731919.9,-116.6504,71.3598
2154.4346900318824,436291.1,-73.32181,71.3381
4641.588833612777,272701.6,-77.96408,71.3402
10000.0,142114.2,-91.9805,71.3423
