Frequency,Impedance,Phase Angle,Temperature (Dry Bath)
10.0,179462.6,-13.15992,71.3731
21.544346900318832,162947.5,-12.50221,71.3783
46.41588833612777,149805.7,-13.8806,71.3714
100.0,187781.5,-18.43967,71.3624
215.44346900318823,32225.27,-1.256988,71.3893
464.15888336127773,106077.5,-15.13439,71.3683
1000.0,87380.12,-27.43732,71.3632
2154.4346900318824,82681.88,-34.66286,71.3601
4641.588833612777,65958.0,-42.1252,71.3643
10000.0,48743.08,-57.53727,71.3564
