Frequency,Impedance,Phase Angle,Temperature (Dry Bath)
10.0,6093706.0,-15.69757,71.4405
21.544346900318832,4183604.0,-20.72501,71.443
46.41588833612777,5463542.0,-17.87246,71.4411
100.0,423430.6,-40.84243,71.4471
215.44346900318823,610993.8,-69.73902,71.4442
464.15888336127773,1316812.0,-95.87006,71.4445
1000.0,1665231.0,-78.34487,71.4461
2154.4346900318824,210560.9,-130.7847,71.4356
4641.588833612777,855612.8,-144.14,71.4147
10000.0,148659.1,-74.29485,71.436
