Frequency,Impedance,Phase Angle,Temperature (Dry Bath)
10.0,7641942.0,-27.57647,70.7644
21.544346900318832,4632871.0,-17.20755,70.784
46.41588833612777,5279612.0,-23.21179,70.7663
100.0,275134.8,-22.43583,70.7653
215.44346900318823,498376.9,-116.2019,70.7616
464.15888336127773,790820.5,-137.2666,70.7571
1000.0,401744.5,-18.82527,70.7553
2154.4346900318824,345222.9,-115.0848,70.7691
4641.588833612777,181901.5,-94.47182,70.7642
10000.0,58751.83,-83.82994,70.7658
