Frequency,Impedance,Phase Angle,Temperature (Dry Bath)
10.0,4970500.0,-4.476516,71.2744
21.544346900318832,5364364.0,10.86686,71.2797
46.41588833612777,3830607.0,-23.0541,71.2816
100.0,411635.8,-12.66937,71.2644
215.44346900318823,1509202.0,-57.31521,71.2822
464.15888336127773,2789973.0,169.0335,71.2733
1000.0,358338.2,-99.05325,71.2841
2154.4346900318824,190963.3,-91.91994,71.2816
4641.588833612777,117895.8,-85.57923,71.2823
10000.0,51406.84,-86.29158,71.2841
