Frequency,Impedance,Phase Angle,Temperature (Dry Bath)
10.0,177208.8,-12.657,71.2936
21.544346900318832,161263.1,-11.57596,71.2872
46.41588833612777,148223.8,-11.09768,71.2839
100.0,153608.8,-6.463449,71.2751
215.44346900318823,12798.6,170.6693,71.3042
464.15888336127773,119815.9,-7.119218,71.2813
1000.0,91742.33,-5.905386,71.2796
2154.4346900318824,76124.53,-18.95094,71.2721
4641.588833612777,78209.19,-38.79212,71.2779
10000.0,47894.15,-59.04027,71.2813
