Frequency,Impedance,Phase Angle,Temperature (Dry Bath)
10.0,334241.1,-9.78468,71.3446
21.544346900318832,27697.79,-18.54006,71.3293
46.41588833612777,12078.54,-14.65113,71.3344
100.0,8895.982,-14.43755,71.3459
215.44346900318823,7688.203,-11.5295,71.3337
464.15888336127773,7199.75,-9.528603,71.3349
1000.0,6859.832,-9.402693,71.3242
2154.4346900318824,6377.915,-9.411032,71.3278
4641.588833612777,5968.381,-10.64712,71.3394
10000.0,5600.896,-14.30273,71.3235
