Frequency,Impedance,Phase Angle,Temperature (Dry Bath)
10.0,98182.31,-26.71028,72.282
21.544346900318832,78738.37,-26.36547,72.2851
46.41588833612777,63377.77,-26.83388,72.2725
100.0,51840.85,-24.07402,72.2806
215.44346900318823,40773.19,-24.07144,72.2736
464.15888336127773,33770.74,-23.94937,72.2676
1000.0,23934.88,-30.15177,72.2876
2154.4346900318824,19695.49,-26.85747,72.2635
4641.588833612777,14681.78,-26.13945,72.2773
10000.0,12287.01,-20.19542,72.2799
