Frequency,Impedance,Phase Angle,Temperature (Dry Bath)
10.0,3986673.0,-13.62612,70.6829
21.544346900318832,7803183.0,-19.1563,70.6849
46.41588833612777,4357042.0,-35.15135,70.6891
100.0,1072173.0,131.0373,70.6967
215.44346900318823,880144.6,-16.32836,70.6948
464.15888336127773,1055723.0,-24.12881,70.6958
1000.0,537187.2,-78.44746,70.6786
2154.4346900318824,285554.7,-89.66254,70.6916
4641.588833612777,113977.1,-84.15138,70.6873
10000.0,53073.49,-86.60917,70.6885
