Frequency,Impedance,Phase Angle,Temperature (Dry Bath)
10.0,5389158.0,-4.115784,71.3593
21.544346900318832,6998355.0,-13.29267,71.366
46.41588833612777,3781508.0,-30.42666,71.3553
100.0,5854275.0,-135.8573,71.3751
215.44346900318823,1245168.0,83.04797,71.356
464.15888336127773,1288218.0,-37.43656,71.3696
1000.0,261029.7,-129.3647,71.3786
2154.4346900318824,307121.6,-72.50705,71.3652
4641.588833612777,116366.6,-90.62865,71.364
10000.0,65263.74,-86.17482,71.3666
