Frequency,Impedance,Phase Angle,Temperature (Dry Bath)
10.0,6574822.0,-15.75232,71.3853
21.544346900318832,4966316.0,-4.133415,71.3638
46.41588833612777,5878366.0,-28.89452,71.384
100.0,1032450.0,-35.207,71.4013
215.44346900318823,872432.9,78.61338,71.373
464.15888336127773,1814617.0,-56.25156,71.3753
1000.0,2109493.0,-83.04965,71.3846
2154.4346900318824,781800.7,-76.99027,71.4009
4641.588833612777,322003.1,-85.43362,71.3853
10000.0,130727.5,-78.9961,71.369
