Frequency,Impedance,Phase Angle,Temperature (Dry Bath)
10.0,289238.5,-6.024576,70.961
21.544346900318832,274138.1,-5.101928,70.9588
46.41588833612777,260389.5,-7.992872,70.957
100.0,324810.7,-15.16423,70.9553
215.44346900318823,263890.2,5.063209,70.946
464.15888336127773,299478.4,-42.72851,70.9431
1000.0,396692.7,23.84803,70.9551
2154.4346900318824,130637.5,-36.7606,70.9507
4641.588833612777,135901.2,-54.28546,70.9662
10000.0,58387.69,-75.17161,70.9561
