Frequency,Impedance,Phase Angle,Temperature (Dry Bath)
10.0,2789243.0,-7.630544,71.5435
21.544346900318832,4016113.0,5.183858,71.5519
46.41588833612777,4704061.0,-22.98913,71.5539
100.0,589971.1,53.24685,71.5391
215.44346900318823,2085258.0,48.45437,71.5501
464.15888336127773,920707.5,-11.00357,71.5369
1000.0,515180.9,-41.00683,71.5372
2154.4346900318824,523508.3,-84.4072,71.568
4641.588833612777,201922.7,-81.34597,71.5594
10000.0,89173.44,-84.08109,71.554
