Frequency,Impedance,Phase Angle,Temperature (Dry Bath)
10.0,3565579.0,-21.64343,71.4133
21.544346900318832,4477443.0,-1.967576,71.4175
46.41588833612777,6954244.0,-4.420856,71.4051
100.0,626439.2,36.64072,71.4124
215.44346900318823,2443923.0,-42.60973,71.4015
464.15888336127773,2959975.0,177.9235,71.4099
1000.0,1005566.0,-55.79641,71.4049
2154.4346900318824,345923.4,-94.46292,71.3984
4641.588833612777,228352.9,-99.27406,71.4144
10000.0,105473.0,-81.29477,71.4069
