Frequency,Impedance,Phase Angle,Temperature (Dry Bath)
10.0,5080714.0,-0.3585258,70.9699
21.544346900318832,6386658.0,-10.85388,70.9523
46.41588833612777,3818571.0,-27.56659,70.9407
100.0,7921094.0,-23.45582,70.9653
215.44346900318823,852985.4,-157.0978,70.9538
464.15888336127773,718029.1,-25.69694,70.9641
1000.0,1060503.0,-150.2994,70.9677
2154.4346900318824,229174.9,-93.86707,70.9562
4641.588833612777,145151.2,-79.69093,70.9654
10000.0,69754.36,-93.49696,70.9488
