Frequency,Impedance,Phase Angle,Temperature (Dry Bath)
10.0,5170367.0,-13.45536,71.0805
21.544346900318832,3753681.0,-33.36977,71.0853
46.41588833612777,3983863.0,-29.20121,71.0556
100.0,4806778.0,-47.82023,71.0694
215.44346900318823,1510642.0,17.93639,71.1012
464.15888336127773,662641.0,-58.57434,71.0557
1000.0,594122.1,-138.234,71.0707
2154.4346900318824,252765.9,-68.5814,71.0932
4641.588833612777,141083.0,-86.31549,71.0779
10000.0,63061.86,-86.00395,71.0808
