Frequency,Impedance,Phase Angle,Temperature (Dry Bath)
10.0,3940315.0,8.407874,28.6047
21.544346900318832,4732941.0,-12.82031,28.7992
46.41588833612777,4982571.0,-4.645876,28.7772
100.0,1283522.0,-21.34031,28.8072
215.44346900318823,2340039.0,33.78503,28.8448
464.15888336127773,1305568.0,49.36121,28.7996
1000.0,554134.7,80.51174,28.8958
2154.4346900318824,716331.5,-97.74944,28.7949
4641.588833612777,258943.0,-66.50731,28.8277
10000.0,149494.2,-85.99342,28.7936
