Frequency,Impedance,Phase Angle,Temperature (Dry Bath)
10.0,33336.1,-10.86306,70.9195
21.544346900318832,30891.29,-9.424004,70.9253
46.41588833612777,29145.27,-8.599441,70.9051
100.0,27333.53,-9.003415,70.8936
215.44346900318823,25537.2,-8.769334,70.9145
464.15888336127773,23779.16,-5.648848,70.9071
1000.0,22056.74,-8.447757,70.9135
2154.4346900318824,21560.26,-11.58137,70.9099
4641.588833612777,19824.73,-10.3167,70.9021
10000.0,17765.16,-22.42563,70.9219
