Frequency,Impedance,Phase Angle,Temperature (Dry Bath)
10.0,232373.7,-25.67337,71.3582
21.544346900318832,189097.7,-22.51877,71.341
46.41588833612777,156306.6,-20.58126,71.3501
100.0,134015.7,-20.88191,71.3512
215.44346900318823,111900.9,-11.63514,71.3483
464.15888336127773,97302.24,-26.00162,71.3589
1000.0,91950.1,-12.50616,71.3348
2154.4346900318824,88725.57,-27.80759,71.3599
4641.588833612777,61255.72,-42.19458,71.3461
10000.0,35914.3,-57.21487,71.3582
