Frequency,Impedance,Phase Angle,Temperature (Dry Bath)
10.0,3436730.0,-1.472674,71.2354
21.544346900318832,4085175.0,-26.92842,71.2443
46.41588833612777,4927372.0,-10.2633,71.2535
100.0,838940.2,132.7514,71.2473
215.44346900318823,1426153.0,58.25024,71.2363
464.15888336127773,12781990.0,176.5112,71.2711
1000.0,2036185.0,-77.71957,71.243
2154.4346900318824,538870.3,-89.34541,71.2696
4641.588833612777,329716.6,-72.18724,71.2553
10000.0,151323.7,-83.48628,71.2474
