Frequency,Impedance,Phase Angle,Temperature (Dry Bath)
10.0,105611.2,-13.44085,71.2636
21.544346900318832,95448.36,-11.84666,71.2562
46.41588833612777,86756.65,-11.52254,71.2556
100.0,61287.55,-15.67057,71.2435
215.44346900318823,55722.25,-11.54732,71.2604
464.15888336127773,69875.73,-14.49304,71.2598
1000.0,57362.54,-10.87044,71.2525
2154.4346900318824,58848.02,-20.06497,71.2592
4641.588833612777,48797.19,-28.91738,71.2501
10000.0,36405.17,-40.02628,71.246
