Frequency,Impedance,Phase Angle,Temperature (Dry Bath)
10.0,5024535.0,25.1137,71.2906
21.544346900318832,5657844.0,2.932137,71.2835
46.41588833612777,5728948.0,2.496812,71.2738
100.0,294272.7,-28.42833,71.2865
215.44346900318823,259893.2,-72.33962,71.2818
464.15888336127773,673932.3,-102.5642,71.2908
1000.0,229227.3,-142.8418,71.2845
2154.4346900318824,235786.2,-94.08121,71.2905
4641.588833612777,107888.5,-71.88225,71.2888
10000.0,64940.82,-88.62326,71.2754
