Frequency,Impedance,Phase Angle,Temperature (Dry Bath)
10.0,7009529.0,-17.59405,71.2984
21.544346900318832,5161901.0,-10.85876,71.3124
46.41588833612777,4184889.0,-32.48959,71.3008
100.0,446013.4,-37.39375,71.288
215.44346900318823,781948.4,-131.8947,71.3005
464.15888336127773,462858.6,-36.27908,71.3016
1000.0,236729.2,-80.94807,71.2889
2154.4346900318824,240406.0,-70.28957,71.3044
4641.588833612777,139799.6,-79.50058,71.2917
10000.0,68410.61,-86.72577,71.3029
