Frequency,Impedance,Phase Angle,Temperature (Dry Bath)
10.0,5581898.0,9.719649,71.4087
21.544346900318832,7027247.0,-8.279333,71.4026
46.41588833612777,3315846.0,0.8392862,71.3853
100.0,729844.5,138.2126,71.3895
215.44346900318823,14254.87,73.76182,71.4075
464.15888336127773,502403.0,-94.49114,71.4105
1000.0,834554.5,57.97025,71.4118
2154.4346900318824,323534.2,-90.78129,71.4192
4641.588833612777,120795.1,-83.84427,71.4086
10000.0,60291.4,-85.63585,71.4137
