Frequency,Impedance,Phase Angle,Temperature (Dry Bath)
10.0,66065.78,-14.90944,71.504
21.544346900318832,59151.51,-13.23307,71.4768
46.41588833612777,53695.69,-11.88742,71.4907
100.0,50669.95,-12.41792,71.4963
215.44346900318823,44669.66,-8.641746,71.489
464.15888336127773,45373.7,-11.87686,71.4837
1000.0,37113.47,-9.237945,71.5025
2154.4346900318824,35325.37,-11.937,71.4932
4641.588833612777,33335.14,-13.97552,71.4863
10000.0,32184.53,-23.76572,71.4851
