Frequency,Impedance,Phase Angle,Temperature (Dry Bath)
10.0,9074.245,-27.86671,70.7247
21.544346900318832,7181.497,-26.80125,70.7244
46.41588833612777,5719.338,-25.31483,70.7343
100.0,4561.415,-22.65548,70.7279
215.44346900318823,3868.503,-20.84808,70.7236
464.15888336127773,3278.228,-17.52065,70.7249
1000.0,2833.381,-14.55769,70.716
2154.4346900318824,2547.838,-12.892,70.721
4641.588833612777,2322.367,-11.89604,70.7196
10000.0,2128.404,-12.021,70.714
