Frequency,Impedance,Phase Angle,Temperature (Dry Bath)
10.0,6830.947,-35.80664,70.7342
21.544346900318832,5171.634,-31.04956,70.7257
46.41588833612777,4074.876,-26.49309,70.7142
100.0,3325.501,-22.32359,70.6949
215.44346900318823,2815.212,-18.43558,70.7154
464.15888336127773,2461.849,-15.44891,70.7208
1000.0,2174.483,-12.6928,70.71
2154.4346900318824,2005.029,-10.75483,70.7151
4641.588833612777,1850.652,-9.508892,70.7084
10000.0,1732.982,-8.891972,70.7084
