Frequency,Impedance,Phase Angle,Temperature (Dry Bath)
10.0,6170169.0,-14.74591,71.2111
21.544346900318832,8544022.0,7.31044,71.1973
46.41588833612777,3621525.0,-18.44752,71.2061
100.0,1245068.0,-37.65962,71.1945
215.44346900318823,3741512.0,-57.11959,71.1982
464.15888336127773,651490.9,-72.22044,71.2106
1000.0,299830.4,-65.08723,71.2001
2154.4346900318824,243717.8,-76.61486,71.2039
4641.588833612777,117816.5,-77.53742,71.2093
10000.0,67312.63,-95.39326,71.2131
