Frequency,Impedance,Phase Angle,Temperature (Dry Bath)
10.0,7171.647,-35.81601,70.73
21.544346900318832,5418.476,-31.14011,70.7443
46.41588833612777,4267.907,-26.64865,70.7242
100.0,3483.347,-22.47665,70.7152
215.44346900318823,2952.866,-18.50239,70.7326
464.15888336127773,2578.939,-15.38429,70.7462
1000.0,2299.003,-13.0333,70.7665
2154.4346900318824,2087.504,-10.87081,70.75
4641.588833612777,1934.435,-10.1448,70.7514
10000.0,1798.122,-9.138973,70.7327
