Frequency,Impedance,Phase Angle,Temperature (Dry Bath)
10.0,6987637.0,-43.95935,70.8998
21.544346900318832,5388000.0,0.2798742,70.8882
46.41588833612777,4571327.0,-10.07832,70.8843
100.0,416102.8,149.3447,70.9049
215.44346900318823,2855063.0,150.8551,70.8928
464.15888336127773,603177.0,-109.1699,70.8905
1000.0,699808.6,-102.0355,70.8938
2154.4346900318824,267925.8,-90.33636,70.894
4641.588833612777,124820.4,-89.8463,70.9007
10000.0,55633.07,-88.2593,70.8983
