Frequency,Impedance,Phase Angle,Temperature (Dry Bath)
10.0,6864117.0,-11.4882,28.7087
21.544346900318832,7694456.0,1.188077,28.8516
46.41588833612777,4745679.0,-25.95294,28.8356
100.0,913678.9,-125.4884,28.8453
215.44346900318823,2042636.0,149.517,28.9352
464.15888336127773,4491712.0,165.564,28.7546
1000.0,844707.1,-124.452,28.7147
2154.4346900318824,967636.1,-69.17063,28.9142
4641.588833612777,262096.7,-89.04008,28.9371
10000.0,146058.4,-79.85422,28.9033
