Frequency,Impedance,Phase Angle,Temperature (Dry Bath)
10.0,220563.8,-24.28305,71.4097
21.544346900318832,177116.8,-23.57399,71.3924
46.41588833612777,145659.1,-21.23646,71.4138
100.0,135188.2,-12.38143,71.4146
215.44346900318823,120093.8,-26.08764,71.3999
464.15888336127773,95843.93,-25.95806,71.4033
1000.0,75197.75,-17.05708,71.4132
2154.4346900318824,67764.22,-23.84964,71.4148
4641.588833612777,53025.23,-38.58922,71.4181
10000.0,35881.94,-52.83902,71.4077
