Frequency,Impedance,Phase Angle,Temperature (Dry Bath)
10.0,23513.55,-19.74275,71.1272
21.544346900318832,20199.5,-17.58488,71.1218
46.41588833612777,17572.54,-15.65878,71.125
100.0,16255.9,-15.03001,71.1108
215.44346900318823,14040.96,-12.61302,71.1255
464.15888336127773,12922.87,-11.26257,71.1376
1000.0,11933.57,-10.58263,71.1201
2154.4346900318824,10921.65,-10.05652,71.124
4641.588833612777,10222.65,-11.92715,71.1223
10000.0,9633.159,-15.29834,71.1134
