Frequency,Impedance,Phase Angle,Temperature (Dry Bath)
10.0,42192.46,-20.58394,71.3122
21.544346900318832,35743.41,-19.73054,71.3289
46.41588833612777,30428.76,-19.45883,71.3277
100.0,25232.82,-19.15354,71.3247
215.44346900318823,22156.08,-18.74669,71.3143
464.15888336127773,19210.85,-15.34431,71.3192
1000.0,16825.95,-15.41943,71.3345
2154.4346900318824,15113.37,-12.66547,71.3249
4641.588833612777,13623.78,-12.56923,71.3301
10000.0,12520.43,-14.24452,71.3378
