Frequency,Impedance,Phase Angle,Temperature (Dry Bath)
10.0,15061.42,-18.23474,71.2306
21.544346900318832,13087.36,-17.09406,71.2504
46.41588833612777,11431.69,-16.53768,71.2467
100.0,10275.2,-16.68677,71.2635
215.44346900318823,8807.729,-16.20768,71.2597
464.15888336127773,7982.713,-13.4289,71.2718
1000.0,7134.865,-12.37893,71.2542
2154.4346900318824,6519.858,-10.59776,71.2559
4641.588833612777,6012.013,-11.00192,71.2669
10000.0,5561.685,-12.29407,71.2669
