Frequency,Impedance,Phase Angle,Temperature (Dry Bath)
10.0,13053.47,-25.01069,71.4687
21.544346900318832,10517.88,-25.51845,71.4611
46.41588833612777,8393.05,-25.45577,71.4767
100.0,6814.773,-24.12075,71.4789
215.44346900318823,5439.416,-22.63382,71.4643
464.15888336127773,4535.711,-20.45445,71.471
1000.0,3832.263,-18.0252,71.4709
2154.4346900318824,3362.428,-15.36645,71.4719
4641.588833612777,2990.219,-14.19028,71.4754
10000.0,2697.613,-12.9814,71.481
