Frequency,Impedance,Phase Angle,Temperature (Dry Bath)
10.0,5584360.0,-4.989651,71.4757
21.544346900318832,6740279.0,-18.38994,71.4607
46.41588833612777,7055224.0,-24.5322,71.4644
100.0,3005078.0,39.23968,71.4433
215.44346900318823,1131954.0,-23.02551,71.4533
464.15888336127773,831801.8,-91.44188,71.4776
1000.0,912292.7,-101.8425,71.4578
2154.4346900318824,353115.8,-102.0527,71.4725
4641.588833612777,223302.3,-71.87187,71.4593
10000.0,142258.3,-83.48664,71.4793
