Frequency,Impedance,Phase Angle,Temperature (Dry Bath)
10.0,5272547.0,-16.37349,71.2744
21.544346900318832,4547861.0,-24.61041,71.2785
46.41588833612777,4631321.0,-19.56019,71.2725
100.0,1204857.0,70.84235,71.2544
215.44346900318823,950060.5,-166.5623,71.2717
464.15888336127773,1214735.0,-29.5876,71.2822
1000.0,519324.8,-70.97715,71.2728
2154.4346900318824,423827.7,-48.14415,71.2726
4641.588833612777,391695.4,-32.35892,71.2566
10000.0,148033.8,-80.48013,71.265
