Frequency,Impedance,Phase Angle,Temperature (Dry Bath)
10.0,5018574.0,18.88503,26.1449
21.544346900318832,6100867.0,-19.42787,25.7249
46.41588833612777,5518448.0,-9.611742,26.0577
100.0,738503.4,13.74311,26.1762
215.44346900318823,754019.7,-1.729032,25.959
464.15888336127773,2012009.0,-31.57468,25.78
1000.0,1230414.0,-28.71688,25.6385
2154.4346900318824,791615.0,-41.24063,25.7841
4641.588833612777,443658.1,-75.0698,25.7827
10000.0,160927.1,-76.4739,25.8638
