Frequency,Impedance,Phase Angle,Temperature (Dry Bath)
10.0,1375699.0,-3.862408,71.6846
21.544346900318832,1241229.0,-10.29618,71.6766
46.41588833612777,1125163.0,-13.72323,71.6858
100.0,455668.1,-76.56918,71.6943
215.44346900318823,183667.5,21.26685,71.6825
464.15888336127773,505030.0,-50.18357,71.6711
1000.0,591936.3,27.90521,71.6876
2154.4346900318824,278783.5,-67.22091,71.6854
4641.588833612777,278499.1,-78.52483,71.6801
10000.0,134914.1,-60.10584,71.6885
