Frequency,Impedance,Phase Angle,Temperature (Dry Bath)
10.0,5058990.0,25.87556,70.8819
21.544346900318832,5176429.0,-36.59767,70.9055
46.41588833612777,4602062.0,2.083327,70.9025
100.0,861369.9,-86.52753,70.8859
215.44346900318823,963634.1,-35.83669,70.8931
464.15888336127773,358656.0,-11.50491,70.9024
1000.0,222930.8,-70.63395,70.9018
2154.4346900318824,329015.3,-30.61216,70.8989
4641.588833612777,108020.7,-84.04424,70.8886
10000.0,71149.16,-88.37295,70.8926
