Frequency,Impedance,Phase Angle,Temperature (Dry Bath)
10.0,54425.72,-14.55536,70.6628
21.544346900318832,48718.34,-13.12447,70.6557
46.41588833612777,44431.36,-12.69959,70.6505
100.0,35836.51,-15.5868,70.6549
215.44346900318823,36316.21,-12.18753,70.6759
464.15888336127773,35368.01,-13.62199,70.6453
1000.0,29613.47,-16.44255,70.6598
2154.4346900318824,27370.0,-18.45869,70.6567
4641.588833612777,25488.08,-25.82386,70.6532
10000.0,19085.93,-35.57391,70.6497
