Frequency,Impedance,Phase Angle,Temperature (Dry Bath)
10.0,5886464.0,11.67737,71.5047
21.544346900318832,5942313.0,8.003856,71.5141
46.41588833612777,4201556.0,-27.24635,71.4991
100.0,366335.1,-55.03812,71.5132
215.44346900318823,501081.1,14.71755,71.5041
464.15888336127773,833999.3,129.3509,71.5231
1000.0,929953.1,-97.21139,71.5031
2154.4346900318824,433442.9,-89.85888,71.5073
4641.588833612777,195764.7,-84.68434,71.5042
10000.0,107653.4,-74.24354,71.5139
