Frequency,Impedance,Phase Angle,Temperature (Dry Bath)
10.0,3641434.0,-22.56795,71.675
21.544346900318832,3551074.0,-10.22245,71.6731
46.41588833612777,3580696.0,-6.835645,71.6843
100.0,727886.2,99.54997,71.6697
215.44346900318823,1253633.0,-22.55547,71.6575
464.15888336127773,561488.3,-118.6544,71.6511
1000.0,382746.8,-94.76191,71.6656
2154.4346900318824,434760.2,-66.71593,71.6643
4641.588833612777,193553.2,-88.0397,71.6679
10000.0,107558.7,-85.73686,71.671
