Frequency,Impedance,Phase Angle,Temperature (Dry Bath)
10.0,4493050.0,-7.090117,71.1546
21.544346900318832,8236308.0,1.7273,71.1402
46.41588833612777,4585737.0,-28.05091,71.1456
100.0,2024349.0,-116.5263,71.1486
215.44346900318823,947417.1,-1.529918,71.1398
464.15888336127773,1191533.0,-179.829,71.1473
1000.0,401948.7,-98.47654,71.1439
2154.4346900318824,337728.5,-70.27511,71.1476
4641.588833612777,110062.8,-79.06515,71.1434
10000.0,63399.76,-86.35841,71.1443
