Frequency,Impedance,Phase Angle,Temperature (Dry Bath)
10.0,187836.3,-15.45792,25.8029
21.544346900318832,165521.7,-14.44161,25.8946
46.41588833612777,148221.5,-13.85066,25.9037
100.0,126358.1,-12.76484,25.8364
215.44346900318823,129330.3,-11.8922,25.2329
464.15888336127773,114763.0,-15.66196,25.4005
1000.0,109049.0,-14.50558,25.7854
2154.4346900318824,83221.1,-16.46889,25.9854
4641.588833612777,78102.04,-22.85181,25.9946
10000.0,65718.51,-43.74196,26.0201
