Frequency,Impedance,Phase Angle,Temperature (Dry Bath)
10.0,7542991.0,19.5409,71.5753
21.544346900318832,3685399.0,-23.58519,71.5661
46.41588833612777,3390295.0,-1.782377,71.5726
100.0,476593.2,171.7991,71.5638
215.44346900318823,847291.8,-107.9182,71.5774
464.15888336127773,767215.2,46.22831,71.5714
1000.0,1325913.0,-80.2132,71.5695
2154.4346900318824,702988.7,-106.7982,71.5722
4641.588833612777,416523.4,-65.62213,71.5546
10000.0,110370.9,-77.4816,71.5648
