Frequency,Impedance,Phase Angle,Temperature (Dry Bath)
10.0,2784771.0,-23.07361,71.3164
21.544346900318832,2309141.0,-14.00067,71.3179
46.41588833612777,2094790.0,-20.14423,71.3208
100.0,1293557.0,24.52575,71.3255
215.44346900318823,132206.6,-49.17429,71.3222
464.15888336127773,410242.5,-63.8097,71.3244
1000.0,323645.2,-39.77117,71.32
2154.4346900318824,292568.6,-74.21664,71.3252
4641.588833612777,144590.0,-89.12121,71.3151
10000.0,58283.3,-83.43074,71.3179
