Frequency,Impedance,Phase Angle,Temperature (Dry Bath)
10.0,5081075.0,-11.11353,71.269
21.544346900318832,4555392.0,-20.78819,71.2673
46.41588833612777,3979520.0,-26.1133,71.264
100.0,279390.2,-12.99615,71.2646
215.44346900318823,1529218.0,-79.52118,71.2663
464.15888336127773,407993.2,-79.85935,71.2723
1000.0,1267117.0,-35.72617,71.2653
2154.4346900318824,246196.9,-83.50335,71.27
4641.588833612777,123714.1,-73.79301,71.2541
10000.0,60348.17,-85.57171,71.2672
