Frequency,Impedance,Phase Angle,Temperature (Dry Bath)
10.0,4218200.0,7.689541,72.2674
21.544346900318832,5561844.0,-13.69647,72.2604
46.41588833612777,5020011.0,-3.925855,72.265
100.0,281409.8,-69.2303,72.2632
215.44346900318823,591408.5,23.76817,72.2669
464.15888336127773,349781.1,-156.9711,72.2674
1000.0,318689.5,-41.0505,72.2708
2154.4346900318824,1488181.0,2.502086,72.2708
4641.588833612777,175121.7,-96.49375,72.2757
10000.0,138557.1,-90.97292,72.2636
