Frequency,Impedance,Phase Angle,Temperature (Dry Bath)
10.0,3417715.0,-4.45843,70.6066
21.544346900318832,6523248.0,14.08885,70.6125
46.41588833612777,5132314.0,-24.80494,70.6082
100.0,374410.1,-14.88131,70.5968
215.44346900318823,821619.1,64.78924,70.6103
464.15888336127773,1053032.0,-137.6756,70.6013
1000.0,214905.8,-133.0233,70.607
2154.4346900318824,174577.3,-86.03078,70.6065
4641.588833612777,165015.2,-93.50124,70.5968
10000.0,66012.57,-84.20047,70.6029
