Frequency,Impedance,Phase Angle,Temperature (Dry Bath)
10.0,6857608.0,-0.7286563,71.3706
21.544346900318832,4854735.0,11.67009,71.375
46.41588833612777,4063651.0,-21.15817,71.3839
100.0,1027105.0,52.15401,71.3865
215.44346900318823,560923.6,29.5102,71.3915
464.15888336127773,396995.1,-128.9043,71.3864
1000.0,486922.9,-56.88442,71.3907
2154.4346900318824,247547.9,-79.58236,71.3892
4641.588833612777,146830.7,-81.2035,71.3826
10000.0,61910.17,-84.94899,71.3815
