Frequency,Impedance,Phase Angle,Temperature (Dry Bath)
10.0,4993978.0,-30.42975,71.185
21.544346900318832,9445312.0,-43.27893,71.189
46.41588833612777,5976376.0,8.942055,71.1653
100.0,362254.6,-18.82143,71.1859
215.44346900318823,1125567.0,25.05075,71.197
464.15888336127773,703972.7,-111.0753,71.1879
1000.0,410525.5,-8.799484,71.181
2154.4346900318824,342169.4,-14.00276,71.1903
4641.588833612777,2998522.0,178.5726,71.1835
10000.0,178344.9,-92.5746,71.1785
