Frequency,Impedance,Phase Angle,Temperature (Dry Bath)
10.0,3353704.0,5.0364,71.0284
21.544346900318832,8643282.0,-15.95975,71.0364
46.41588833612777,3854474.0,-22.95233,71.0099
100.0,1464878.0,-34.08368,71.0292
215.44346900318823,787471.2,72.04847,71.048
464.15888336127773,784321.3,-23.21593,71.0451
1000.0,367598.9,-73.52637,71.0278
2154.4346900318824,361068.6,-98.9019,71.0365
4641.588833612777,119322.1,-78.61874,71.0426
10000.0,56554.65,-76.21194,71.0266
