Frequency,Impedance,Phase Angle,Temperature (Dry Bath)
10.0,6345943.0,-5.434691,71.4835
21.544346900318832,3759002.0,-21.86304,71.4882
46.41588833612777,3974446.0,-6.838243,71.4892
100.0,221651.6,-13.36086,71.4962
215.44346900318823,655361.6,-3.312502,71.493
464.15888336127773,428501.5,-130.6848,71.4959
1000.0,797776.9,-71.44675,71.5011
2154.4346900318824,300072.7,-76.01819,71.4891
4641.588833612777,225112.0,-49.78523,71.4895
10000.0,98754.92,-80.42013,71.4837
