Frequency,Impedance,Phase Angle,Temperature (Dry Bath)
10.0,6135652.0,-23.14168,70.755
21.544346900318832,6008109.0,-8.576632,70.725
46.41588833612777,4185198.0,-17.86264,70.745
100.0,233305.4,-84.48584,70.7529
215.44346900318823,694460.9,-0.3193062,70.7576
464.15888336127773,902775.0,-17.50715,70.7246
1000.0,1266121.0,-7.920204,70.7405
2154.4346900318824,246285.1,-85.18337,70.7282
4641.588833612777,127718.1,-78.88953,70.7603
10000.0,51336.98,-89.46277,70.7488
