Frequency,Impedance,Phase Angle,Temperature (Dry Bath)
10.0,841487.6,-29.22809,71.2937
21.544346900318832,664653.0,-30.25308,71.2968
46.41588833612777,509823.4,-33.96786,71.3061
100.0,283239.0,-45.18033,71.2961
215.44346900318823,140711.3,-52.30626,71.2904
464.15888336127773,252217.9,-21.50469,71.3176
1000.0,161752.2,-24.52569,71.3109
2154.4346900318824,176508.7,-58.4347,71.3264
4641.588833612777,90274.74,-62.65587,71.3157
10000.0,53579.67,-67.73738,71.321
