Frequency,Impedance,Phase Angle,Temperature (Dry Bath)
10.0,11312930.0,-42.03985,71.1698
21.544346900318832,4640347.0,-7.997712,71.1624
46.41588833612777,5903220.0,-29.94956,71.1604
100.0,2609083.0,98.75766,71.1554
215.44346900318823,881921.2,-137.2529,71.1635
464.15888336127773,690150.3,-153.3405,71.1624
1000.0,484911.5,-104.9329,71.1717
2154.4346900318824,251870.8,-109.0111,71.1809
4641.588833612777,116956.1,-80.56746,71.1631
10000.0,62563.49,-85.36657,71.1668
