Frequency,Impedance,Phase Angle,Temperature (Dry Bath)
10.0,4621587.0,-3.047379,71.4462
21.544346900318832,4584240.0,-24.22223,71.4464
46.41588833612777,6334164.0,-10.52909,71.4492
100.0,1420602.0,3.05681,71.4517
215.44346900318823,1969392.0,-97.92742,71.4451
464.15888336127773,702253.9,-100.6294,71.4544
1000.0,687699.6,-84.06575,71.4539
2154.4346900318824,593684.8,-87.76149,71.4572
4641.588833612777,286532.5,-102.4336,71.45
10000.0,109491.8,-90.05643,71.4558
