Frequency,Impedance,Phase Angle,Temperature (Dry Bath)
10.0,11444.73,-25.58547,71.4406
21.544346900318832,9343.855,-22.71444,71.4432
46.41588833612777,7801.84,-19.98353,71.4534
100.0,6809.176,-17.08064,71.4507
215.44346900318823,5835.565,-14.94091,71.4438
464.15888336127773,5205.551,-13.22662,71.4501
1000.0,4776.186,-11.43157,71.4567
2154.4346900318824,4324.504,-10.01402,71.4476
4641.588833612777,4022.562,-9.22181,71.4409
10000.0,3797.493,-10.70924,71.4379
