Frequency,Impedance,Phase Angle,Temperature (Dry Bath)
10.0,200832.0,-18.06204,71.4059
21.544346900318832,175615.2,-15.60542,71.4015
46.41588833612777,155865.1,-16.71738,71.3916
100.0,175544.2,-27.4997,71.4033
215.44346900318823,181117.2,-48.18937,71.403
464.15888336127773,111895.0,-13.87076,71.4033
1000.0,83410.66,-25.79643,71.4054
2154.4346900318824,81483.34,-30.94588,71.4024
4641.588833612777,57833.56,-46.59091,71.4036
10000.0,34857.15,-52.10374,71.4058
