Frequency,Impedance,Phase Angle,Temperature (Dry Bath)
10.0,4032335.0,3.333505,71.4363
21.544346900318832,5898507.0,-41.94756,71.4367
46.41588833612777,3664596.0,-41.2807,71.4188
100.0,351938.1,20.65456,71.3979
215.44346900318823,194054.0,-58.28026,71.4333
464.15888336127773,2274725.0,-47.37957,71.4423
1000.0,1734624.0,119.8323,71.4497
2154.4346900318824,287510.8,-92.46037,71.4302
4641.588833612777,134275.0,-81.21675,71.4259
10000.0,58588.24,-81.39467,71.4194
