Frequency,Impedance,Phase Angle,Temperature (Dry Bath)
10.0,11320.22,-24.65018,70.9483
21.544346900318832,9384.44,-20.73684,70.943
46.41588833612777,8044.424,-17.34135,70.9544
100.0,7139.068,-14.67083,70.9542
215.44346900318823,6397.818,-12.05718,70.9458
464.15888336127773,5883.116,-10.32834,70.9499
1000.0,5392.533,-9.251699,70.9392
2154.4346900318824,5063.29,-8.326971,70.9386
4641.588833612777,4751.058,-8.543435,70.9475
10000.0,4540.834,-9.936305,70.9397
