Frequency,Impedance,Phase Angle,Temperature (Dry Bath)
10.0,4952810.0,-28.4205,71.456
21.544346900318832,3583257.0,-16.57129,71.4132
46.41588833612777,3863080.0,-45.99035,71.422
100.0,522519.4,26.1134,71.451
215.44346900318823,285990.8,-119.1509,71.443
464.15888336127773,2092884.0,-125.868,71.4344
1000.0,255695.6,-56.99818,71.4618
2154.4346900318824,439120.6,-112.7077,71.4347
4641.588833612777,178490.7,-87.47391,71.4532
10000.0,63133.37,-87.94818,71.4262
