Frequency,Impedance,Phase Angle,Temperature (Dry Bath)
10.0,5558502.0,27.17073,71.2936
21.544346900318832,4893637.0,13.04524,71.3025
46.41588833612777,4778510.0,-32.36416,71.2825
100.0,896240.1,9.890929,71.3058
215.44346900318823,1252494.0,73.97723,71.2947
464.15888336127773,732754.5,-97.27081,71.3046
1000.0,1037271.0,-49.5027,71.2858
2154.4346900318824,218742.1,-76.45994,71.2886
4641.588833612777,137674.4,-71.8011,71.2835
10000.0,64412.17,-81.36334,71.2933
