Frequency,Impedance,Phase Angle,Temperature (Dry Bath)
10.0,4214480.0,3.126099,69.3407
21.544346900318832,4900089.0,-7.271619,69.3268
46.41588833612777,5434467.0,-15.99843,69.3479
100.0,1108435.0,-26.12889,69.344
215.44346900318823,1915213.0,129.8866,69.3427
464.15888336127773,1099584.0,13.57567,69.3377
1000.0,1171927.0,-110.424,69.3583
2154.4346900318824,287059.9,-129.3475,69.3515
4641.588833612777,128421.5,-92.31198,69.3551
10000.0,70411.75,-92.6971,69.3681
