Frequency,Impedance,Phase Angle,Temperature (Dry Bath)
10.0,6613018.0,-13.96639,71.1573
21.544346900318832,8714796.0,-23.51878,71.1588
46.41588833612777,4096554.0,-22.82068,71.1419
100.0,1162947.0,-128.9353,71.147
215.44346900318823,2377595.0,96.9066,71.1483
464.15888336127773,812687.4,-72.39516,71.1485
1000.0,229656.7,-98.37048,71.1526
2154.4346900318824,287928.7,-91.46542,71.166
4641.588833612777,141858.5,-88.5029,71.1499
10000.0,57601.31,-90.07044,71.1676
