Frequency,Impedance,Phase Angle,Temperature (Dry Bath)
10.0,5102007.0,-30.18266,71.2396
21.544346900318832,5521304.0,-8.614936,71.2455
46.41588833612777,6370674.0,-13.37587,71.2462
100.0,496082.6,173.4495,71.2438
215.44346900318823,1012113.0,-2.870251,71.261
464.15888336127773,646562.7,-35.628,71.251
1000.0,678901.0,-33.76474,71.243
2154.4346900318824,456714.3,-106.0529,71.2389
4641.588833612777,301428.4,-75.20452,71.2605
10000.0,144882.6,-90.86508,71.2368
