Frequency,Impedance,Phase Angle,Temperature (Dry Bath)
10.0,6628.112,-28.37352,69.4652
21.544346900318832,5245.72,-26.04987,69.4743
46.41588833612777,4250.778,-23.18641,69.4885
100.0,3558.517,-20.11066,69.4848
215.44346900318823,3043.033,-16.63653,69.4886
464.15888336127773,2671.019,-14.09466,69.4841
1000.0,2384.253,-12.26851,69.4877
2154.4346900318824,2182.163,-10.56846,69.4979
4641.588833612777,2028.48,-9.711926,69.5059
10000.0,1906.33,-9.48699,69.5097
