Frequency,Impedance,Phase Angle,Temperature (Dry Bath)
10.0,7803051.0,-23.84747,70.6253
21.544346900318832,5259207.0,-20.65846,70.6223
46.41588833612777,5290277.0,-39.42055,70.6231
100.0,638166.8,10.89109,70.6372
215.44346900318823,928676.6,71.58696,70.6288
464.15888336127773,733639.8,-21.98683,70.632
1000.0,752266.7,129.2829,70.6298
2154.4346900318824,203075.1,-63.96764,70.6351
4641.588833612777,130751.1,-89.10072,70.6405
10000.0,60985.52,-92.21764,70.6239
