Frequency,Impedance,Phase Angle,Temperature (Dry Bath)
10.0,13471450.0,-0.3387505,70.9428
21.544346900318832,3931919.0,6.795073,70.9243
46.41588833612777,5810175.0,-1.938114,70.9259
100.0,1733278.0,-95.43331,70.9282
215.44346900318823,678475.6,-75.82985,70.9138
464.15888336127773,1076662.0,105.3556,70.9271
1000.0,392939.5,-118.9165,70.9174
2154.4346900318824,210678.0,-65.70691,70.9285
4641.588833612777,99931.89,-82.02025,70.9141
10000.0,57532.27,-97.40566,70.922
