Frequency,Impedance,Phase Angle,Temperature (Dry Bath)
10.0,5084642.0,-32.05591,71.1848
21.544346900318832,6668938.0,-20.63567,71.1864
46.41588833612777,4783328.0,-8.803238,71.1834
100.0,1899177.0,100.2348,71.1814
215.44346900318823,2363026.0,96.71803,71.1865
464.15888336127773,1333339.0,-86.31945,71.1985
1000.0,608632.6,-82.63052,71.1979
2154.4346900318824,252420.4,-77.99999,71.1935
4641.588833612777,114075.2,-87.65802,71.1991
10000.0,58527.83,-85.43268,71.1985
