Frequency,Impedance,Phase Angle,Temperature (Dry Bath)
10.0,4636550.0,2.104545,71.3749
21.544346900318832,3878677.0,8.545679,71.3699
46.41588833612777,4597163.0,-16.69367,71.3731
100.0,550283.5,-10.13017,71.3618
215.44346900318823,667308.6,-145.7128,71.3689
464.15888336127773,1163945.0,-43.41939,71.3683
1000.0,667291.2,-92.67739,71.3584
2154.4346900318824,680995.2,-51.35976,71.3544
4641.588833612777,163713.3,-90.20862,71.3609
10000.0,94381.45,-87.36882,71.3714
