Frequency,Impedance,Phase Angle,Temperature (Dry Bath)
10.0,3963926.0,18.7492,71.2962
21.544346900318832,5744406.0,-9.872793,71.2709
46.41588833612777,4084209.0,-38.61352,71.2704
100.0,977333.7,-153.2887,71.2642
215.44346900318823,537942.4,-23.93207,71.2888
464.15888336127773,392134.6,-88.54237,71.2766
1000.0,1255412.0,-95.07096,71.2983
2154.4346900318824,274757.5,-94.43104,71.2717
4641.588833612777,167530.7,-84.90967,71.2773
10000.0,55883.39,-89.46683,71.2785
