Frequency,Impedance,Phase Angle,Temperature (Dry Bath)
10.0,99253.4,-13.55395,71.6044
21.544346900318832,89531.56,-12.00529,71.5977
46.41588833612777,81933.25,-10.68028,71.6133
100.0,77048.99,-6.461186,71.6276
215.44346900318823,61591.86,-6.954503,71.6133
464.15888336127773,65691.51,-15.99688,71.6132
1000.0,68798.07,-18.21534,71.6094
2154.4346900318824,55083.24,-2.205958,71.6271
4641.588833612777,58496.25,-23.4191,71.6179
10000.0,40987.93,-30.06142,71.6171
