Frequency,Impedance,Phase Angle,Temperature (Dry Bath)
10.0,12645.49,-27.22714,71.3858
21.544346900318832,10143.11,-24.65626,71.3772
46.41588833612777,8325.218,-21.97614,71.3819
100.0,7147.333,-19.46205,71.3803
215.44346900318823,6061.223,-16.51306,71.3714
464.15888336127773,5355.144,-14.25087,71.38
1000.0,4792.079,-13.49762,71.382
2154.4346900318824,4304.916,-12.07652,71.3751
4641.588833612777,3934.599,-11.38632,71.3747
10000.0,3607.688,-12.21327,71.3737
