Frequency,Impedance,Phase Angle,Temperature (Dry Bath)
10.0,4191708.0,-16.50719,71.5344
21.544346900318832,4785373.0,-18.32206,71.539
46.41588833612777,3936392.0,-29.66166,71.5307
100.0,1312529.0,-105.3411,71.5466
215.44346900318823,613952.3,-88.37354,71.5249
464.15888336127773,745900.9,-14.28776,71.5412
1000.0,1847843.0,-90.8015,71.5315
2154.4346900318824,557785.2,-91.18574,71.5458
4641.588833612777,224253.4,-76.7757,71.5372
10000.0,98818.97,-72.84529,71.5361
