Frequency,Impedance,Phase Angle,Temperature (Dry Bath)
10.0,41807.93,-13.69851,71.0202
21.544346900318832,37813.37,-12.50699,71.0438
46.41588833612777,34122.49,-11.54477,71.051
100.0,26825.21,-13.35976,71.0254
215.44346900318823,29209.34,-9.248342,71.0347
464.15888336127773,26291.69,-13.90415,71.0418
1000.0,21782.06,-16.18082,71.0322
2154.4346900318824,22149.62,-5.649638,71.0489
4641.588833612777,21497.94,-12.84685,71.0409
10000.0,20866.36,-9.840406,71.0369
