Frequency,Impedance,Phase Angle,Temperature (Dry Bath)
10.0,11946.16,-27.24273,70.9975
21.544346900318832,9635.586,-24.07931,71.0295
46.41588833612777,7979.955,-20.98427,71.0157
100.0,6807.438,-18.00142,71.0209
215.44346900318823,5960.638,-15.87284,71.0085
464.15888336127773,5381.646,-12.99327,71.0143
1000.0,4832.272,-11.38371,71.0024
2154.4346900318824,4427.368,-10.47536,71.0068
4641.588833612777,4099.817,-10.43049,71.0074
10000.0,3791.774,-11.76442,71.0049
