Frequency,Impedance,Phase Angle,Temperature (Dry Bath)
10.0,1372779.0,-17.90486,71.3739
21.544346900318832,1017169.0,-17.9171,71.3611
46.41588833612777,945591.2,-18.52037,71.3644
100.0,466372.3,-74.73012,71.3613
215.44346900318823,755699.2,-27.35788,71.3708
464.15888336127773,473880.0,-13.41047,71.3628
1000.0,709367.2,-59.09652,71.3588
2154.4346900318824,216179.3,-53.75231,71.3518
4641.588833612777,109842.5,-74.29641,71.3646
10000.0,64562.67,-76.96938,71.366
