Frequency,Impedance,Phase Angle,Temperature (Dry Bath)
10.0,154867.3,-11.05018,70.976
21.544346900318832,141339.3,-9.526884,70.961
46.41588833612777,132534.0,-9.134598,70.9799
100.0,96957.29,-6.941061,70.9872
215.44346900318823,117838.2,-4.06436,70.9711
464.15888336127773,104954.9,-10.58293,70.9673
1000.0,94238.16,-15.17309,70.9784
2154.4346900318824,95287.93,-28.18039,70.9643
4641.588833612777,59380.6,-48.24327,70.9644
10000.0,40128.46,-57.95973,70.9779
