Frequency,Impedance,Phase Angle,Temperature (Dry Bath)
10.0,5388490.0,-12.24606,28.6505
21.544346900318832,8076723.0,-10.57547,28.6321
46.41588833612777,4939656.0,-11.63341,28.5859
100.0,657996.1,-26.91666,28.7245
215.44346900318823,1951788.0,-71.35755,28.4078
464.15888336127773,566940.6,26.27534,28.4559
1000.0,485390.6,7.336103,28.7544
2154.4346900318824,510365.4,-101.0183,28.7197
4641.588833612777,246462.8,-71.99393,28.8007
10000.0,129565.3,-83.55589,28.7667
