Frequency,Impedance,Phase Angle,Temperature (Dry Bath)
10.0,180150.8,-12.8925,71.2978
21.544346900318832,164697.4,-12.33004,71.2832
46.41588833612777,143522.6,-11.95224,71.289
100.0,104037.6,-3.421034,71.2831
215.44346900318823,498941.9,-72.71821,71.2757
464.15888336127773,124013.9,-15.04374,71.2711
1000.0,102583.2,-21.57296,71.2719
2154.4346900318824,101161.5,-18.60603,71.26
4641.588833612777,67423.13,-36.18862,71.2849
10000.0,46464.95,-54.36905,71.2669
