Frequency,Impedance,Phase Angle,Temperature (Dry Bath)
10.0,8544.533,-28.34803,70.7282
21.544346900318832,6728.257,-27.21381,70.7308
46.41588833612777,5352.959,-25.39404,70.7277
100.0,4321.332,-22.95372,70.7274
215.44346900318823,3615.887,-20.18717,70.7197
464.15888336127773,3097.765,-17.1759,70.7316
1000.0,2718.851,-14.77995,70.7185
2154.4346900318824,2427.428,-12.71492,70.7215
4641.588833612777,2222.44,-11.46145,70.7302
10000.0,2031.884,-11.42747,70.733
