Frequency,Impedance,Phase Angle,Temperature (Dry Bath)
10.0,7317209.0,18.35706,71.184
21.544346900318832,4373537.0,0.7336588,71.1707
46.41588833612777,5267078.0,-7.504093,71.1762
100.0,405000.3,-140.4432,71.1902
215.44346900318823,320639.8,9.376689,71.1913
464.15888336127773,861158.4,-67.3545,71.1979
1000.0,227818.3,16.82996,71.2048
2154.4346900318824,367663.3,-174.8537,71.2076
4641.588833612777,564316.8,-94.47209,71.2106
10000.0,122809.9,-95.35735,71.223
