Frequency,Impedance,Phase Angle,Temperature (Dry Bath)
10.0,4909530.0,2.703444,71.4525
21.544346900318832,4465750.0,20.80732,71.4686
46.41588833612777,5292615.0,0.8364371,71.465
100.0,451458.3,0.388064,71.4754
215.44346900318823,978566.8,-44.63914,71.4977
464.15888336127773,822491.5,-43.71277,71.4595
1000.0,1343130.0,169.4811,71.4791
2154.4346900318824,364926.8,-101.5956,71.4675
4641.588833612777,317876.1,-86.45894,71.4755
10000.0,141957.7,-84.86925,71.4737
