Frequency,Impedance,Phase Angle,Temperature (Dry Bath)
10.0,7961124.0,-13.28404,71.2571
21.544346900318832,5893279.0,-0.6976689,71.2724
46.41588833612777,4531678.0,-3.987284,71.2675
100.0,546625.0,-28.68316,71.2557
215.44346900318823,1728677.0,135.5536,71.2789
464.15888336127773,1456877.0,84.13689,71.261
1000.0,9204905.0,-16.89382,71.2707
2154.4346900318824,815430.6,-94.65081,71.2765
4641.588833612777,284487.7,-108.9734,71.2622
10000.0,173075.0,-88.79774,71.2962
