Frequency,Impedance,Phase Angle,Temperature (Dry Bath)
10.0,10227.45,-25.54282,71.0346
21.544346900318832,8421.718,-21.4082,71.034
46.41588833612777,7176.947,-17.81277,71.0366
100.0,6242.541,-14.41927,71.0276
215.44346900318823,5691.656,-12.09848,71.0269
464.15888336127773,5240.416,-10.91135,71.0417
1000.0,4741.81,-9.272791,71.0384
2154.4346900318824,4493.398,-8.304604,71.0352
4641.588833612777,4293.705,-8.034339,71.037
10000.0,4055.777,-9.900998,71.0378
