Frequency,Impedance,Phase Angle,Temperature (Dry Bath)
10.0,3945950.0,-27.99092,70.8329
21.544346900318832,4122625.0,-9.924947,70.8104
46.41588833612777,4340572.0,-25.11111,70.8324
100.0,566517.2,-0.2739563,70.8177
215.44346900318823,1318333.0,-101.369,70.8277
464.15888336127773,970150.0,-36.05171,70.8094
1000.0,467870.8,-104.881,70.8312
2154.4346900318824,290525.6,-107.9111,70.8325
4641.588833612777,110241.4,-86.15185,70.8246
10000.0,59626.33,-79.11192,70.8373
