Frequency,Impedance,Phase Angle,Temperature (Dry Bath)
10.0,3203551.0,15.57548,71.0038
21.544346900318832,4004712.0,-0.9767922,70.9971
46.41588833612777,4710115.0,-34.05759,71.0096
100.0,909619.3,0.1292393,71.0004
215.44346900318823,724857.5,-23.12372,71.0012
464.15888336127773,1118477.0,-36.06137,71.0086
1000.0,303116.2,-98.96296,71.0049
2154.4346900318824,289753.7,-95.36985,70.9933
4641.588833612777,130698.3,-93.87532,70.9985
10000.0,70192.03,-84.68779,70.9935
