Frequency,Impedance,Phase Angle,Temperature (Dry Bath)
10.0,7330.872,-30.55887,70.8818
21.544346900318832,5784.692,-26.95482,70.8811
46.41588833612777,4695.891,-23.46743,70.8792
100.0,3970.902,-19.28119,70.8692
215.44346900318823,3359.323,-17.05001,70.8826
464.15888336127773,2964.252,-14.22013,70.877
1000.0,2676.398,-11.69487,70.8696
2154.4346900318824,2458.971,-9.385103,70.8762
4641.588833612777,2324.254,-8.234411,70.884
10000.0,2212.456,-7.803544,70.878
