Frequency,Impedance,Phase Angle,Temperature (Dry Bath)
10.0,166664.6,-13.57795,70.9274
21.544346900318832,150917.6,-11.78623,70.9261
46.41588833612777,137464.6,-11.89192,70.933
100.0,136580.5,-28.24883,70.9339
215.44346900318823,117800.4,-7.771824,70.9361
464.15888336127773,109075.4,-8.298661,70.924
1000.0,83589.42,-16.91655,70.9212
2154.4346900318824,83422.93,-19.09045,70.9313
4641.588833612777,80149.75,-40.77458,70.9397
10000.0,44362.57,-49.59178,70.9257
