Frequency,Impedance,Phase Angle,Temperature (Dry Bath)
10.0,3778343.0,-0.2034698,71.5499
21.544346900318832,5362805.0,-5.930922,71.5307
46.41588833612777,4299276.0,-10.48334,71.5458
100.0,694726.0,26.77872,71.5544
215.44346900318823,750533.8,12.8533,71.5398
464.15888336127773,1598704.0,128.3707,71.5511
1000.0,496149.0,-37.07953,71.5385
2154.4346900318824,448421.1,-50.22708,71.5415
4641.588833612777,303269.8,-94.62331,71.5446
10000.0,131043.9,-84.81037,71.5467
