Frequency,Impedance,Phase Angle,Temperature (Dry Bath)
10.0,11082.67,-28.73764,71.2967
21.544346900318832,8780.918,-27.9176,71.294
46.41588833612777,7015.756,-26.54523,71.297
100.0,5719.808,-23.45717,71.2975
215.44346900318823,4743.179,-20.99467,71.2958
464.15888336127773,4034.518,-18.204,71.2872
1000.0,3489.075,-16.0835,71.2902
2154.4346900318824,3102.041,-14.11352,71.2687
4641.588833612777,2759.032,-12.61823,71.2796
10000.0,2514.742,-11.19174,71.291
