Frequency,Impedance,Phase Angle,Temperature (Dry Bath)
10.0,12010790.0,-8.624207,71.8525
21.544346900318832,6910064.0,-0.2072502,71.8422
46.41588833612777,4594620.0,-18.11308,71.8411
100.0,548359.4,77.3731,71.8466
215.44346900318823,613970.3,-78.15611,71.8603
464.15888336127773,445736.9,-66.21708,71.8616
1000.0,257946.0,-68.41165,71.8586
2154.4346900318824,265172.8,-98.67892,71.8604
4641.588833612777,216642.5,-114.5362,71.8561
10000.0,132765.5,-86.29919,71.8611
