Frequency,Impedance,Phase Angle,Temperature (Dry Bath)
10.0,510301.0,-12.52171,71.3097
21.544346900318832,483988.2,-15.7726,71.3123
46.41588833612777,421764.2,-21.54379,71.3181
100.0,448753.2,5.420898,71.3302
215.44346900318823,19297.34,173.0782,71.3296
464.15888336127773,236349.5,-23.63244,71.3097
1000.0,250167.3,-41.68636,71.2972
2154.4346900318824,163095.9,-61.89297,71.3179
4641.588833612777,91739.61,-65.39418,71.3031
10000.0,49087.79,-70.77902,71.3145
