Frequency,Impedance,Phase Angle,Temperature (Dry Bath)
10.0,5724913.0,-15.90231,25.7196
21.544346900318832,4194968.0,-21.83446,25.5187
46.41588833612777,5110315.0,-12.72939,25.7776
100.0,669280.4,16.58222,25.8031
215.44346900318823,955851.4,-100.1405,25.5416
464.15888336127773,730383.9,44.44149,25.8894
1000.0,1104174.0,-23.94749,25.3851
2154.4346900318824,516183.7,-82.24515,25.8436
4641.588833612777,610702.3,-93.60765,25.8706
10000.0,143071.6,-80.34408,25.9583
