Frequency,Impedance,Phase Angle,Temperature (Dry Bath)
10.0,120344.0,-17.75415,71.2496
21.544346900318832,105726.6,-16.031,71.2663
46.41588833612777,93531.48,-15.30816,71.2459
100.0,78543.94,-10.7124,71.2441
215.44346900318823,76401.09,-14.75856,71.2664
464.15888336127773,69089.74,-14.17729,71.2547
1000.0,61596.22,-10.71566,71.2571
2154.4346900318824,56685.41,-18.33869,71.2677
4641.588833612777,47629.47,-16.54497,71.2741
10000.0,43702.0,-26.2347,71.2807
