Frequency,Impedance,Phase Angle,Temperature (Dry Bath)
10.0,7783306.0,8.015052,71.2712
21.544346900318832,4645072.0,-30.50207,71.2859
46.41588833612777,7780103.0,-45.61796,71.3018
100.0,530580.2,10.3952,71.2782
215.44346900318823,569018.2,1.56111,71.2819
464.15888336127773,3023421.0,-161.7903,71.2904
1000.0,574758.9,-107.4494,71.3045
2154.4346900318824,252204.8,-79.14339,71.2736
4641.588833612777,140298.1,-82.29173,71.2671
10000.0,64330.49,-89.61786,71.2701
