Frequency,Impedance,Phase Angle,Temperature (Dry Bath)
10.0,24346.98,-12.82744,70.8403
21.544346900318832,22152.36,-10.25013,70.8423
46.41588833612777,20605.33,-8.117146,70.832
100.0,20028.13,-3.726202,70.8232
215.44346900318823,19144.25,-5.299656,70.8459
464.15888336127773,17796.31,-5.008668,70.8444
1000.0,17806.12,-6.550039,70.8566
2154.4346900318824,16993.28,-7.735427,70.8462
4641.588833612777,16542.74,-9.5159,70.8488
10000.0,16237.39,-18.77705,70.861
