Frequency,Impedance,Phase Angle,Temperature (Dry Bath)
10.0,4968841.0,-9.424594,71.4195
21.544346900318832,6482126.0,-2.877741,71.4181
46.41588833612777,5468373.0,-31.40697,71.4307
100.0,1888201.0,-13.67457,71.4063
215.44346900318823,800642.3,-71.35625,71.4133
464.15888336127773,1481062.0,-17.2457,71.4309
1000.0,353319.1,-76.12765,71.423
2154.4346900318824,235402.5,-71.85286,71.4181
4641.588833612777,151695.3,-70.182,71.4241
10000.0,62587.27,-84.47631,71.4089
