Frequency,Impedance,Phase Angle,Temperature (Dry Bath)
10.0,234857.5,-22.63607,71.2709
21.544346900318832,195264.2,-21.56496,71.2734
46.41588833612777,163070.4,-19.71471,71.2618
100.0,95169.61,-22.74454,71.255
215.44346900318823,7147.109,70.60965,71.2538
464.15888336127773,110882.6,-14.08758,71.2557
1000.0,103013.7,-23.38888,71.2644
2154.4346900318824,85705.33,-29.5332,71.2558
4641.588833612777,65443.24,-39.14221,71.2584
10000.0,40467.09,-64.19085,71.2569
