Frequency,Impedance,Phase Angle,Temperature (Dry Bath)
10.0,5328309.0,-5.878373,71.5401
21.544346900318832,5232536.0,-6.275758,71.5366
46.41588833612777,4829929.0,-13.00568,71.5465
100.0,2560496.0,-28.29819,71.5307
215.44346900318823,892011.4,-82.42003,71.5434
464.15888336127773,1553228.0,148.7875,71.5371
1000.0,3247874.0,41.12882,71.5359
2154.4346900318824,446513.2,-53.97858,71.5364
4641.588833612777,254724.9,-98.33265,71.5467
10000.0,147306.2,-81.18363,71.545
