Frequency,Impedance,Phase Angle,Temperature (Dry Bath)
10.0,4799291.0,-1.472358,70.9874
21.544346900318832,4187642.0,13.75695,70.9789
46.41588833612777,6848903.0,-2.007238,70.9808
100.0,713764.3,130.3886,70.989
215.44346900318823,1172543.0,151.5632,70.9802
464.15888336127773,849946.5,-13.22124,70.9926
1000.0,510620.2,176.3113,70.9979
2154.4346900318824,366317.2,-87.46842,70.9804
4641.588833612777,210617.9,-100.1384,70.9815
10000.0,104118.6,-79.6636,70.9863
