Frequency,Impedance,Phase Angle,Temperature (Dry Bath)
10.0,8527287.0,-22.90205,70.9672
21.544346900318832,7027623.0,-4.128684,70.9673
46.41588833612777,4099214.0,-22.36326,70.979
100.0,471187.7,30.80497,70.9662
215.44346900318823,734832.0,-120.3695,70.9722
464.15888336127773,535368.6,-73.9475,70.9801
1000.0,383594.6,-57.1446,70.9689
2154.4346900318824,216956.5,-105.5372,70.9813
4641.588833612777,135866.0,-86.20768,70.9778
10000.0,64090.79,-84.85951,70.9783
