Frequency,Impedance,Phase Angle,Temperature (Dry Bath)
10.0,24819.08,-21.69145,71.1193
21.544346900318832,20485.65,-23.31131,71.1226
46.41588833612777,16584.71,-24.70211,71.1315
100.0,13433.12,-25.05105,71.1193
215.44346900318823,10573.16,-25.04485,71.1142
464.15888336127773,8439.772,-25.13092,71.1279
1000.0,6878.923,-25.31903,71.1253
2154.4346900318824,5365.829,-24.11168,71.1312
4641.588833612777,4446.688,-22.93089,71.1388
10000.0,3684.782,-20.7728,71.1418
