Frequency,Impedance,Phase Angle,Temperature (Dry Bath)
10.0,3410120.0,9.371642,71.37
21.544346900318832,8751656.0,-37.81613,71.3613
46.41588833612777,4238524.0,-34.66479,71.3619
100.0,569655.2,87.82961,71.3473
215.44346900318823,330724.2,-27.88258,71.3535
464.15888336127773,685982.4,-85.80604,71.3652
1000.0,621120.4,-37.04345,71.3535
2154.4346900318824,227527.5,-65.26476,71.3585
4641.588833612777,159823.0,-102.8553,71.3626
10000.0,68883.03,-84.80476,71.342
