Frequency,Impedance,Phase Angle,Temperature (Dry Bath)
10.0,4574180.0,-9.46206,70.7978
21.544346900318832,4596478.0,-1.220873,70.8031
46.41588833612777,3266923.0,-27.07926,70.8111
100.0,369080.6,-125.0172,70.802
215.44346900318823,956446.1,-28.84262,70.8063
464.15888336127773,575007.3,-58.86405,70.8128
1000.0,704002.9,-112.8093,70.8105
2154.4346900318824,272304.4,-90.94208,70.806
4641.588833612777,134191.7,-92.09804,70.8118
10000.0,62635.38,-81.05753,70.8266
