Frequency,Impedance,Phase Angle,Temperature (Dry Bath)
10.0,4322517.0,2.001501,71.2824
21.544346900318832,5771044.0,9.623443,71.2792
46.41588833612777,3788427.0,-32.69812,71.2825
100.0,672000.4,-93.75802,71.2728
215.44346900318823,244826.8,-49.11403,71.2832
464.15888336127773,1894724.0,-136.8533,71.2849
1000.0,720634.9,-40.52121,71.2676
2154.4346900318824,233965.8,-81.83106,71.292
4641.588833612777,161998.7,-102.4826,71.2818
10000.0,71168.89,-93.60537,71.2909
