Frequency,Impedance,Phase Angle,Temperature (Dry Bath)
10.0,8520.978,-25.81194,70.8987
21.544346900318832,6949.411,-22.55565,70.9013
46.41588833612777,5832.876,-19.54557,70.9017
100.0,4993.043,-16.8645,70.9125
215.44346900318823,4417.51,-14.48868,70.8972
464.15888336127773,4006.631,-12.41354,70.8968
1000.0,3650.371,-10.40943,70.897
2154.4346900318824,3361.659,-9.648872,70.9041
4641.588833612777,3165.192,-8.759746,70.9064
10000.0,2967.784,-9.30509,70.905
