Frequency,Impedance,Phase Angle,Temperature (Dry Bath)
10.0,5446103.0,-2.986398,71.1785
21.544346900318832,3324687.0,-7.150007,71.1933
46.41588833612777,4430831.0,-29.05078,71.1987
100.0,585183.0,-71.61666,71.2071
215.44346900318823,592164.1,-20.96129,71.1948
464.15888336127773,563234.7,-97.38014,71.1711
1000.0,446715.6,59.34395,71.2025
2154.4346900318824,252265.3,-91.63322,71.1962
4641.588833612777,131902.1,-88.00028,71.1885
10000.0,62826.74,-86.89462,71.1825
