Frequency,Impedance,Phase Angle,Temperature (Dry Bath)
10.0,21761.12,-21.65619,71.0646
21.544346900318832,17984.14,-23.16547,71.0453
46.41588833612777,14541.31,-24.69045,71.0626
100.0,11475.83,-25.04821,71.0625
215.44346900318823,9354.713,-25.10691,71.0588
464.15888336127773,7417.113,-25.24186,71.0699
1000.0,5987.092,-23.89835,71.0558
2154.4346900318824,4975.731,-22.32644,71.0781
4641.588833612777,4131.148,-20.71283,71.0597
10000.0,3480.213,-19.28733,71.0488
