Frequency,Impedance,Phase Angle,Temperature (Dry Bath)
10.0,25403580.0,10.02668,72.2221
21.544346900318832,4917163.0,7.253345,72.2169
46.41588833612777,3953296.0,-8.568258,72.2276
100.0,336282.0,-137.6767,72.2136
215.44346900318823,573559.4,-43.67766,72.2289
464.15888336127773,608413.1,-9.419962,72.2015
1000.0,1798063.0,-3.836888,72.2046
2154.4346900318824,641462.1,11.9297,72.2041
4641.588833612777,139282.2,-93.13079,72.2164
10000.0,135220.5,-87.94467,72.2144
