Frequency,Impedance,Phase Angle,Temperature (Dry Bath)
10.0,6479229.0,5.661562,70.7822
21.544346900318832,4924029.0,-1.808525,70.7818
46.41588833612777,3935062.0,-27.41028,70.7771
100.0,531599.0,-38.01229,70.7852
215.44346900318823,480771.4,3.043778,70.8014
464.15888336127773,616009.1,-111.8038,70.7903
1000.0,1493591.0,86.81383,70.8026
2154.4346900318824,239171.7,-77.79148,70.7879
4641.588833612777,121347.2,-99.65579,70.778
10000.0,55090.0,-83.76242,70.7873
