Frequency,Impedance,Phase Angle,Temperature (Dry Bath)
10.0,694159.2,-2.455209,71.2668
21.544346900318832,639919.4,-4.956093,71.2762
46.41588833612777,606271.6,-5.807788,71.2712
100.0,503699.8,-21.60477,71.2719
215.44346900318823,666843.4,-26.39424,71.2565
464.15888336127773,558370.3,-31.3851,71.2803
1000.0,481385.7,-23.34759,71.2885
2154.4346900318824,438143.6,-54.69313,71.2811
4641.588833612777,165368.2,-54.55192,71.2711
10000.0,107375.8,-65.53343,71.2784
