Frequency,Impedance,Phase Angle,Temperature (Dry Bath)
10.0,2102021.0,-19.14446,71.1539
21.544346900318832,1270080.0,-17.8896,71.1526
46.41588833612777,1243177.0,-21.80137,71.133
100.0,393011.1,-55.53761,71.1404
215.44346900318823,570971.2,-64.24267,71.1416
464.15888336127773,366240.9,-45.85359,71.1393
1000.0,188685.6,-17.20006,71.1372
2154.4346900318824,209447.0,-72.17349,71.1534
4641.588833612777,120924.4,-82.12806,71.1441
10000.0,58715.65,-79.22174,71.155
