Frequency,Impedance,Phase Angle,Temperature (Dry Bath)
10.0,4961890.0,26.25399,70.7138
21.544346900318832,5090992.0,-16.21575,70.7193
46.41588833612777,4088250.0,-17.88319,70.7087
100.0,673180.4,11.36045,70.7138
215.44346900318823,696664.0,-80.85139,70.7308
464.15888336127773,1337320.0,-30.91645,70.7254
1000.0,221515.5,-100.5008,70.7195
2154.4346900318824,277595.1,-110.7451,70.71
4641.588833612777,114894.4,-85.42157,70.7234
10000.0,62923.22,-86.70796,70.7154
