Frequency,Impedance,Phase Angle,Temperature (Dry Bath)
10.0,5090210.0,5.318388,71.4303
21.544346900318832,5192098.0,-3.538249,71.4285
46.41588833612777,4200526.0,-12.3349,71.425
100.0,746181.2,104.8692,71.4367
215.44346900318823,1392074.0,-50.88139,71.4137
464.15888336127773,538682.2,-49.04409,71.4151
1000.0,519393.7,-69.25857,71.4068
2154.4346900318824,198340.6,-89.60055,71.4285
4641.588833612777,130861.2,-56.63319,71.425
10000.0,58148.29,-94.24264,71.4164
