Frequency,Impedance,Phase Angle,Temperature (Dry Bath)
10.0,15159.48,-25.61358,71.4366
21.544346900318832,12271.6,-23.60775,71.426
46.41588833612777,10114.04,-21.45635,71.442
100.0,8535.064,-18.54644,71.4521
215.44346900318823,7269.066,-16.34814,71.4319
464.15888336127773,6449.841,-14.25978,71.4368
1000.0,5823.631,-11.46572,71.4585
2154.4346900318824,5329.764,-9.853069,71.4216
4641.588833612777,4958.217,-8.503256,71.4205
10000.0,4693.526,-8.90339,71.4262
