Frequency,Impedance,Phase Angle,Temperature (Dry Bath)
10.0,1791640.0,-28.4457,70.5396
21.544346900318832,1361304.0,-26.39205,70.5467
46.41588833612777,1192216.0,-33.25405,70.5337
100.0,670899.0,28.01611,70.5345
215.44346900318823,345176.3,12.79597,70.5559
464.15888336127773,342964.7,-22.02598,70.5393
1000.0,755861.6,-18.78269,70.5461
2154.4346900318824,294832.0,-67.7767,70.5428
4641.588833612777,96014.75,-80.0843,70.5507
10000.0,58993.53,-78.52296,70.5373
