Frequency,Impedance,Phase Angle,Temperature (Dry Bath)
10.0,6537232.0,16.03969,71.143
21.544346900318832,5449329.0,-17.60341,71.1554
46.41588833612777,4733881.0,-7.437454,71.1422
100.0,1101429.0,-142.7153,71.1539
215.44346900318823,392949.8,-78.28126,71.1421
464.15888336127773,539188.0,-44.38189,71.1557
1000.0,321754.3,-66.43518,71.1638
2154.4346900318824,421685.3,-113.214,71.1428
4641.588833612777,123760.6,-88.46296,71.1519
10000.0,66042.66,-83.17507,71.1558
