Frequency,Impedance,Phase Angle,Temperature (Dry Bath)
10.0,16011430.0,-14.63879,71.4986
21.544346900318832,4423899.0,-12.53796,71.5002
46.41588833612777,4522791.0,-12.52587,71.5011
100.0,536102.3,-2.938195,71.5013
215.44346900318823,1601730.0,69.35839,71.4966
464.15888336127773,704251.2,0.9049699,71.5103
1000.0,1010967.0,-88.04412,71.4957
2154.4346900318824,443310.5,-79.65494,71.4958
4641.588833612777,259878.4,-103.9968,71.4986
10000.0,122083.6,-88.63783,71.4936
