Frequency,Impedance,Phase Angle,Temperature (Dry Bath)
10.0,6629184.0,12.8423,71.1928
21.544346900318832,8278111.0,19.90722,71.1753
46.41588833612777,6065389.0,-8.828,71.1719
100.0,834639.7,-16.24869,71.1768
215.44346900318823,414690.4,116.4903,71.1803
464.15888336127773,491861.1,50.48719,71.1732
1000.0,244438.6,15.43034,71.1872
2154.4346900318824,329860.5,-173.0552,71.1948
4641.588833612777,306199.3,-35.23199,71.1817
10000.0,491001.6,-79.6659,71.1858
