Frequency,Impedance,Phase Angle,Temperature (Dry Bath)
10.0,8585792.0,-42.84039,71.2447
21.544346900318832,4313700.0,-21.78213,71.2478
46.41588833612777,3624598.0,-53.46971,71.2395
100.0,465623.5,-8.257006,71.2455
215.44346900318823,12998.42,-135.264,71.238
464.15888336127773,579070.2,-67.40149,71.2409
1000.0,317715.3,-99.86449,71.2389
2154.4346900318824,327070.2,-80.87187,71.2444
4641.588833612777,118530.2,-83.27154,71.2451
10000.0,81150.5,-82.52505,71.2385
