Frequency,Impedance,Phase Angle,Temperature (Dry Bath)
10.0,15818450.0,36.57008,71.2834
21.544346900318832,4636713.0,-15.08173,71.304
46.41588833612777,5564101.0,-10.0882,71.3086
100.0,1051722.0,56.11657,71.2758
215.44346900318823,1673135.0,-152.5017,71.2914
464.15888336127773,832197.8,-95.14569,71.3064
1000.0,864749.8,-22.30971,71.2903
2154.4346900318824,400909.3,-92.50125,71.3051
4641.588833612777,483850.3,-109.9615,71.2871
10000.0,114357.7,-79.6666,71.2975
