Frequency,Impedance,Phase Angle,Temperature (Dry Bath)
10.0,1192934.0,-32.22681,70.8243
21.544346900318832,923985.9,-30.58368,70.8251
46.41588833612777,710180.7,-30.21309,70.8416
100.0,263641.8,-33.42899,70.831
215.44346900318823,642715.9,-40.52425,70.8395
464.15888336127773,309402.9,-3.461112,70.8299
1000.0,229018.9,-46.22947,70.8477
2154.4346900318824,170068.4,-59.28159,70.8263
4641.588833612777,114184.5,-58.57503,70.8361
10000.0,57914.3,-74.17416,70.8409
