Frequency,Impedance,Phase Angle,Temperature (Dry Bath)
10.0,16624150.0,-11.72982,71.3031
21.544346900318832,5720715.0,-56.90495,71.3018
46.41588833612777,4345168.0,-26.2641,71.314
100.0,582532.9,99.99064,71.3237
215.44346900318823,1017363.0,48.11217,71.3066
464.15888336127773,774092.3,-43.08527,71.3228
1000.0,1876773.0,-57.55917,71.3213
2154.4346900318824,272809.5,-76.95561,71.3417
4641.588833612777,138602.4,-94.38381,71.3241
10000.0,62561.9,-76.9207,71.3473
