Frequency,Impedance,Phase Angle,Temperature (Dry Bath)
10.0,5691825.0,-4.240005,71.4218
21.544346900318832,3531158.0,-30.58615,71.4283
46.41588833612777,4715257.0,3.382348,71.42
100.0,557267.8,-23.29749,71.4224
215.44346900318823,17309.14,-32.89337,71.4168
464.15888336127773,435754.4,-50.25333,71.4213
1000.0,2178520.0,-112.0383,71.4155
2154.4346900318824,353565.5,-83.8643,71.4297
4641.588833612777,118044.2,-83.03817,71.4269
10000.0,71542.55,-86.80881,71.4152
