Frequency,Impedance,Phase Angle,Temperature (Dry Bath)
10.0,115620.1,-17.4209,71.2799
21.544346900318832,100010.4,-16.43513,71.2781
46.41588833612777,88226.81,-15.69462,71.2643
100.0,77861.68,-13.69848,71.2806
215.44346900318823,71069.22,-14.75688,71.2628
464.15888336127773,65455.59,-15.38635,71.2676
1000.0,56989.94,-14.10719,71.2702
2154.4346900318824,52026.11,-15.02291,71.2836
4641.588833612777,44765.67,-19.83624,71.2688
10000.0,39576.48,-28.17112,71.2566
