Frequency,Impedance,Phase Angle,Temperature (Dry Bath)
10.0,25001140.0,32.40695,71.2308
21.544346900318832,5533573.0,-21.62456,71.2271
46.41588833612777,4180488.0,-18.11496,71.2098
100.0,517329.8,11.16985,71.2128
215.44346900318823,439643.9,-23.7271,71.2147
464.15888336127773,1197636.0,81.54922,71.2206
1000.0,268838.1,-76.20995,71.2251
2154.4346900318824,229425.3,-61.92166,71.2202
4641.588833612777,111322.9,-95.44515,71.2096
10000.0,70092.32,-86.57863,71.2087
