Frequency,Impedance,Phase Angle,Temperature (Dry Bath)
10.0,44193.08,-16.62901,70.735
21.544346900318832,38717.06,-15.02285,70.7336
46.41588833612777,34224.17,-13.64676,70.7068
100.0,30643.44,-11.42213,70.7259
215.44346900318823,27715.57,-12.98745,70.7253
464.15888336127773,25721.09,-8.640047,70.7102
1000.0,22331.29,-11.99584,70.7134
2154.4346900318824,22420.95,-12.05956,70.7157
4641.588833612777,21762.05,-17.20201,70.7247
10000.0,18862.29,-26.05419,70.7271
