Frequency,Impedance,Phase Angle,Temperature (Dry Bath)
10.0,5492772.0,-19.7384,70.973
21.544346900318832,4762089.0,-19.95217,70.9643
46.41588833612777,4138525.0,-32.34283,70.972
100.0,250394.4,-88.98583,70.9735
215.44346900318823,1248342.0,37.1976,70.9675
464.15888336127773,10324120.0,28.39606,70.9859
1000.0,1028396.0,-86.42499,70.992
2154.4346900318824,240409.2,-87.40396,70.9768
4641.588833612777,124126.9,-85.61114,70.9897
10000.0,56425.41,-87.05948,70.9693
