Frequency,Impedance,Phase Angle,Temperature (Dry Bath)
10.0,145859.6,-18.18852,71.3913
21.544346900318832,127122.9,-17.4978,71.4077
46.41588833612777,111045.4,-15.38408,71.3872
100.0,109562.7,-24.28945,71.3856
215.44346900318823,15522.7,-17.47449,71.3774
464.15888336127773,79030.43,-18.48883,71.4089
1000.0,77917.99,-15.41801,71.4048
2154.4346900318824,56786.41,-31.11058,71.4059
4641.588833612777,43087.83,-33.84984,71.388
10000.0,32873.23,-48.87827,71.4061
