Frequency,Impedance,Phase Angle,Temperature (Dry Bath)
10.0,6676498.0,-21.58593,71.4843
21.544346900318832,4787492.0,13.7596,71.5124
46.41588833612777,5415918.0,-27.7205,71.486
100.0,787026.2,154.0315,71.4708
215.44346900318823,1263779.0,-152.5036,71.5075
464.15888336127773,10402120.0,59.89967,71.504
1000.0,191082.3,-67.33537,71.494
2154.4346900318824,228913.1,-92.64917,71.4984
4641.588833612777,114957.6,-81.96685,71.5057
10000.0,74932.3,-91.39675,71.5104
