Frequency,Impedance,Phase Angle,Temperature (Dry Bath)
10.0,6313.911,-28.86738,70.9033
21.544346900318832,5100.436,-23.35712,70.912
46.41588833612777,4323.045,-18.665,70.9076
100.0,3801.034,-14.75979,70.9051
215.44346900318823,3419.831,-12.29844,70.9113
464.15888336127773,3110.192,-10.53215,70.9166
1000.0,2882.84,-8.584128,70.907
2154.4346900318824,2720.719,-7.268545,70.8947
4641.588833612777,2592.17,-6.581577,70.9294
10000.0,2497.007,-7.240717,70.917
