Frequency,Impedance,Phase Angle,Temperature (Dry Bath)
10.0,5306254.0,-28.72839,70.9495
21.544346900318832,6692875.0,-1.24975,70.9493
46.41588833612777,5334256.0,-7.277338,70.9814
100.0,838324.2,72.09486,70.9442
215.44346900318823,645124.0,72.2164,70.9667
464.15888336127773,477569.1,-51.1804,70.9541
1000.0,1070180.0,-24.82702,70.9549
2154.4346900318824,570033.1,7.225425,70.9403
4641.588833612777,354484.2,-28.72464,70.9714
10000.0,292579.3,-80.96375,70.9387
