Frequency,Impedance,Phase Angle,Temperature (Dry Bath)
10.0,7826651.0,6.767422,71.7327
21.544346900318832,5678958.0,-7.163824,71.7454
46.41588833612777,4584075.0,-3.520597,71.7279
100.0,350016.3,66.65153,71.7428
215.44346900318823,255670.7,-101.209,71.7409
464.15888336127773,852099.4,-7.44059,71.7435
1000.0,394323.7,-34.95506,71.7304
2154.4346900318824,239123.1,-109.1279,71.7468
4641.588833612777,569952.8,-59.4473,71.7305
10000.0,586010.1,-96.20767,71.7459
