Frequency,Impedance,Phase Angle,Temperature (Dry Bath)
10.0,5684883.0,-8.356729,70.8606
21.544346900318832,2930483.0,-0.05525456,70.8613
46.41588833612777,8145910.0,-11.419,70.8528
100.0,929634.8,0.7329498,70.8521
215.44346900318823,1614878.0,-47.03249,70.8643
464.15888336127773,754705.6,-46.70451,70.8452
1000.0,347236.2,-141.3948,70.8443
2154.4346900318824,218265.2,-104.5472,70.8643
4641.588833612777,125913.8,-101.4304,70.8554
10000.0,56114.49,-86.68244,70.8348
