Frequency,Impedance,Phase Angle,Temperature (Dry Bath)
10.0,177214.9,-12.60513,71.2982
21.544346900318832,161626.5,-12.12817,71.318
46.41588833612777,143761.4,-11.79657,71.2987
100.0,119495.9,-11.91989,71.2857
215.44346900318823,154787.5,-12.44154,71.2786
464.15888336127773,113897.2,-22.55211,71.2855
1000.0,83838.98,-11.52141,71.2836
2154.4346900318824,85303.35,-17.93792,71.2765
4641.588833612777,74562.34,-35.32386,71.2624
10000.0,50247.46,-54.17431,71.2795
