Frequency,Impedance,Phase Angle,Temperature (Dry Bath)
10.0,4210543.0,10.94086,71.1466
21.544346900318832,6250271.0,3.89242,71.1513
46.41588833612777,4477648.0,-27.36013,71.13
100.0,1779994.0,30.8629,71.132
215.44346900318823,707693.4,-162.2621,71.1392
464.15888336127773,529106.4,-68.99973,71.121
1000.0,668235.4,-114.871,71.1427
2154.4346900318824,609780.7,-121.5656,71.1372
4641.588833612777,124850.1,-91.98799,71.1438
10000.0,76100.2,-85.4512,71.1319
