Frequency,Impedance,Phase Angle,Temperature (Dry Bath)
10.0,3563625.0,-0.8963191,70.2681
21.544346900318832,7024457.0,-28.07566,70.2589
46.41588833612777,5754967.0,-38.2069,70.2725
100.0,1718191.0,-76.0927,70.266
215.44346900318823,2033045.0,-40.57009,70.2708
464.15888336127773,793898.3,-2.428846,70.282
1000.0,152191.2,-73.56494,70.2656
2154.4346900318824,162436.3,-77.9603,70.2763
4641.588833612777,96342.91,-81.05382,70.289
10000.0,49905.3,-84.16581,70.2881
