Frequency,Impedance,Phase Angle,Temperature (Dry Bath)
10.0,153057.0,-14.16656,71.1313
21.544346900318832,137785.7,-12.74036,71.1369
46.41588833612777,124692.5,-11.92547,71.1258
100.0,113589.2,-17.82599,71.1363
215.44346900318823,102825.2,-9.640256,71.1274
464.15888336127773,86126.27,-20.6316,71.1267
1000.0,80683.19,-14.78001,71.1205
2154.4346900318824,77793.12,-20.84154,71.1146
4641.588833612777,59566.43,-31.30504,71.1307
10000.0,45505.96,-54.11242,71.132
