Frequency,Impedance,Phase Angle,Temperature (Dry Bath)
10.0,8187.946,-32.50039,70.88
21.544346900318832,6222.654,-30.75231,70.8773
46.41588833612777,4811.406,-28.30734,70.9057
100.0,3825.676,-25.41057,70.8895
215.44346900318823,3118.638,-21.73683,70.8811
464.15888336127773,2632.579,-18.31769,70.8933
1000.0,2279.404,-15.84319,70.8774
2154.4346900318824,2033.174,-13.35478,70.8868
4641.588833612777,1852.584,-11.52542,70.8837
10000.0,1701.202,-11.01476,70.8945
