Frequency,Impedance,Phase Angle,Temperature (Dry Bath)
10.0,6096306.0,-15.42798,70.6357
21.544346900318832,5932564.0,-7.895381,70.6438
46.41588833612777,3271518.0,-25.58165,70.6598
100.0,579676.2,-8.437869,70.6506
215.44346900318823,468695.7,-19.24993,70.6592
464.15888336127773,685680.1,-37.34726,70.6502
1000.0,249490.1,-161.4971,70.6518
2154.4346900318824,315687.7,-83.34687,70.643
4641.588833612777,169788.2,-104.9553,70.6601
10000.0,64748.21,-92.51296,70.6428
