Frequency,Impedance,Phase Angle,Temperature (Dry Bath)
10.0,73700.25,-21.50391,71.6227
21.544346900318832,61803.57,-20.86117,71.6461
46.41588833612777,52138.13,-20.83055,71.6137
100.0,42474.09,-23.56682,71.6108
215.44346900318823,36501.18,-18.6,71.6205
464.15888336127773,32973.67,-17.53338,71.61
1000.0,28400.32,-15.92567,71.6158
2154.4346900318824,24375.9,-15.34247,71.6023
4641.588833612777,22188.95,-16.00836,71.5978
10000.0,20108.5,-17.2117,71.6147
