Frequency,Impedance,Phase Angle,Temperature (Dry Bath)
10.0,5654715.0,10.87903,71.3224
21.544346900318832,5861998.0,-31.2583,71.3155
46.41588833612777,5474147.0,9.521108,71.3359
100.0,536158.6,-4.577034,71.3194
215.44346900318823,1192018.0,19.72569,71.3235
464.15888336127773,523464.6,122.4449,71.3304
1000.0,511425.7,-94.48238,71.3184
2154.4346900318824,428197.9,-36.36593,71.3007
4641.588833612777,217280.3,-105.7916,71.3224
10000.0,107590.5,-81.36428,71.3298
