Frequency,Impedance,Phase Angle,Temperature (Dry Bath)
10.0,3623455.0,10.24981,71.4359
21.544346900318832,4786873.0,-9.251673,71.4515
46.41588833612777,5514317.0,-31.29496,71.4562
100.0,806822.6,-27.37607,71.4481
215.44346900318823,377405.5,20.04839,71.4348
464.15888336127773,961472.0,-49.57649,71.4317
1000.0,517310.5,-22.69721,71.4334
2154.4346900318824,443525.4,-74.82673,71.4582
4641.588833612777,134200.3,-81.86827,71.4417
10000.0,71176.21,-88.11437,71.4315
