Frequency,Impedance,Phase Angle,Temperature (Dry Bath)
10.0,12185.59,-25.50581,71.1489
21.544346900318832,9930.277,-22.80135,71.156
46.41588833612777,8270.999,-20.24234,71.1516
100.0,7098.114,-18.42441,71.1577
215.44346900318823,6145.311,-15.79851,71.1533
464.15888336127773,5476.525,-13.42135,71.1516
1000.0,4925.205,-11.15782,71.1342
2154.4346900318824,4566.734,-10.10719,71.1512
4641.588833612777,4228.347,-9.535596,71.1425
10000.0,3949.769,-10.85343,71.1474
