Frequency,Impedance,Phase Angle,Temperature (Dry Bath)
10.0,6451073.0,21.09543,71.0376
21.544346900318832,4444319.0,-11.82651,71.0254
46.41588833612777,4711326.0,-23.3701,71.0362
100.0,535117.4,-44.1201,71.0183
215.44346900318823,809189.1,-95.34309,71.0221
464.15888336127773,1184887.0,-108.8017,71.0327
1000.0,314624.3,-77.83713,71.0283
2154.4346900318824,355201.2,-86.1913,71.025
4641.588833612777,118610.4,-87.37716,71.022
10000.0,63993.5,-81.47724,71.0277
