Frequency,Impedance,Phase Angle,Temperature (Dry Bath)
10.0,35576.06,-13.90528,70.8013
21.544346900318832,32521.88,-11.80366,70.7997
46.41588833612777,29988.77,-10.69966,70.793
100.0,27807.92,-7.862813,70.7879
215.44346900318823,25345.68,-9.263596,70.799
464.15888336127773,24045.48,-11.21873,70.7866
1000.0,23673.84,-11.4827,70.7853
2154.4346900318824,21040.0,-10.10104,70.7849
4641.588833612777,18819.59,-13.64456,70.7797
10000.0,17842.12,-22.68857,70.7733
