Frequency,Impedance,Phase Angle,Temperature (Dry Bath)
10.0,7673229.0,-14.83217,71.4987
21.544346900318832,5206293.0,-19.82261,71.5096
46.41588833612777,4818286.0,-6.081593,71.5031
100.0,516440.4,88.08501,71.4893
215.44346900318823,931982.2,-122.9062,71.4958
464.15888336127773,672109.7,-107.7483,71.503
1000.0,2934108.0,167.3839,71.5051
2154.4346900318824,687936.3,-37.05579,71.4901
4641.588833612777,254377.1,-91.45778,71.5151
10000.0,120870.9,-86.01929,71.5001
