Frequency,Impedance,Phase Angle,Temperature (Dry Bath)
10.0,6542678.0,-31.62022,71.5324
21.544346900318832,3848936.0,-6.89821,71.5386
46.41588833612777,4897355.0,-21.30641,71.535
100.0,563469.8,-12.00509,71.5454
215.44346900318823,1481187.0,131.626,71.5366
464.15888336127773,1036929.0,-153.7566,71.5417
1000.0,494343.2,-53.093,71.5246
2154.4346900318824,650809.3,-104.0741,71.5237
4641.588833612777,283811.6,-64.78152,71.5285
10000.0,162740.2,-76.10084,71.5293
