Frequency,Impedance,Phase Angle,Temperature (Dry Bath)
10.0,16628.12,-24.52374,71.5473
21.544346900318832,13416.1,-25.74507,71.5555
46.41588833612777,10666.42,-26.40985,71.5417
100.0,8413.568,-25.86629,71.5407
215.44346900318823,6773.728,-25.02226,71.5564
464.15888336127773,5480.495,-22.85557,71.5282
1000.0,4530.156,-21.06886,71.5203
2154.4346900318824,3806.441,-18.43985,71.5503
4641.588833612777,3303.704,-16.62114,71.5351
10000.0,2914.767,-15.45447,71.5308
