Frequency,Impedance,Phase Angle,Temperature (Dry Bath)
10.0,6352660.0,-20.80828,71.5198
21.544346900318832,5634310.0,9.625263,71.5232
46.41588833612777,4890653.0,-13.64845,71.5232
100.0,361307.3,-52.81097,71.5072
215.44346900318823,1002575.0,-148.5831,71.5195
464.15888336127773,2258380.0,-129.8797,71.5185
1000.0,4540784.0,-53.44257,71.5315
2154.4346900318824,421045.2,-102.7774,71.5332
4641.588833612777,169611.3,-80.0994,71.514
10000.0,118353.7,-91.39121,71.527
