Frequency,Impedance,Phase Angle,Temperature (Dry Bath)
10.0,39604.38,-13.02634,71.2321
21.544346900318832,35921.74,-11.3774,71.2403
46.41588833612777,32977.49,-10.08459,71.2571
100.0,31166.61,-11.51787,71.2258
215.44346900318823,29727.37,-9.188405,71.2414
464.15888336127773,26326.93,-7.806772,71.2485
1000.0,25295.6,-11.80404,71.232
2154.4346900318824,23176.82,-9.00606,71.2432
4641.588833612777,21858.61,-13.2694,71.2473
10000.0,20567.57,-20.20522,71.2478
