Frequency,Impedance,Phase Angle,Temperature (Dry Bath)
10.0,3743614.0,10.38909,70.9925
21.544346900318832,5874484.0,-5.18111,71.0033
46.41588833612777,6597658.0,9.1335,70.9829
100.0,3569897.0,33.79103,71.0028
215.44346900318823,531949.3,-13.73183,70.9934
464.15888336127773,444194.9,5.682268,71.0143
1000.0,582619.4,151.7403,70.9986
2154.4346900318824,451747.0,-65.67099,70.9927
4641.588833612777,491052.5,49.5812,71.0151
10000.0,157400.7,-65.26264,71.0017
