Frequency,Impedance,Phase Angle,Temperature (Dry Bath)
10.0,11534.22,-26.84187,70.9777
21.544346900318832,9348.609,-23.55839,70.9648
46.41588833612777,7765.598,-20.35185,70.9644
100.0,6738.611,-18.37977,70.9549
215.44346900318823,5833.472,-15.09534,70.9744
464.15888336127773,5258.331,-11.34817,70.963
1000.0,4771.88,-10.45881,70.9585
2154.4346900318824,4445.166,-9.865558,70.9455
4641.588833612777,4111.157,-10.33994,70.9554
10000.0,3839.535,-11.12237,70.9564
