Frequency,Impedance,Phase Angle,Temperature (Dry Bath)
10.0,3666091.0,-6.532663,70.8297
21.544346900318832,3584724.0,-20.934,70.8622
46.41588833612777,2602195.0,-25.90912,70.8488
100.0,1919406.0,161.4294,70.8437
215.44346900318823,434031.9,94.39106,70.8378
464.15888336127773,829319.1,-53.15159,70.8431
1000.0,150430.3,-97.30289,70.8537
2154.4346900318824,211354.9,-67.26386,70.8355
4641.588833612777,88782.44,-81.11648,70.8472
10000.0,46761.13,-88.44603,70.8457
