Frequency,Impedance,Phase Angle,Temperature (Dry Bath)
10.0,6319073.0,-7.046014,71.3339
21.544346900318832,4790822.0,-12.20547,71.3559
46.41588833612777,4362395.0,-27.96017,71.342
100.0,313454.8,157.1782,71.334
215.44346900318823,383160.0,-19.06997,71.3385
464.15888336127773,1568037.0,-82.20994,71.3379
1000.0,336449.8,-58.43756,71.3529
2154.4346900318824,317125.2,-59.43,71.3281
4641.588833612777,143223.8,-105.1862,71.3436
10000.0,65602.03,-93.75269,71.3344
