Frequency,Impedance,Phase Angle,Temperature (Dry Bath)
10.0,4110519.0,-2.938001,71.3422
21.544346900318832,3777616.0,-11.18143,71.3461
46.41588833612777,6681383.0,4.55196,71.3448
100.0,540274.1,-61.24301,71.3276
215.44346900318823,1929549.0,23.76409,71.3209
464.15888336127773,973472.1,-136.4271,71.3333
1000.0,275012.0,-159.3951,71.3312
2154.4346900318824,292397.7,-92.55047,71.3239
4641.588833612777,132728.8,-89.07272,71.322
10000.0,71912.51,-81.781,71.3286
