Frequency,Impedance,Phase Angle,Temperature (Dry Bath)
10.0,15784280.0,-17.63858,71.1093
21.544346900318832,7172539.0,-30.50578,71.0951
46.41588833612777,4187691.0,-19.89697,71.1071
100.0,498239.4,-147.8471,71.1078
215.44346900318823,819526.9,-84.11762,71.106
464.15888336127773,767946.3,-175.2395,71.1089
1000.0,701752.1,54.82164,71.1095
2154.4346900318824,563470.7,-44.50129,71.1072
4641.588833612777,165343.6,-48.03288,71.0888
10000.0,168595.1,-67.23265,71.104
