Frequency,Impedance,Phase Angle,Temperature (Dry Bath)
10.0,4938030.0,-36.00703,71.359
21.544346900318832,5576344.0,10.85515,71.3786
46.41588833612777,4642756.0,-24.09827,71.3658
100.0,577239.6,-62.44925,71.3627
215.44346900318823,978551.4,-152.8074,71.3805
464.15888336127773,975525.1,-128.9819,71.365
1000.0,382017.4,-75.05539,71.3575
2154.4346900318824,419917.8,-77.43464,71.377
4641.588833612777,111401.6,-97.42099,71.3687
10000.0,59236.08,-89.47613,71.3565
