Frequency,Impedance,Phase Angle,Temperature (Dry Bath)
10.0,12647.57,-26.36213,71.3066
21.544346900318832,10217.69,-23.77264,71.3071
46.41588833612777,8435.949,-21.14228,71.3016
100.0,7152.442,-18.51436,71.3047
215.44346900318823,6032.884,-17.2296,71.3117
464.15888336127773,5536.355,-14.53934,71.3088
1000.0,4928.432,-12.25803,71.3053
2154.4346900318824,4487.073,-11.49959,71.2898
4641.588833612777,4130.215,-11.33597,71.3101
10000.0,3815.516,-12.51643,71.2889
