Frequency,Impedance,Phase Angle,Temperature (Dry Bath)
10.0,4439892.0,-21.92575,70.6497
21.544346900318832,3788660.0,-36.47451,70.6438
46.41588833612777,4486849.0,-26.18525,70.6381
100.0,307923.0,-60.446,70.6387
215.44346900318823,1301243.0,-64.03058,70.6407
464.15888336127773,544252.6,149.1674,70.6574
1000.0,200084.6,-105.8129,70.6425
2154.4346900318824,213665.5,-74.8725,70.6455
4641.588833612777,121543.1,-81.66173,70.6479
10000.0,46598.47,-81.195,70.6585
