Frequency,Impedance,Phase Angle,Temperature (Dry Bath)
10.0,5329842.0,-28.48074,71.4651
21.544346900318832,6747083.0,-61.7098,71.4664
46.41588833612777,4102722.0,-16.84357,71.4684
100.0,460543.8,43.31796,71.4642
215.44346900318823,843426.5,-2.820266,71.4706
464.15888336127773,649648.8,-11.14095,71.4797
1000.0,228094.8,-117.2734,71.4837
2154.4346900318824,371515.9,-87.84129,71.4727
4641.588833612777,166882.0,-100.6367,71.4679
10000.0,63358.95,-86.52551,71.4592
