Frequency,Impedance,Phase Angle,Temperature (Dry Bath)
10.0,8829727.0,7.344513,71.189
21.544346900318832,5432324.0,-0.09336864,71.2119
46.41588833612777,4300096.0,-1.586891,71.1838
100.0,1201985.0,-51.15794,71.1888
215.44346900318823,14965960.0,33.32175,71.1952
464.15888336127773,16020800.0,-149.1405,71.1884
1000.0,692176.3,-47.64889,71.1979
2154.4346900318824,444649.5,-79.11033,71.1776
4641.588833612777,301394.6,-98.11555,71.1861
10000.0,133438.6,-85.48612,71.1915
