Frequency,Impedance,Phase Angle,Temperature (Dry Bath)
10.0,245275.1,-23.5222,71.3203
21.544346900318832,212758.6,-21.97194,71.3093
46.41588833612777,173589.2,-20.36066,71.3145
100.0,125473.2,-9.412244,71.314
215.44346900318823,134820.4,-42.60239,71.3174
464.15888336127773,112655.8,-17.76802,71.3127
1000.0,97659.54,-25.85978,71.335
2154.4346900318824,73283.05,-27.17457,71.3253
4641.588833612777,62963.11,-39.40414,71.3308
10000.0,40456.89,-62.04119,71.3116
