Frequency,Impedance,Phase Angle,Temperature (Dry Bath)
10.0,23891.25,-20.83083,71.3783
21.544346900318832,20214.53,-18.15432,71.3627
46.41588833612777,17541.56,-15.64736,71.363
100.0,15936.13,-14.42259,71.3843
215.44346900318823,13847.37,-14.23048,71.3774
464.15888336127773,13074.86,-9.658888,71.3519
1000.0,12224.23,-9.11815,71.3618
2154.4346900318824,11414.19,-8.489414,71.3581
4641.588833612777,10877.2,-10.44724,71.3618
10000.0,10180.39,-14.97027,71.3729
