Frequency,Impedance,Phase Angle,Temperature (Dry Bath)
10.0,3548484.0,-16.03003,70.9739
21.544346900318832,7840956.0,18.55566,70.9681
46.41588833612777,6467558.0,-34.81107,70.977
100.0,1514815.0,17.5401,70.9546
215.44346900318823,1118488.0,47.5634,70.9772
464.15888336127773,1623528.0,-103.6179,70.9958
1000.0,467836.4,-37.7326,70.9882
2154.4346900318824,192757.4,-82.37761,70.9769
4641.588833612777,118324.8,-79.69279,70.9919
10000.0,53093.11,-88.6959,70.9925
