Frequency,Impedance,Phase Angle,Temperature (Dry Bath)
10.0,5466189.0,-1.29187,71.0734
21.544346900318832,12893140.0,-3.863573,71.0695
46.41588833612777,3959492.0,-18.3655,71.0653
100.0,2071580.0,-134.8709,71.0581
215.44346900318823,422752.5,-134.524,71.0853
464.15888336127773,350294.5,-5.07292,71.073
1000.0,575126.9,-89.6536,71.0634
2154.4346900318824,654597.5,-15.5062,71.0847
4641.588833612777,1816744.0,-49.86127,71.0687
10000.0,174757.0,-76.90641,71.0922
