Frequency,Impedance,Phase Angle,Temperature (Dry Bath)
10.0,8231053.0,26.08239,70.7664
21.544346900318832,3277294.0,-6.513268,70.7595
46.41588833612777,5078019.0,-14.27883,70.7505
100.0,829661.6,-3.377557,70.7564
215.44346900318823,1181347.0,-51.61019,70.7674
464.15888336127773,2510222.0,-148.0898,70.7759
1000.0,839983.5,-174.1213,70.7592
2154.4346900318824,261064.9,-76.1413,70.7662
4641.588833612777,115717.7,-88.95667,70.7735
10000.0,64650.74,-91.72131,70.7712
