Frequency,Impedance,Phase Angle,Temperature (Dry Bath)
10.0,3245834.0,9.630085,70.8794
21.544346900318832,5055119.0,-33.3958,70.8681
46.41588833612777,4901589.0,-29.79914,70.8776
100.0,1325882.0,-167.248,70.8841
215.44346900318823,1177752.0,14.64135,70.8858
464.15888336127773,993081.5,-151.9938,70.8777
1000.0,563361.3,114.2279,70.8734
2154.4346900318824,217960.5,-69.83339,70.8891
4641.588833612777,122554.0,-87.92827,70.8875
10000.0,68866.44,-83.15574,70.8675
