Frequency,Impedance,Phase Angle,Temperature (Dry Bath)
10.0,210397.1,-26.21816,71.4614
21.544346900318832,177141.8,-24.79021,71.4486
46.41588833612777,143764.2,-21.70644,71.4545
100.0,123629.8,-26.77603,71.4654
215.44346900318823,13371.77,-68.61657,71.461
464.15888336127773,106412.5,-11.79355,71.4545
1000.0,79248.54,-26.89571,71.4656
2154.4346900318824,63090.27,-22.80539,71.4538
4641.588833612777,48378.53,-34.55903,71.4678
10000.0,34802.27,-53.52516,71.4632
