Frequency,Impedance,Phase Angle,Temperature (Dry Bath)
10.0,4873555.0,14.50353,71.4952
21.544346900318832,5798707.0,-5.082024,71.5147
46.41588833612777,4772105.0,-35.81215,71.5032
100.0,641364.6,-28.3404,71.5134
215.44346900318823,423200.2,-115.63,71.514
464.15888336127773,729606.3,-165.2008,71.5033
1000.0,575728.3,-83.51288,71.5097
2154.4346900318824,318618.0,-60.98703,71.5174
4641.588833612777,151666.9,-79.67304,71.5132
10000.0,90729.92,-87.35585,71.5143
