Frequency,Impedance,Phase Angle,Temperature (Dry Bath)
10.0,4626078.0,-20.49254,71.2943
21.544346900318832,6132148.0,-12.49465,71.3129
46.41588833612777,5280730.0,-30.24312,71.3059
100.0,401208.5,41.00519,71.3166
215.44346900318823,559399.5,-20.77543,71.3178
464.15888336127773,1151091.0,128.718,71.3163
1000.0,482443.6,-94.10254,71.3107
2154.4346900318824,420286.6,-89.57955,71.3052
4641.588833612777,118472.8,-83.16674,71.3115
10000.0,69356.78,-76.8708,71.3088
