Frequency,Impedance,Phase Angle,Temperature (Dry Bath)
10.0,5299458.0,8.565953,70.542
21.544346900318832,4392134.0,-9.257847,70.5649
46.41588833612777,4045620.0,-24.09861,70.5506
100.0,2278933.0,-40.75128,70.5743
215.44346900318823,2660877.0,102.3795,70.5968
464.15888336127773,728098.0,-30.70425,70.595
1000.0,901803.3,-104.4939,70.6107
2154.4346900318824,459250.4,-75.2651,70.6296
4641.588833612777,273655.8,-88.84675,70.6383
10000.0,122342.9,-81.41803,70.6605
