Frequency,Impedance,Phase Angle,Temperature (Dry Bath)
10.0,4175681.0,-26.91289,71.3103
21.544346900318832,6722239.0,4.740681,71.3144
46.41588833612777,3174026.0,-22.11718,71.3184
100.0,1495518.0,-20.38735,71.3124
215.44346900318823,50121.29,71.68185,71.3315
464.15888336127773,770742.2,-25.41086,71.3257
1000.0,186122.2,-66.47543,71.3082
2154.4346900318824,263554.7,-93.09628,71.3069
4641.588833612777,130209.1,-81.15452,71.3129
10000.0,60255.79,-86.34939,71.3229
