Frequency,Impedance,Phase Angle,Temperature (Dry Bath)
10.0,11128.92,-21.79689,70.8431
21.544346900318832,9458.168,-18.65294,70.8351
46.41588833612777,8231.824,-16.4107,70.8378
100.0,7256.99,-14.0361,70.8311
215.44346900318823,6531.191,-13.62545,70.847
464.15888336127773,5934.359,-11.67611,70.8181
1000.0,5394.494,-9.493674,70.8398
2154.4346900318824,4995.776,-8.97303,70.839
4641.588833612777,4663.565,-10.19381,70.8407
10000.0,4403.23,-11.012,70.8377
