Frequency,Impedance,Phase Angle,Temperature (Dry Bath)
10.0,5761794.0,-24.11598,71.1578
21.544346900318832,3874758.0,-33.07455,71.138
46.41588833612777,5037175.0,-23.27992,71.1538
100.0,340991.4,61.00799,71.1381
215.44346900318823,645597.2,-105.1037,71.126
464.15888336127773,421573.0,-62.07468,71.1513
1000.0,487433.1,-92.60989,71.1341
2154.4346900318824,202200.4,-81.68167,71.1461
4641.588833612777,112484.2,-87.30877,71.1547
10000.0,61081.95,-87.66172,71.1627
