Frequency,Impedance,Phase Angle,Temperature (Dry Bath)
10.0,4468323.0,-4.164253,71.497
21.544346900318832,6614752.0,3.649843,71.5026
46.41588833612777,6711293.0,-0.4189668,71.5081
100.0,860863.5,-52.5991,71.5163
215.44346900318823,2589724.0,-116.931,71.505
464.15888336127773,1130048.0,-69.58779,71.4945
1000.0,1227509.0,126.0487,71.4871
2154.4346900318824,555152.1,-65.67029,71.5069
4641.588833612777,297704.3,-63.80679,71.5122
10000.0,124228.5,-82.47615,71.5101
