Frequency,Impedance,Phase Angle,Temperature (Dry Bath)
10.0,553341.4,-3.397576,71.507
21.544346900318832,597124.4,-4.361469,71.4995
46.41588833612777,547953.1,-5.589979,71.5112
100.0,365041.6,-1.479928,71.4874
215.44346900318823,747860.2,-31.34145,71.4879
464.15888336127773,466130.9,-26.43763,71.4978
1000.0,406071.2,-36.32353,71.4955
2154.4346900318824,248905.4,-50.55647,71.5062
4641.588833612777,153718.3,-67.59242,71.4924
10000.0,90424.12,-62.96812,71.4789
