Frequency,Impedance,Phase Angle,Temperature (Dry Bath)
10.0,6216631.0,-14.97975,71.4221
21.544346900318832,4441265.0,-1.65231,71.4324
46.41588833612777,5145067.0,-20.18187,71.4312
100.0,2126343.0,-43.33719,71.4463
215.44346900318823,727296.4,-130.4128,71.4328
464.15888336127773,1279211.0,134.0674,71.4264
1000.0,651156.7,-49.00602,71.4338
2154.4346900318824,335199.9,-74.05218,71.4286
4641.588833612777,227174.9,-99.5309,71.427
10000.0,108979.0,-82.88932,71.4507
