Frequency,Impedance,Phase Angle,Temperature (Dry Bath)
10.0,5744820.0,-43.62782,70.9116
21.544346900318832,6446557.0,-33.20647,70.9148
46.41588833612777,4500716.0,-23.53979,70.9201
100.0,3354819.0,22.79759,70.9095
215.44346900318823,496613.2,-56.78746,70.9
464.15888336127773,2137085.0,-103.2933,70.9101
1000.0,371196.4,-104.1434,70.9128
2154.4346900318824,246752.9,-85.87598,70.9242
4641.588833612777,151405.6,-85.68511,70.9179
10000.0,61450.75,-86.41484,70.9244
