Frequency,Impedance,Phase Angle,Temperature (Dry Bath)
10.0,14310.76,-17.12509,71.3278
21.544346900318832,12624.73,-15.75586,71.3113
46.41588833612777,11222.83,-15.16913,71.3141
100.0,10022.63,-15.57621,71.3136
215.44346900318823,8871.161,-13.97415,71.3136
464.15888336127773,7969.803,-13.50717,71.339
1000.0,7081.454,-11.60301,71.3219
2154.4346900318824,6573.051,-10.48213,71.33
4641.588833612777,6071.75,-10.0678,71.3399
10000.0,5707.029,-8.81703,71.3418
