Frequency,Impedance,Phase Angle,Temperature (Dry Bath)
10.0,6635473.0,-28.84436,71.1213
21.544346900318832,5749023.0,-15.72518,71.1373
46.41588833612777,4547350.0,-23.69209,71.1283
100.0,706546.3,-104.5107,71.1237
215.44346900318823,582413.3,140.5339,71.128
464.15888336127773,446530.6,-147.4334,71.1226
1000.0,2310684.0,-87.094,71.1467
2154.4346900318824,676918.7,33.31157,71.1287
4641.588833612777,397443.7,-118.0795,71.1197
10000.0,138881.9,-105.6551,71.127
