Frequency,Impedance,Phase Angle,Temperature (Dry Bath)
10.0,5380551.0,-8.667379,71.1818
21.544346900318832,4353183.0,-5.189207,71.1849
46.41588833612777,5663553.0,-39.7711,71.1778
100.0,885681.4,51.84199,71.1838
215.44346900318823,1329363.0,-120.0059,71.1744
464.15888336127773,378024.1,-105.512,71.1856
1000.0,1450726.0,-48.01766,71.1989
2154.4346900318824,233729.6,-96.94918,71.1892
4641.588833612777,149293.4,-80.718,71.1911
10000.0,69616.3,-81.85391,71.1874
