Frequency,Impedance,Phase Angle,Temperature (Dry Bath)
10.0,4310074.0,24.26687,70.9802
21.544346900318832,4927434.0,-40.80858,71.0036
46.41588833612777,3950162.0,-32.81913,71.004
100.0,321884.6,-63.99462,70.9984
215.44346900318823,1156428.0,-4.301956,70.9954
464.15888336127773,522156.5,-45.52484,71.0004
1000.0,269683.9,-101.8732,70.9845
2154.4346900318824,271929.8,-57.7264,70.9997
4641.588833612777,125665.5,-91.0899,71.0003
10000.0,69271.48,-85.26164,70.9826
