Frequency,Impedance,Phase Angle,Temperature (Dry Bath)
10.0,6349465.0,-6.591591,71.2606
21.544346900318832,6408420.0,-29.84934,71.2573
46.41588833612777,5057029.0,-32.40539,71.2764
100.0,886365.7,-168.3672,71.2903
215.44346900318823,540031.1,-87.12513,71.2735
464.15888336127773,718647.3,117.6121,71.28
1000.0,682871.9,-102.9164,71.2831
2154.4346900318824,752896.1,-67.43561,71.2754
4641.588833612777,125167.6,-100.0081,71.2832
10000.0,70446.59,-93.05926,71.2839
