Frequency,Impedance,Phase Angle,Temperature (Dry Bath)
10.0,175290.1,-12.51815,71.3943
21.544346900318832,162541.2,-11.14143,71.3725
46.41588833612777,147993.0,-11.7991,71.3881
100.0,119662.1,-14.37022,71.3832
215.44346900318823,109818.4,-14.82235,71.3662
464.15888336127773,109188.1,-15.09918,71.3405
1000.0,90725.41,-10.89596,71.3674
2154.4346900318824,81287.1,-25.8889,71.3773
4641.588833612777,79203.71,-38.56993,71.3516
10000.0,51667.89,-53.69669,71.3532
