Frequency,Impedance,Phase Angle,Temperature (Dry Bath)
10.0,5439.387,-35.90891,70.8662
21.544346900318832,4109.383,-30.21056,70.8635
46.41588833612777,3285.157,-24.68949,70.8799
100.0,2759.163,-19.73957,70.8771
215.44346900318823,2390.378,-16.33648,70.8703
464.15888336127773,2125.513,-13.4344,70.8615
1000.0,1930.334,-11.77224,70.8619
2154.4346900318824,1757.309,-9.82922,70.8652
4641.588833612777,1636.042,-8.578028,70.8664
10000.0,1545.617,-8.218782,70.8828
