Frequency,Impedance,Phase Angle,Temperature (Dry Bath)
10.0,6505869.0,-1.541328,71.217
21.544346900318832,6801285.0,-16.76511,71.2281
46.41588833612777,5319086.0,-22.50983,71.2227
100.0,1301442.0,122.2558,71.2204
215.44346900318823,807303.3,-44.83678,71.2267
464.15888336127773,846530.8,34.82454,71.2192
1000.0,632333.2,-82.8303,71.2103
2154.4346900318824,217220.8,-62.65946,71.211
4641.588833612777,131655.7,-75.80561,71.2191
10000.0,65482.94,-84.0029,71.195
