Frequency,Impedance,Phase Angle,Temperature (Dry Bath)
10.0,9900.235,-25.05905,70.9087
21.544346900318832,8134.952,-21.53863,70.9147
46.41588833612777,6905.051,-18.32206,70.9029
100.0,6118.241,-15.72835,70.8978
215.44346900318823,5391.903,-13.85066,70.8903
464.15888336127773,4952.879,-11.00801,70.8886
1000.0,4519.542,-9.546505,70.9167
2154.4346900318824,4197.873,-8.93259,70.9003
4641.588833612777,3931.955,-9.515621,70.9015
10000.0,3722.615,-10.75464,70.9198
