Frequency,Impedance,Phase Angle,Temperature (Dry Bath)
10.0,6936361.0,0.5020973,71.2909
21.544346900318832,5758817.0,5.539026,71.2807
46.41588833612777,3876327.0,-32.75472,71.2836
100.0,598194.4,19.9797,71.2849
215.44346900318823,1084457.0,23.2777,71.273
464.15888336127773,721059.1,174.2382,71.2866
1000.0,401589.6,-141.1588,71.2975
2154.4346900318824,296041.0,-84.55991,71.2973
4641.588833612777,150813.7,-138.5082,71.2958
10000.0,109346.4,-93.10327,71.2974
