Frequency,Impedance,Phase Angle,Temperature (Dry Bath)
10.0,5286896.0,14.55903,71.3625
21.544346900318832,4996690.0,8.396389,71.3534
46.41588833612777,4605715.0,-7.281174,71.3514
100.0,830278.8,-12.55597,71.3723
215.44346900318823,3145793.0,-91.63234,71.3693
464.15888336127773,561607.2,-121.8493,71.374
1000.0,778714.2,-46.32112,71.3481
2154.4346900318824,308602.6,-76.51648,71.3681
4641.588833612777,201554.0,-73.1101,71.3781
10000.0,107225.6,-96.81964,71.3525
