Frequency,Impedance,Phase Angle,Temperature (Dry Bath)
10.0,148429.0,-10.34027,71.3089
21.544346900318832,138728.0,-9.577048,71.2937
46.41588833612777,131556.2,-8.433854,71.298
100.0,105266.4,-6.160682,71.3013
215.44346900318823,133050.5,-11.25819,71.2903
464.15888336127773,103945.4,-11.60426,71.3133
1000.0,86857.99,-26.12908,71.2972
2154.4346900318824,107983.9,-24.09919,71.3073
4641.588833612777,66409.58,-40.68831,71.2971
10000.0,48626.59,-56.71528,71.2859
