Frequency,Impedance,Phase Angle,Temperature (Dry Bath)
10.0,912454.5,-32.42533,71.3262
21.544346900318832,723736.7,-27.28159,71.3179
46.41588833612777,579269.2,-24.01121,71.3094
100.0,331353.8,12.17633,71.3069
215.44346900318823,284414.1,-40.46631,71.3152
464.15888336127773,416125.4,-19.97145,71.3184
1000.0,312933.6,-68.76834,71.3197
2154.4346900318824,156990.8,-36.89719,71.3229
4641.588833612777,103126.4,-57.43223,71.315
10000.0,53119.51,-75.39251,71.3143
