Frequency,Impedance,Phase Angle,Temperature (Dry Bath)
10.0,6505153.0,-4.462883,71.5622
21.544346900318832,3632067.0,-33.44504,71.5385
46.41588833612777,7365201.0,-5.181613,71.5415
100.0,2306254.0,-2.102489,71.545
215.44346900318823,5768297.0,-167.826,71.5487
464.15888336127773,759352.2,9.015275,71.5559
1000.0,1226186.0,-43.27317,71.5485
2154.4346900318824,591697.2,-33.52374,71.5659
4641.588833612777,278925.0,-78.58979,71.5606
10000.0,110814.0,-95.53367,71.5542
