Frequency,Impedance,Phase Angle,Temperature (Dry Bath)
10.0,7503262.0,0.2354373,70.9254
21.544346900318832,4771555.0,-11.10912,70.9114
46.41588833612777,3992588.0,-27.11955,70.9252
100.0,726368.4,79.94553,70.92
215.44346900318823,964256.8,-69.95694,70.8991
464.15888336127773,353625.4,-60.31733,70.9119
1000.0,862822.2,-63.05171,70.8992
2154.4346900318824,538771.4,-92.00659,70.8954
4641.588833612777,145242.9,-72.65497,70.8977
10000.0,65372.05,-81.17636,70.9038
