Frequency,Impedance,Phase Angle,Temperature (Dry Bath)
10.0,5371618.0,-10.7792,71.4667
21.544346900318832,4943405.0,5.996579,71.4787
46.41588833612777,3644079.0,-17.20955,71.4855
100.0,266705.8,61.53555,71.471
215.44346900318823,1718794.0,139.6052,71.4801
464.15888336127773,842588.2,-99.97371,71.4697
1000.0,700247.8,150.3634,71.4761
2154.4346900318824,244617.5,-85.30289,71.4756
4641.588833612777,138287.6,-90.01804,71.476
10000.0,57276.62,-85.82363,71.4689
