Frequency,Impedance,Phase Angle,Temperature (Dry Bath)
10.0,20155.83,-24.05621,71.3925
21.544346900318832,16418.57,-23.965,71.3867
46.41588833612777,13421.16,-23.50387,71.4022
100.0,11126.58,-22.65944,71.386
215.44346900318823,9243.796,-21.73178,71.3974
464.15888336127773,7793.71,-20.0835,71.384
1000.0,6584.529,-19.06135,71.3887
2154.4346900318824,5632.808,-19.08405,71.3947
4641.588833612777,4843.537,-17.7001,71.3765
10000.0,4150.633,-16.58522,71.3865
