Frequency,Impedance,Phase Angle,Temperature (Dry Bath)
10.0,18247.58,-23.25626,71.1703
21.544346900318832,14830.44,-24.95696,71.1619
46.41588833612777,11863.55,-25.87985,71.1492
100.0,9469.251,-26.02685,71.1575
215.44346900318823,7583.484,-25.43327,71.1548
464.15888336127773,6073.733,-23.56678,71.154
1000.0,4953.489,-21.69397,71.1692
2154.4346900318824,4154.218,-19.6568,71.153
4641.588833612777,3530.683,-17.99023,71.1715
10000.0,3105.411,-16.62113,71.1776
