Frequency,Impedance,Phase Angle,Temperature (Dry Bath)
10.0,14800.28,-19.49458,71.0117
21.544346900318832,12788.11,-16.72471,71.0035
46.41588833612777,11284.1,-14.58661,71.0053
100.0,10116.45,-13.79972,70.9984
215.44346900318823,9225.894,-11.38722,71.0052
464.15888336127773,8409.184,-10.55331,71.0079
1000.0,7767.849,-10.07599,70.9923
2154.4346900318824,7218.06,-9.51428,71.0029
4641.588833612777,6793.853,-10.77633,71.0024
10000.0,6330.034,-13.23582,70.9957
