Frequency,Impedance,Phase Angle,Temperature (Dry Bath)
10.0,7640.899,-36.01899,71.4623
21.544346900318832,5758.306,-31.64149,71.4625
46.41588833612777,4501.405,-27.34621,71.465
100.0,3647.328,-23.05527,71.4597
215.44346900318823,3081.526,-19.48818,71.461
464.15888336127773,2649.883,-16.1782,71.4706
1000.0,2352.382,-12.93968,71.4678
2154.4346900318824,2147.239,-11.36791,71.4657
4641.588833612777,1982.68,-9.888764,71.4597
10000.0,1847.072,-9.002335,71.4604
