Frequency,Impedance,Phase Angle,Temperature (Dry Bath)
10.0,14800.62,-19.44082,71.0342
21.544346900318832,12764.64,-16.63635,71.025
46.41588833612777,11254.42,-14.48603,71.0215
100.0,10020.77,-10.72346,71.0101
215.44346900318823,9178.421,-11.49259,71.0275
464.15888336127773,8523.275,-10.27168,71.0259
1000.0,7871.443,-9.08688,71.0338
2154.4346900318824,7319.255,-9.824841,71.0331
4641.588833612777,6725.546,-9.501788,71.0255
10000.0,6387.848,-12.91203,71.0282
