Frequency,Impedance,Phase Angle,Temperature (Dry Bath)
10.0,4768394.0,6.643948,71.1935
21.544346900318832,7431000.0,17.10601,71.1848
46.41588833612777,4427107.0,-38.27214,71.1864
100.0,367435.7,-22.01539,71.1896
215.44346900318823,1866293.0,-132.9507,71.197
464.15888336127773,535138.2,-60.5873,71.1932
1000.0,410500.7,-98.67933,71.1865
2154.4346900318824,268927.7,-80.81179,71.1825
4641.588833612777,130158.9,-98.44577,71.1927
10000.0,57431.21,-90.15636,71.1894
