Frequency,Impedance,Phase Angle,Temperature (Dry Bath)
10.0,18029.72,-23.40406,71.365
21.544346900318832,14672.26,-24.94301,71.3643
46.41588833612777,11725.03,-25.99167,71.3663
100.0,9395.334,-25.73258,71.3795
215.44346900318823,7428.708,-24.64788,71.3845
464.15888336127773,6003.516,-23.73677,71.3876
1000.0,4897.841,-21.94378,71.3763
2154.4346900318824,4118.142,-19.56235,71.3769
4641.588833612777,3525.593,-17.46065,71.3974
10000.0,3080.788,-16.68443,71.3742
