Frequency,Impedance,Phase Angle,Temperature (Dry Bath)
10.0,4643190.0,4.501779,70.7848
21.544346900318832,4062493.0,-23.36553,70.7811
46.41588833612777,5026783.0,5.92485,70.8249
100.0,959015.1,-92.84783,70.7909
215.44346900318823,9953825.0,148.6285,70.802
464.15888336127773,1243236.0,152.873,70.7888
1000.0,439566.6,-9.223281,70.8019
2154.4346900318824,192965.0,-82.92835,70.8065
4641.588833612777,132732.1,-78.19795,70.8025
10000.0,59497.06,-80.84984,70.8078
