Frequency,Impedance,Phase Angle,Temperature (Dry Bath)
10.0,4521583.0,-11.33144,71.042
21.544346900318832,4644554.0,-8.738866,71.0449
46.41588833612777,5340609.0,-21.77809,71.0401
100.0,749782.7,-61.23793,71.0581
215.44346900318823,1996214.0,-59.86414,71.0334
464.15888336127773,1042650.0,-90.94309,71.0524
1000.0,512952.5,-165.7492,71.038
2154.4346900318824,283726.4,-76.59998,71.0364
4641.588833612777,132939.8,-84.80391,71.0358
10000.0,67316.31,-82.16552,71.0361
