Frequency,Impedance,Phase Angle,Temperature (Dry Bath)
10.0,6767469.0,-17.30673,70.6489
21.544346900318832,3560420.0,-15.61924,70.6347
46.41588833612777,3542724.0,-40.96909,70.6302
100.0,820274.8,-84.30891,70.6335
215.44346900318823,572502.7,-80.70718,70.627
464.15888336127773,591084.9,-105.4468,70.6256
1000.0,458470.0,-20.92718,70.6366
2154.4346900318824,209603.3,-83.58038,70.6374
4641.588833612777,119236.1,-92.34949,70.623
10000.0,43226.59,-82.35211,70.6331
