Frequency,Impedance,Phase Angle,Temperature (Dry Bath)
10.0,7986296.0,21.97853,71.4188
21.544346900318832,4389942.0,7.366044,71.4232
46.41588833612777,4669892.0,-17.86511,71.3941
100.0,736483.4,-2.81975,71.4173
215.44346900318823,1533679.0,-159.7399,71.4302
464.15888336127773,3851834.0,34.72456,71.4196
1000.0,617858.7,-32.18707,71.4144
2154.4346900318824,524067.2,-50.00803,71.4203
4641.588833612777,329711.9,-90.40745,71.4101
10000.0,162365.9,-95.19019,71.4284
