Frequency,Impedance,Phase Angle,Temperature (Dry Bath)
10.0,7246476.0,22.15192,28.7706
21.544346900318832,6172087.0,18.83764,28.8104
46.41588833612777,5594945.0,-4.361917,28.8931
100.0,1081679.0,-9.550395,28.9205
215.44346900318823,1370905.0,-153.893,28.9423
464.15888336127773,2002823.0,-87.74464,28.7436
1000.0,551257.1,159.1378,28.9118
2154.4346900318824,442804.7,-83.96799,28.4913
4641.588833612777,313687.3,-73.38365,28.6591
10000.0,153543.6,-81.20304,28.6271
