Frequency,Impedance,Phase Angle,Temperature (Dry Bath)
10.0,3771296.0,-15.18565,71.1246
21.544346900318832,6751607.0,-27.62018,71.1264
46.41588833612777,4856766.0,3.866872,71.1049
100.0,747420.0,59.88425,71.1263
215.44346900318823,4108164.0,-69.37902,71.1285
464.15888336127773,2670037.0,92.60844,71.1313
1000.0,1267969.0,140.9857,71.1224
2154.4346900318824,510199.1,-73.21482,71.1173
4641.588833612777,206362.6,-87.01291,71.1223
10000.0,136852.4,-84.71134,71.1281
