Frequency,Impedance,Phase Angle,Temperature (Dry Bath)
10.0,95245.22,-13.36912,72.1154
21.544346900318832,86496.14,-11.62261,72.1183
46.41588833612777,79517.52,-10.34461,72.1064
100.0,76317.57,-8.403044,72.1214
215.44346900318823,67295.29,-7.540251,72.1014
464.15888336127773,68262.45,-8.56729,72.113
1000.0,65477.82,-1.520952,72.1009
2154.4346900318824,58882.98,-4.342332,72.1314
4641.588833612777,52230.07,-23.58317,72.1373
10000.0,52848.39,-33.52876,72.123
