Frequency,Impedance,Phase Angle,Temperature (Dry Bath)
10.0,12613.83,-26.20706,71.2754
21.544346900318832,10203.79,-23.73743,71.2652
46.41588833612777,8435.565,-21.12582,71.2684
100.0,7126.065,-18.50573,71.2616
215.44346900318823,6279.559,-16.13962,71.2717
464.15888336127773,5500.941,-13.87238,71.264
1000.0,4934.147,-12.63157,71.269
2154.4346900318824,4504.371,-11.81233,71.26
4641.588833612777,4111.977,-11.82753,71.2632
10000.0,3749.501,-11.92448,71.2725
