Frequency,Impedance,Phase Angle,Temperature (Dry Bath)
10.0,6875499.0,-20.26157,71.1488
21.544346900318832,7823335.0,2.013397,71.1438
46.41588833612777,5763621.0,-27.31174,71.1431
100.0,659233.5,-55.2358,71.1441
215.44346900318823,807441.4,38.08685,71.1395
464.15888336127773,769867.9,-113.8786,71.1314
1000.0,806353.8,129.8403,71.1357
2154.4346900318824,350229.5,-74.06,71.1421
4641.588833612777,129784.6,-93.55809,71.1452
10000.0,68551.92,-89.44537,71.1435
