Frequency,Impedance,Phase Angle,Temperature (Dry Bath)
10.0,4313823.0,-15.64731,70.5793
21.544346900318832,3832225.0,-11.46401,70.596
46.41588833612777,5199825.0,-4.87213,70.5767
100.0,1090529.0,-111.118,70.6025
215.44346900318823,927719.3,-57.96539,70.5831
464.15888336127773,620045.5,-74.59687,70.5883
1000.0,332339.9,-32.1744,70.579
2154.4346900318824,357529.5,-96.31494,70.5947
4641.588833612777,94877.66,-91.61914,70.5908
10000.0,52925.66,-85.51327,70.5857
