Frequency,Impedance,Phase Angle,Temperature (Dry Bath)
10.0,8603719.0,2.063571,71.4154
21.544346900318832,6895469.0,-33.75401,71.4151
46.41588833612777,4926356.0,-22.92165,71.4294
100.0,385771.8,17.98909,71.4374
215.44346900318823,1624042.0,138.4861,71.4313
464.15888336127773,8453484.0,-58.34133,71.4113
1000.0,390762.8,-110.8078,71.4105
2154.4346900318824,283370.5,-75.40445,71.4164
4641.588833612777,137441.8,-72.1501,71.4171
10000.0,68518.48,-88.63598,71.4293
