Frequency,Impedance,Phase Angle,Temperature (Dry Bath)
10.0,4598129.0,4.044248,28.5701
21.544346900318832,4649008.0,2.424564,28.5763
46.41588833612777,4707033.0,-1.846673,28.5453
100.0,1636813.0,-73.42432,28.391
215.44346900318823,11345340.0,143.3677,28.4477
464.15888336127773,569247.1,-27.93324,28.7273
1000.0,2082265.0,-177.9794,28.7071
2154.4346900318824,690769.3,-66.80006,28.7603
4641.588833612777,473617.4,-70.92981,28.7364
10000.0,175741.3,-87.41895,28.7241
