Frequency,Impedance,Phase Angle,Temperature (Dry Bath)
10.0,4020136.0,-0.9825836,70.9375
21.544346900318832,3578196.0,0.1272145,70.9692
46.41588833612777,4942749.0,-21.07371,70.9592
100.0,628437.3,-1.677801,70.9541
215.44346900318823,544265.0,-25.1145,70.953
464.15888336127773,756761.5,-37.82605,70.9456
1000.0,1114842.0,-143.482,70.9415
2154.4346900318824,1142855.0,153.1178,70.9721
4641.588833612777,146613.5,-78.47377,70.9473
10000.0,141716.4,-77.67496,70.9739
