Frequency,Impedance,Phase Angle,Temperature (Dry Bath)
10.0,158778.5,-9.671304,71.2264
21.544346900318832,147564.0,-7.853465,71.2212
46.41588833612777,137634.0,-8.237096,71.2326
100.0,169292.6,-33.7382,71.2199
215.44346900318823,107547.9,-5.275488,71.2245
464.15888336127773,119469.4,-2.912219,71.2178
1000.0,146630.6,-27.59461,71.2277
2154.4346900318824,85423.76,-22.40027,71.2219
4641.588833612777,61259.94,-37.92769,71.2149
10000.0,48280.9,-58.80944,71.2216
