Frequency,Impedance,Phase Angle,Temperature (Dry Bath)
10.0,6942865.0,-39.00315,70.9581
21.544346900318832,4322693.0,-14.4035,70.9676
46.41588833612777,5953126.0,-52.53531,70.9455
100.0,1237230.0,102.5661,70.9671
215.44346900318823,712466.4,-55.0019,70.9566
464.15888336127773,462322.1,-65.05601,70.9524
1000.0,406226.9,-91.11165,70.9765
2154.4346900318824,402524.4,-75.22358,70.9608
4641.588833612777,111376.5,-87.33877,70.9582
10000.0,56210.36,-84.52144,70.9414
