Frequency,Impedance,Phase Angle,Temperature (Dry Bath)
10.0,3670011.0,-14.52504,71.4636
21.544346900318832,4679097.0,-5.305271,71.4565
46.41588833612777,4544839.0,-21.59008,71.4575
100.0,723058.9,-16.1205,71.4489
215.44346900318823,783577.5,-42.38235,71.4625
464.15888336127773,547130.5,-11.59998,71.4561
1000.0,333061.0,-82.1156,71.4505
2154.4346900318824,270176.5,-85.04285,71.4506
4641.588833612777,126652.1,-81.69616,71.4712
10000.0,56596.81,-87.03957,71.4566
