Frequency,Impedance,Phase Angle,Temperature (Dry Bath)
10.0,4774147.0,7.590372,71.4581
21.544346900318832,3946521.0,-49.38358,71.4542
46.41588833612777,4116216.0,-27.35911,71.4461
100.0,1019427.0,96.53739,71.447
215.44346900318823,803984.1,170.1082,71.453
464.15888336127773,481056.5,-51.39741,71.4452
1000.0,300881.8,-122.8598,71.4566
2154.4346900318824,240449.1,-97.497,71.4614
4641.588833612777,95627.13,-89.74955,71.4482
10000.0,59219.37,-69.53211,71.4443
