Frequency,Impedance,Phase Angle,Temperature (Dry Bath)
10.0,13996.11,-17.03864,71.4278
21.544346900318832,12372.36,-15.786,71.4318
46.41588833612777,11009.91,-15.19622,71.4245
100.0,9899.024,-13.89718,71.4167
215.44346900318823,8751.573,-13.88523,71.4269
464.15888336127773,7791.798,-13.05446,71.4099
1000.0,6994.386,-11.87153,71.4234
2154.4346900318824,6405.185,-10.45597,71.4311
4641.588833612777,5939.122,-9.460362,71.4195
10000.0,5571.797,-9.293127,71.4156
