Frequency,Impedance,Phase Angle,Temperature (Dry Bath)
10.0,3351080.0,-9.790341,71.4584
21.544346900318832,5206789.0,-44.05037,71.4577
46.41588833612777,7939601.0,-45.91676,71.4366
100.0,9791015.0,-73.96599,71.4412
215.44346900318823,766195.1,-107.2301,71.4572
464.15888336127773,592694.5,-115.4505,71.4436
1000.0,399901.4,-46.13715,71.4333
2154.4346900318824,215885.4,-83.93101,71.436
4641.588833612777,121775.7,-84.33728,71.4385
10000.0,64370.39,-91.81153,71.4479
