Frequency,Impedance,Phase Angle,Temperature (Dry Bath)
10.0,5606053.0,30.66034,29.9424
21.544346900318832,7313897.0,2.258517,29.9823
46.41588833612777,6235448.0,-24.79136,29.8528
100.0,701467.0,-14.06231,30.0171
215.44346900318823,3306189.0,-6.639855,30.0236
464.15888336127773,1300539.0,-34.79396,29.3725
1000.0,876858.0,-49.66603,29.6062
2154.4346900318824,1088642.0,-83.22522,29.5612
4641.588833612777,338377.1,-65.87531,29.5931
10000.0,152029.9,-81.79981,29.3317
