Frequency,Impedance,Phase Angle,Temperature (Dry Bath)
10.0,3512463.0,-18.62756,71.2229
21.544346900318832,1925052.0,-18.08314,71.2286
46.41588833612777,1786284.0,-27.30741,71.2535
100.0,1002053.0,176.5381,71.2279
215.44346900318823,415165.8,-67.13342,71.2231
464.15888336127773,192421.8,-52.41258,71.2145
1000.0,256385.7,-79.92228,71.2303
2154.4346900318824,226990.0,-91.43914,71.2372
4641.588833612777,66257.72,-84.2967,71.2391
10000.0,34723.2,-84.11883,71.2535
