Frequency,Impedance,Phase Angle,Temperature (Dry Bath)
10.0,44374.09,-15.23731,70.598
21.544346900318832,40128.33,-12.87264,70.626
46.41588833612777,36648.98,-11.93949,70.625
100.0,33419.92,-9.801845,70.6059
215.44346900318823,31353.1,-9.45629,70.6211
464.15888336127773,28858.06,-9.07457,70.6182
1000.0,25707.57,-11.74545,70.6106
2154.4346900318824,25087.63,-14.35657,70.6251
4641.588833612777,23583.05,-19.71428,70.6284
10000.0,19281.49,-28.10713,70.6067
