Frequency,Impedance,Phase Angle,Temperature (Dry Bath)
10.0,10521.86,-25.47146,70.8616
21.544346900318832,8627.629,-22.03866,70.8384
46.41588833612777,7288.822,-18.79699,70.8542
100.0,6262.281,-17.04913,70.85
215.44346900318823,5603.037,-13.50453,70.8371
464.15888336127773,5161.897,-10.89427,70.8524
1000.0,4675.311,-9.861465,70.8393
2154.4346900318824,4384.84,-9.467581,70.8509
4641.588833612777,4141.844,-9.52025,70.858
10000.0,3825.42,-10.68067,70.8506
