Frequency,Impedance,Phase Angle,Temperature (Dry Bath)
10.0,311824.0,-6.276055,70.7412
21.544346900318832,305759.5,-6.002851,70.7512
46.41588833612777,287641.5,-7.623686,70.7451
100.0,174199.6,26.68637,70.7417
215.44346900318823,275151.6,-8.001428,70.7533
464.15888336127773,242848.9,-12.14473,70.7458
1000.0,168940.8,-8.291116,70.7495
2154.4346900318824,151264.3,-44.44666,70.7552
4641.588833612777,108724.7,-69.11922,70.7518
10000.0,59127.43,-72.16993,70.7434
