Frequency,Impedance,Phase Angle,Temperature (Dry Bath)
10.0,181449.0,-12.46284,71.2564
21.544346900318832,160900.4,-11.36586,71.2359
46.41588833612777,146915.0,-11.7013,71.2586
100.0,151283.5,-14.34413,71.2477
215.44346900318823,127581.4,12.71072,71.2477
464.15888336127773,111633.3,-12.15887,71.2616
1000.0,84987.51,-14.93746,71.256
2154.4346900318824,93870.16,-24.15731,71.2559
4641.588833612777,80337.51,-37.3014,71.2452
10000.0,51215.52,-58.62517,71.2519
