Frequency,Impedance,Phase Angle,Temperature (Dry Bath)
10.0,5597945.0,29.74107,70.9166
21.544346900318832,4974696.0,-39.48921,70.9239
46.41588833612777,3607773.0,-17.54881,70.9467
100.0,479170.9,46.80253,70.9305
215.44346900318823,1962276.0,-21.33835,70.9355
464.15888336127773,800933.7,-58.23771,70.9334
1000.0,271012.2,-51.42633,70.9325
2154.4346900318824,515979.7,-114.2889,70.9356
4641.588833612777,133199.8,-90.03033,70.9361
10000.0,76891.73,-78.4122,70.9277
