Frequency,Impedance,Phase Angle,Temperature (Dry Bath)
10.0,12477.68,-27.03488,71.2992
21.544346900318832,10047.0,-24.30955,71.3024
46.41588833612777,8266.607,-21.60691,71.293
100.0,6895.411,-19.34549,71.2959
215.44346900318823,6066.522,-15.8405,71.2945
464.15888336127773,5324.457,-14.43047,71.304
1000.0,4800.041,-12.65106,71.2998
2154.4346900318824,4342.996,-11.30752,71.3115
4641.588833612777,3973.315,-11.2799,71.3037
10000.0,3636.717,-12.10625,71.3171
