Frequency,Impedance,Phase Angle,Temperature (Dry Bath)
10.0,6613372.0,-20.75119,71.3085
21.544346900318832,3797644.0,-19.44901,71.3304
46.41588833612777,4241744.0,-72.58262,71.3132
100.0,590672.6,-13.62848,71.3177
215.44346900318823,34650.02,-112.2436,71.3261
464.15888336127773,1657970.0,-85.68854,71.3268
1000.0,212352.2,-56.71216,71.3216
2154.4346900318824,284967.6,-87.56999,71.3201
4641.588833612777,156468.3,-79.97436,71.3219
10000.0,71227.2,-87.95656,71.3206
