Frequency,Impedance,Phase Angle,Temperature (Dry Bath)
10.0,21246.33,-19.75665,70.9754
21.544346900318832,18201.07,-17.49979,70.9651
46.41588833612777,15909.0,-15.56034,70.9594
100.0,14154.66,-14.11802,70.9493
215.44346900318823,13019.39,-11.84343,70.9594
464.15888336127773,11540.2,-10.47554,70.9604
1000.0,10564.6,-11.47428,70.9529
2154.4346900318824,9733.236,-9.989431,70.9681
4641.588833612777,9220.612,-10.99093,70.953
10000.0,8617.518,-15.01165,70.97
