Frequency,Impedance,Phase Angle,Temperature (Dry Bath)
10.0,4817320.0,-34.2985,71.0615
21.544346900318832,5321635.0,-17.0619,71.0638
46.41588833612777,4550650.0,-25.84463,71.0739
100.0,1242200.0,30.74759,71.0732
215.44346900318823,723141.7,-65.97084,71.0654
464.15888336127773,2221047.0,-94.15449,71.0539
1000.0,579882.6,-114.505,71.0638
2154.4346900318824,418373.2,-94.56403,71.0719
4641.588833612777,120982.3,-79.65871,71.0548
10000.0,59719.83,-81.13886,71.0725
