Frequency,Impedance,Phase Angle,Temperature (Dry Bath)
10.0,5218.577,-35.0075,70.6409
21.544346900318832,3963.578,-29.37914,70.6307
46.41588833612777,3189.137,-23.96728,70.631
100.0,2658.593,-19.31666,70.6414
215.44346900318823,2334.454,-16.0513,70.6479
464.15888336127773,2086.842,-13.40463,70.6379
1000.0,1887.643,-11.39836,70.6344
2154.4346900318824,1738.066,-9.844213,70.6529
4641.588833612777,1617.842,-8.521454,70.649
10000.0,1528.908,-8.127391,70.6415
