Frequency,Impedance,Phase Angle,Temperature (Dry Bath)
10.0,6269899.0,-10.01005,71.2879
21.544346900318832,5860854.0,-8.9963,71.3002
46.41588833612777,4519382.0,-28.58003,71.2803
100.0,309421.7,-13.34513,71.2994
215.44346900318823,545171.5,-24.7723,71.2833
464.15888336127773,433689.0,-72.42278,71.2914
1000.0,665694.9,-104.5649,71.2891
2154.4346900318824,225911.6,-77.50993,71.3021
4641.588833612777,129525.0,-90.29967,71.2772
10000.0,59511.64,-82.76564,71.2914
