Frequency,Impedance,Phase Angle,Temperature (Dry Bath)
10.0,8186862.0,-21.63788,70.9629
21.544346900318832,3328828.0,-6.881967,70.9711
46.41588833612777,4034904.0,-30.26018,70.9654
100.0,1244286.0,-63.10931,70.967
215.44346900318823,1479189.0,-10.58541,70.9715
464.15888336127773,342902.6,-105.5906,70.9554
1000.0,270074.0,-125.4922,70.9513
2154.4346900318824,249915.0,-61.24329,70.9567
4641.588833612777,184118.2,-102.2005,70.9653
10000.0,71441.9,-80.08982,70.9573
