Frequency,Impedance,Phase Angle,Temperature (Dry Bath)
10.0,9053638.0,-32.94697,70.9523
21.544346900318832,5521880.0,4.835539,70.9516
46.41588833612777,4700927.0,-27.69327,70.9666
100.0,363809.2,-81.00717,70.9591
215.44346900318823,1996671.0,178.2844,70.9653
464.15888336127773,1742833.0,-151.2087,70.9519
1000.0,526342.9,-80.56178,70.9599
2154.4346900318824,316042.0,-100.8118,70.9518
4641.588833612777,157534.3,-73.97727,70.9338
10000.0,54008.25,-88.39321,70.9512
