Frequency,Impedance,Phase Angle,Temperature (Dry Bath)
10.0,9889.931,-22.55813,70.8366
21.544346900318832,8360.612,-19.24274,70.8402
46.41588833612777,7250.094,-16.82845,70.8389
100.0,6412.014,-15.095,70.8296
215.44346900318823,5716.751,-13.24873,70.8367
464.15888336127773,5158.082,-11.69487,70.8468
1000.0,4673.385,-10.98783,70.8525
2154.4346900318824,4348.649,-9.549719,70.8416
4641.588833612777,4081.766,-9.229354,70.8526
10000.0,3816.179,-10.33313,70.8294
