Frequency,Impedance,Phase Angle,Temperature (Dry Bath)
10.0,519737.8,-12.83569,71.2245
21.544346900318832,529401.0,-10.9003,71.2411
46.41588833612777,457657.9,-13.29712,71.2304
100.0,439538.1,2.928351,71.2032
215.44346900318823,351314.7,-18.50422,71.2414
464.15888336127773,518949.4,46.45853,71.2204
1000.0,116167.2,1.305647,71.2005
2154.4346900318824,267615.4,-23.51639,71.22
4641.588833612777,167235.7,-34.87552,71.2214
10000.0,93469.18,-62.98519,71.2357
