Frequency,Impedance,Phase Angle,Temperature (Dry Bath)
10.0,7545.018,-35.56016,71.4498
21.544346900318832,5710.069,-31.0574,71.468
46.41588833612777,4491.916,-26.72803,71.4677
100.0,3672.302,-22.84073,71.4602
215.44346900318823,3113.343,-18.77339,71.458
464.15888336127773,2692.568,-15.62304,71.4673
1000.0,2410.497,-13.00176,71.4724
2154.4346900318824,2181.259,-11.08698,71.4647
4641.588833612777,2024.444,-9.735765,71.4677
10000.0,1884.386,-9.042669,71.4559
