Frequency,Impedance,Phase Angle,Temperature (Dry Bath)
10.0,327101.3,-24.92583,71.2246
21.544346900318832,265726.3,-20.87188,71.2368
46.41588833612777,222278.6,-21.0182,71.2331
100.0,142971.9,-10.91548,71.2214
215.44346900318823,169210.1,-30.16228,71.2088
464.15888336127773,157201.5,-34.66098,71.2177
1000.0,107695.2,-27.32537,71.2358
2154.4346900318824,106468.2,-35.95904,71.227
4641.588833612777,84029.23,-48.19647,71.2289
10000.0,44914.66,-60.81021,71.2327
