Frequency,Impedance,Phase Angle,Temperature (Dry Bath)
10.0,4481147.0,-14.70252,70.524
21.544346900318832,5627967.0,-15.10606,70.5191
46.41588833612777,6179586.0,-33.34222,70.521
100.0,244121.7,-1.306381,70.5183
215.44346900318823,599693.4,169.0089,70.5233
464.15888336127773,636036.6,-118.2541,70.5368
1000.0,897816.2,-64.07662,70.5142
2154.4346900318824,225368.6,-116.0027,70.5116
4641.588833612777,99048.23,-94.4573,70.5313
10000.0,51102.0,-89.88016,70.5145
