Frequency,Impedance,Phase Angle,Temperature (Dry Bath)
10.0,6915158.0,-3.498317,70.8449
21.544346900318832,4949053.0,3.245752,70.8584
46.41588833612777,3963905.0,-26.0486,70.8376
100.0,761123.1,35.6491,70.8311
215.44346900318823,1669672.0,23.9174,70.8341
464.15888336127773,704606.0,-11.94355,70.8428
1000.0,399949.3,84.44269,70.8335
2154.4346900318824,251219.3,-94.22756,70.8375
4641.588833612777,115624.2,-85.38303,70.8213
10000.0,58434.02,-84.56941,70.8465
