Frequency,Impedance,Phase Angle,Temperature (Dry Bath)
10.0,171623.9,-13.09379,71.0832
21.544346900318832,153852.6,-12.09922,71.0636
46.41588833612777,141616.8,-11.5802,71.0741
100.0,150665.7,-12.27373,71.0649
215.44346900318823,98502.8,-19.49491,71.0773
464.15888336127773,95115.48,-18.42228,71.0633
1000.0,98232.35,-25.10387,71.0608
2154.4346900318824,81921.05,-24.56055,71.07
4641.588833612777,70580.43,-41.67507,71.0731
10000.0,47214.06,-50.11106,71.078
