Frequency,Impedance,Phase Angle,Temperature (Dry Bath)
10.0,5196576.0,24.07387,70.7844
21.544346900318832,8233157.0,-44.43491,70.7908
46.41588833612777,4864519.0,-14.18448,70.7755
100.0,650082.1,142.8537,70.77
215.44346900318823,1331111.0,70.39178,70.762
464.15888336127773,1896027.0,8.349173,70.7618
1000.0,243300.6,18.08888,70.7644
2154.4346900318824,217435.2,-91.72108,70.7877
4641.588833612777,117022.8,-92.34797,70.771
10000.0,56229.26,-81.94911,70.7796
