Frequency,Impedance,Phase Angle,Temperature (Dry Bath)
10.0,4012193.0,-16.64302,71.4187
21.544346900318832,5601795.0,-20.78989,71.4195
46.41588833612777,3377102.0,-11.19536,71.4077
100.0,468236.5,-101.7177,71.4152
215.44346900318823,17429.26,21.67975,71.4026
464.15888336127773,1371280.0,-59.05523,71.4025
1000.0,449985.7,-106.0828,71.3996
2154.4346900318824,250851.9,-75.44359,71.3881
4641.588833612777,126024.6,-76.8936,71.41
10000.0,58031.43,-83.40561,71.4127
