Frequency,Impedance,Phase Angle,Temperature (Dry Bath)
10.0,1160112.0,-20.37619,70.9368
21.544346900318832,1009644.0,-26.0381,70.9345
46.41588833612777,776653.2,-24.84018,70.9466
100.0,296696.6,-74.8054,70.9437
215.44346900318823,737109.7,-48.08319,70.9408
464.15888336127773,1197165.0,-143.613,70.9487
1000.0,185639.2,-44.88838,70.9598
2154.4346900318824,168985.1,-63.36488,70.9405
4641.588833612777,78337.67,-65.88598,70.9421
10000.0,48354.54,-81.31301,70.9433
