Frequency,Impedance,Phase Angle,Temperature (Dry Bath)
10.0,4589957.0,-1.949548,70.8596
21.544346900318832,6839415.0,-23.34874,70.8523
46.41588833612777,3769849.0,-33.33697,70.8454
100.0,950893.2,77.81429,70.8549
215.44346900318823,6534629.0,-49.34334,70.8437
464.15888336127773,1465814.0,20.57963,70.8438
1000.0,594665.4,-56.07182,70.8415
2154.4346900318824,209757.8,-87.37873,70.8517
4641.588833612777,112058.5,-73.08868,70.8594
10000.0,54109.62,-89.72538,70.8361
