Frequency,Impedance,Phase Angle,Temperature (Dry Bath)
10.0,6702203.0,-10.62913,71.1014
21.544346900318832,5509260.0,-14.1472,71.0617
46.41588833612777,5802965.0,-21.63205,71.0958
100.0,625980.7,-54.65633,71.0826
215.44346900318823,830698.4,-85.15801,71.0807
464.15888336127773,482547.4,77.31816,71.0908
1000.0,636718.5,-109.976,71.0759
2154.4346900318824,303683.8,-71.52224,71.0955
4641.588833612777,151326.9,-97.06398,71.0836
10000.0,76452.14,-80.0067,71.0822
