Frequency,Impedance,Phase Angle,Temperature (Dry Bath)
10.0,6773351.0,4.949951,71.1352
21.544346900318832,4302394.0,6.641505,71.1371
46.41588833612777,3502157.0,-24.19526,71.1349
100.0,254777.9,-37.86691,71.1312
215.44346900318823,1567485.0,-158.6094,71.1335
464.15888336127773,581110.0,-74.94717,71.1347
1000.0,556707.1,-82.80621,71.1346
2154.4346900318824,191742.6,-80.4731,71.1412
4641.588833612777,144057.6,-97.50684,71.1291
10000.0,68520.41,-89.61472,71.1176
