Frequency,Impedance,Phase Angle,Temperature (Dry Bath)
10.0,7566712.0,21.11764,71.3185
21.544346900318832,3779693.0,-3.621088,71.3108
46.41588833612777,5361323.0,-42.64898,71.32
100.0,552476.2,98.82505,71.3313
215.44346900318823,1824678.0,-40.04605,71.3288
464.15888336127773,812766.5,-25.7767,71.3399
1000.0,607684.8,-57.69033,71.3297
2154.4346900318824,279712.4,-55.00933,71.3325
4641.588833612777,121549.6,-85.97421,71.3318
10000.0,57121.88,-84.85457,71.3276
