Frequency,Impedance,Phase Angle,Temperature (Dry Bath)
10.0,840569.1,-30.29773,71.3401
21.544346900318832,711212.4,-30.58272,71.3481
46.41588833612777,562395.2,-25.26972,71.3307
100.0,295205.0,24.80581,71.3447
215.44346900318823,13215.77,-157.0293,71.3433
464.15888336127773,267646.6,-49.40043,71.3319
1000.0,234893.8,-55.58933,71.3412
2154.4346900318824,201092.9,-54.35276,71.3215
4641.588833612777,99597.48,-67.2227,71.3375
10000.0,59074.79,-74.33501,71.3259
