Frequency,Impedance,Phase Angle,Temperature (Dry Bath)
10.0,10012.44,-25.71248,70.6039
21.544346900318832,8161.099,-22.57481,70.6047
46.41588833612777,6843.514,-19.61704,70.5922
100.0,5910.284,-16.33252,70.59
215.44346900318823,5196.146,-14.5333,70.5907
464.15888336127773,4636.532,-12.50821,70.6013
1000.0,4310.363,-11.31885,70.5923
2154.4346900318824,3901.289,-9.587462,70.6038
4641.588833612777,3647.185,-9.445641,70.6102
10000.0,3457.523,-9.935885,70.602
