Frequency,Impedance,Phase Angle,Temperature (Dry Bath)
10.0,4592152.0,0.8109096,71.3425
21.544346900318832,4935979.0,16.9482,71.3452
46.41588833612777,2243694.0,-32.61614,71.3521
100.0,1076762.0,178.2535,71.3445
215.44346900318823,52894.87,111.9671,71.3515
464.15888336127773,971655.4,-41.44757,71.3415
1000.0,764039.9,-84.99663,71.3583
2154.4346900318824,335678.1,-94.34058,71.3484
4641.588833612777,122013.9,-83.00282,71.3521
10000.0,63537.49,-86.90395,71.3472
