Frequency,Impedance,Phase Angle,Temperature (Dry Bath)
10.0,642525.4,-26.30907,71.2134
21.544346900318832,512720.8,-22.33565,71.2134
46.41588833612777,402375.8,-24.22625,71.2064
100.0,300560.4,1.53452,71.2238
215.44346900318823,360579.5,-20.29195,71.2284
464.15888336127773,296347.2,-33.13542,71.22
1000.0,170361.0,-36.98406,71.199
2154.4346900318824,140772.9,-54.65734,71.2206
4641.588833612777,98685.97,-53.0464,71.2018
10000.0,50249.9,-68.85042,71.2166
