Frequency,Impedance,Phase Angle,Temperature (Dry Bath)
10.0,151182.8,-13.32505,71.0626
21.544346900318832,136872.6,-12.94938,71.052
46.41588833612777,123907.7,-12.19531,71.0826
100.0,72630.24,-10.92305,71.0821
215.44346900318823,95882.56,-15.11314,71.0959
464.15888336127773,84225.01,-6.313838,71.0623
1000.0,89133.64,-21.84981,71.0545
2154.4346900318824,83971.76,-23.5963,71.073
4641.588833612777,62622.03,-35.39114,71.0675
10000.0,45132.92,-49.39315,71.0707
