Frequency,Impedance,Phase Angle,Temperature (Dry Bath)
10.0,6348458.0,5.884514,71.2792
21.544346900318832,4117841.0,-8.238641,71.2848
46.41588833612777,4077777.0,-13.86423,71.296
100.0,475240.2,177.648,71.2887
215.44346900318823,407614.8,-14.9446,71.2887
464.15888336127773,804129.1,-72.60897,71.2956
1000.0,528562.8,-136.752,71.2931
2154.4346900318824,256021.7,-104.114,71.2811
4641.588833612777,104407.6,-75.81618,71.3018
10000.0,63418.71,-87.00428,71.2933
