Frequency,Impedance,Phase Angle,Temperature (Dry Bath)
10.0,524446.7,-26.43687,71.4309
21.544346900318832,422858.9,-26.10499,71.4131
46.41588833612777,340656.0,-24.45994,71.42
100.0,200452.5,-43.42777,71.4165
215.44346900318823,76078.02,20.25992,71.427
464.15888336127773,216204.4,-25.66311,71.4314
1000.0,123286.3,-33.86317,71.4302
2154.4346900318824,134582.2,-27.77658,71.4159
4641.588833612777,85138.79,-44.64529,71.4166
10000.0,52056.22,-64.26726,71.4221
