Frequency,Impedance,Phase Angle,Temperature (Dry Bath)
10.0,103123.8,-12.61748,71.3387
21.544346900318832,99099.57,-9.986711,71.3362
46.41588833612777,93204.2,-8.067227,71.3372
100.0,70403.61,-17.47555,71.3452
215.44346900318823,18882.35,-42.87269,71.341
464.15888336127773,65226.03,-8.282473,71.3436
1000.0,53263.74,-9.395005,71.352
2154.4346900318824,50257.16,-16.32202,71.3422
4641.588833612777,44766.4,-23.51456,71.3452
10000.0,36182.54,-36.52969,71.3446
