Frequency,Impedance,Phase Angle,Temperature (Dry Bath)
10.0,4497382.0,1.949548,70.8355
21.544346900318832,6402133.0,-7.499144,70.849
46.41588833612777,6470310.0,-28.58232,70.8472
100.0,630777.1,25.77072,70.8335
215.44346900318823,1044390.0,-51.12303,70.8482
464.15888336127773,3457685.0,-133.7725,70.8461
1000.0,356548.3,-140.5717,70.8421
2154.4346900318824,231340.9,-98.20019,70.8401
4641.588833612777,138553.9,-84.98626,70.8384
10000.0,65838.29,-89.0357,70.8269
