Frequency,Impedance,Phase Angle,Temperature (Dry Bath)
10.0,3805340.0,-17.90316,71.0606
21.544346900318832,3249956.0,-6.361736,71.0527
46.41588833612777,2526629.0,-32.18286,71.0527
100.0,573231.4,-66.01347,71.0461
215.44346900318823,1069567.0,89.90216,71.0661
464.15888336127773,505052.7,-62.76393,71.0627
1000.0,798315.7,-119.9433,71.0736
2154.4346900318824,330543.3,-79.94781,71.0815
4641.588833612777,115681.0,-88.03615,71.0728
10000.0,63955.31,-80.64209,71.0535
