Frequency,Impedance,Phase Angle,Temperature (Dry Bath)
10.0,4155290.0,9.690303,72.14
21.544346900318832,5210504.0,-19.28193,72.1528
46.41588833612777,4864447.0,7.091529,72.1395
100.0,359799.1,86.54256,72.1416
215.44346900318823,864749.5,92.12967,72.1514
464.15888336127773,648093.2,-137.9102,72.1408
1000.0,529536.8,76.4263,72.1757
2154.4346900318824,1135886.0,-82.20409,72.1566
4641.588833612777,210432.5,-40.0242,72.1508
10000.0,162996.1,-85.08201,72.1495
