Frequency,Impedance,Phase Angle,Temperature (Dry Bath)
10.0,15093.44,-25.41321,71.3725
21.544346900318832,12124.06,-26.33543,71.3459
46.41588833612777,9594.116,-26.60208,71.3497
100.0,7523.196,-26.10879,71.3435
215.44346900318823,6082.967,-24.57088,71.339
464.15888336127773,4969.652,-22.42776,71.352
1000.0,4108.881,-20.13783,71.3495
2154.4346900318824,3538.555,-17.4639,71.3246
4641.588833612777,3094.086,-15.47051,71.3244
10000.0,2730.76,-14.54798,71.2917
