Frequency,Impedance,Phase Angle,Temperature (Dry Bath)
10.0,39388.95,-20.44714,71.2741
21.544346900318832,33602.16,-19.40636,71.2635
46.41588833612777,28774.67,-19.09239,71.2581
100.0,25023.06,-17.43152,71.2475
215.44346900318823,20658.65,-15.77115,71.2667
464.15888336127773,18866.21,-16.04941,71.2687
1000.0,16251.71,-14.61645,71.2676
2154.4346900318824,14396.63,-13.64985,71.2688
4641.588833612777,12904.99,-12.96449,71.2846
10000.0,12247.58,-13.44405,71.2692
