Frequency,Impedance,Phase Angle,Temperature (Dry Bath)
10.0,4263280.0,6.409628,72.0065
21.544346900318832,4712622.0,-10.55401,72.0322
46.41588833612777,4702405.0,-20.28092,72.0172
100.0,346566.0,107.7409,72.0198
215.44346900318823,319409.6,48.13824,72.0069
464.15888336127773,380924.2,22.69207,72.016
1000.0,743636.5,-87.16446,72.0069
2154.4346900318824,635034.6,-91.35647,72.0138
4641.588833612777,205539.4,-117.7827,72.0064
10000.0,245593.9,-66.95922,72.0102
