Frequency,Impedance,Phase Angle,Temperature (Dry Bath)
10.0,7797764.0,11.65254,70.9589
21.544346900318832,6188506.0,34.04574,70.985
46.41588833612777,5557938.0,-8.5888,70.9862
100.0,346052.4,-2.101992,70.9721
215.44346900318823,1210608.0,-99.69561,70.9552
464.15888336127773,664812.3,-49.09121,70.9714
1000.0,549326.2,-86.57905,70.971
2154.4346900318824,382228.0,-89.02492,70.9835
4641.588833612777,122482.4,-90.81056,70.9675
10000.0,66456.02,-87.09594,70.9698
