Frequency,Impedance,Phase Angle,Temperature (Dry Bath)
10.0,4258240.0,1.251338,70.9404
21.544346900318832,4881646.0,-25.12093,70.9205
46.41588833612777,6367823.0,-16.08767,70.9393
100.0,541695.8,87.76957,70.9251
215.44346900318823,533494.2,-5.191276,70.9328
464.15888336127773,516652.5,-85.14759,70.9482
1000.0,388441.9,-42.51372,70.9342
2154.4346900318824,261242.7,-113.8715,70.9409
4641.588833612777,142708.3,-79.29384,70.9266
10000.0,69995.32,-86.03651,70.939
