Frequency,Impedance,Phase Angle,Temperature (Dry Bath)
10.0,12822.34,-28.08779,70.9375
21.544346900318832,10198.26,-25.23957,70.9342
46.41588833612777,8341.973,-22.25294,70.9328
100.0,6985.134,-18.78664,70.9255
215.44346900318823,6078.509,-16.06512,70.9494
464.15888336127773,5414.264,-14.03827,70.9252
1000.0,4802.464,-11.92081,70.9273
2154.4346900318824,4368.078,-11.36504,70.9208
4641.588833612777,4003.91,-11.28722,70.9418
10000.0,3693.33,-12.22883,70.9455
