Frequency,Impedance,Phase Angle,Temperature (Dry Bath)
10.0,408747.3,-24.89436,70.9507
21.544346900318832,348085.9,-22.92769,70.9417
46.41588833612777,292362.1,-20.49754,70.9512
100.0,151023.0,3.417998,70.9424
215.44346900318823,219804.5,-2.832802,70.9501
464.15888336127773,164030.6,-27.67057,70.9546
1000.0,142651.7,-45.30209,70.9526
2154.4346900318824,113850.0,-31.83144,70.9474
4641.588833612777,74414.62,-47.74291,70.9317
10000.0,46562.99,-66.60109,70.9461
