Frequency,Impedance,Phase Angle,Temperature (Dry Bath)
10.0,5855044.0,-12.34131,71.3001
21.544346900318832,4241174.0,-8.079629,71.2733
46.41588833612777,4220031.0,-14.32321,71.29
100.0,842694.0,-55.39343,71.2702
215.44346900318823,730152.5,-17.72828,71.2794
464.15888336127773,1639489.0,-111.0436,71.2646
1000.0,706728.1,22.31098,71.2688
2154.4346900318824,435539.8,-83.91453,71.258
4641.588833612777,364967.7,-69.10914,71.2672
10000.0,129914.7,-81.18139,71.2535
