Frequency,Impedance,Phase Angle,Temperature (Dry Bath)
10.0,5711205.0,-2.684771,70.9458
21.544346900318832,5474419.0,-9.278485,70.9315
46.41588833612777,5596973.0,-5.979362,70.9504
100.0,507974.5,-63.24404,70.9458
215.44346900318823,493459.8,-88.88278,70.9389
464.15888336127773,2976794.0,-169.9534,70.9201
1000.0,214890.2,3.968356,70.9362
2154.4346900318824,182918.4,-87.1519,70.9348
4641.588833612777,132268.3,-66.62812,70.9297
10000.0,64254.13,-91.10287,70.9477
