Frequency,Impedance,Phase Angle,Temperature (Dry Bath)
10.0,49541.35,-13.56095,70.8325
21.544346900318832,45628.37,-11.47132,70.8205
46.41588833612777,42235.68,-10.1888,70.8086
100.0,36158.8,-12.09594,70.8216
215.44346900318823,37215.5,-8.50268,70.831
464.15888336127773,34505.64,-12.34123,70.8031
1000.0,32295.92,-10.51332,70.8217
2154.4346900318824,30568.62,-13.51869,70.8247
4641.588833612777,27568.59,-18.50221,70.8047
10000.0,25010.6,-27.10406,70.8189
