Frequency,Impedance,Phase Angle,Temperature (Dry Bath)
10.0,4851806.0,-21.10564,70.9645
21.544346900318832,4304761.0,-19.96158,70.9701
46.41588833612777,4279360.0,-2.978884,70.9729
100.0,444548.2,6.280567,70.9613
215.44346900318823,1857539.0,-22.6615,70.9526
464.15888336127773,1064403.0,31.50139,70.9658
1000.0,219761.6,-101.5321,70.9694
2154.4346900318824,195616.1,-95.70502,70.9598
4641.588833612777,97027.04,-91.44703,70.9635
10000.0,63151.57,-86.07094,70.9541
