Frequency,Impedance,Phase Angle,Temperature (Dry Bath)
10.0,151125.2,-10.11768,71.2425
21.544346900318832,141668.3,-9.081923,71.2232
46.41588833612777,129615.7,-8.706008,71.2357
100.0,130229.1,-18.41194,71.2243
215.44346900318823,138591.3,-8.307038,71.235
464.15888336127773,109825.5,-14.41369,71.2388
1000.0,91205.75,-14.6819,71.2393
2154.4346900318824,98981.63,-26.0744,71.2444
4641.588833612777,70433.17,-40.41184,71.2221
10000.0,44942.28,-56.95731,71.2302
