Frequency,Impedance,Phase Angle,Temperature (Dry Bath)
10.0,5090111.0,-1.921215,71.4223
21.544346900318832,4159261.0,0.6392661,71.416
46.41588833612777,4009650.0,-4.533835,71.382
100.0,634578.1,-158.3122,71.4111
215.44346900318823,1498777.0,-166.5101,71.4074
464.15888336127773,2460428.0,-91.60961,71.3836
1000.0,401940.6,-74.99132,71.3831
2154.4346900318824,621285.6,-109.3704,71.3805
4641.588833612777,203937.4,-79.69878,71.3868
10000.0,97274.19,-91.26998,71.3621
