Frequency,Impedance,Phase Angle,Temperature (Dry Bath)
10.0,3252987.0,7.88949,70.3579
21.544346900318832,2594377.0,-23.46761,70.3408
46.41588833612777,2657281.0,-22.4891,70.3488
100.0,1243286.0,37.29301,70.3373
215.44346900318823,7018371.0,-162.5314,70.3612
464.15888336127773,2445276.0,130.8586,70.3522
1000.0,242120.8,-96.51843,70.3669
2154.4346900318824,605009.7,12.73544,70.351
4641.588833612777,343794.5,-113.4601,70.3469
10000.0,108393.0,-84.12976,70.3477
