Frequency,Impedance,Phase Angle,Temperature (Dry Bath)
10.0,7129238.0,-5.341555,71.4449
21.544346900318832,3971616.0,-19.56846,71.4371
46.41588833612777,3821731.0,-28.66873,71.4345
100.0,716436.2,35.22236,71.4482
215.44346900318823,1231612.0,-3.500156,71.4539
464.15888336127773,1070434.0,-6.278819,71.4273
1000.0,466124.9,-115.9803,71.449
2154.4346900318824,231486.4,-89.61353,71.4404
4641.588833612777,103217.4,-79.5693,71.4384
10000.0,56929.87,-90.21761,71.446
