Frequency,Impedance,Phase Angle,Temperature (Dry Bath)
10.0,19987.97,-19.93178,71.0055
21.544346900318832,17174.19,-17.55318,71.0229
46.41588833612777,14992.77,-15.551,71.0098
100.0,13560.82,-12.56172,71.0045
215.44346900318823,11860.65,-12.79044,71.0061
464.15888336127773,10745.68,-10.97009,71.0141
1000.0,10090.24,-9.947138,71.0087
2154.4346900318824,9172.321,-9.552999,71.003
4641.588833612777,8624.448,-10.15019,71.0073
10000.0,8059.865,-14.45826,71.0176
