Frequency,Impedance,Phase Angle,Temperature (Dry Bath)
10.0,5129089.0,1.102869,71.0713
21.544346900318832,5221034.0,-32.98183,71.0547
46.41588833612777,4876331.0,-24.27256,71.0574
100.0,833259.2,34.22982,71.0806
215.44346900318823,480409.5,51.92193,71.0757
464.15888336127773,299239.0,145.4707,71.061
1000.0,483347.9,-82.55016,71.0669
2154.4346900318824,308092.2,-76.36849,71.0599
4641.588833612777,116359.6,-95.84167,71.0537
10000.0,69952.57,-85.76067,71.0558
