Frequency,Impedance,Phase Angle,Temperature (Dry Bath)
10.0,4380097.0,-12.96357,71.3821
21.544346900318832,4420333.0,7.490361,71.3879
46.41588833612777,6058964.0,-11.30852,71.3896
100.0,1108318.0,31.21283,71.4063
215.44346900318823,703554.2,-22.8828,71.41
464.15888336127773,876030.7,-17.64536,71.3843
1000.0,1078208.0,-31.49571,71.4091
2154.4346900318824,776696.2,-65.29611,71.4077
4641.588833612777,241366.5,-92.90848,71.3944
10000.0,139734.4,-84.95434,71.399
