Frequency,Impedance,Phase Angle,Temperature (Dry Bath)
10.0,2676702.0,0.6035196,70.9307
21.544346900318832,2992853.0,-9.40475,70.9535
46.41588833612777,2551177.0,-11.73654,70.9554
100.0,1418196.0,50.27765,70.9519
215.44346900318823,3078933.0,-36.9955,70.9428
464.15888336127773,625985.2,-21.34383,70.953
1000.0,456341.4,-57.5589,70.9523
2154.4346900318824,205949.8,-76.01618,70.9604
4641.588833612777,116558.2,-81.56457,70.9455
10000.0,61491.77,-84.73836,70.957
