Frequency,Impedance,Phase Angle,Temperature (Dry Bath)
10.0,2271978.0,-14.38044,70.9549
21.544346900318832,2375877.0,-15.40135,70.9587
46.41588833612777,2086848.0,-29.57994,70.9631
100.0,416014.5,-16.08151,70.9593
215.44346900318823,545581.7,-94.44309,70.9591
464.15888336127773,271685.9,-15.41691,70.9547
1000.0,423359.6,-92.60947,70.941
2154.4346900318824,314363.6,-80.79785,70.9414
4641.588833612777,127902.0,-95.13926,70.9686
10000.0,51181.5,-88.07019,70.9422
