Frequency,Impedance,Phase Angle,Temperature (Dry Bath)
10.0,5204823.0,0.7475357,71.25
21.544346900318832,5667138.0,-10.26469,71.2586
46.41588833612777,5907016.0,-28.66953,71.2583
100.0,270146.0,-43.88235,71.2512
215.44346900318823,282896.8,129.3791,71.2533
464.15888336127773,1053760.0,-95.48405,71.2405
1000.0,429726.6,-113.564,71.2522
2154.4346900318824,282482.8,-92.55691,71.2585
4641.588833612777,207714.2,-83.85931,71.2444
10000.0,62363.02,-92.40626,71.2589
