Frequency,Impedance,Phase Angle,Temperature (Dry Bath)
10.0,4630919.0,9.60465,71.2958
21.544346900318832,7158678.0,-5.546103,71.2887
46.41588833612777,4062511.0,-46.47282,71.2803
100.0,602144.1,-74.70372,71.2868
215.44346900318823,763184.4,47.22892,71.2979
464.15888336127773,634376.5,-85.16598,71.2901
1000.0,653079.1,-66.92514,71.2874
2154.4346900318824,242953.7,-67.66509,71.2943
4641.588833612777,143996.4,-76.59133,71.2821
10000.0,66349.37,-83.39382,71.2867
