Frequency,Impedance,Phase Angle,Temperature (Dry Bath)
10.0,4329798.0,12.67128,71.5285
21.544346900318832,5378709.0,4.708201,71.535
46.41588833612777,5205501.0,-29.94385,71.5278
100.0,2866253.0,-49.62076,71.5329
215.44346900318823,568732.6,-45.8933,71.5457
464.15888336127773,793966.3,54.76669,71.5224
1000.0,772843.6,-52.43659,71.542
2154.4346900318824,628448.1,-96.48764,71.5443
4641.588833612777,218703.0,-89.28297,71.5242
10000.0,166344.8,-89.84916,71.5309
