Frequency,Impedance,Phase Angle,Temperature (Dry Bath)
10.0,9775.211,-26.47032,70.7984
21.544346900318832,7795.921,-25.83137,70.8171
46.41588833612777,6241.819,-24.74347,70.8197
100.0,5044.046,-23.32473,70.8107
215.44346900318823,4184.928,-20.78173,70.8078
464.15888336127773,3571.927,-17.86015,70.7927
1000.0,3071.069,-15.6478,70.8081
2154.4346900318824,2769.518,-12.91287,70.8059
4641.588833612777,2507.809,-11.85753,70.8008
10000.0,2319.042,-12.47151,70.8033
