Frequency,Impedance,Phase Angle,Temperature (Dry Bath)
10.0,6653240.0,-8.859949,71.2958
21.544346900318832,3538453.0,-27.92614,71.3077
46.41588833612777,3384412.0,-40.16197,71.3089
100.0,837394.6,-74.1921,71.3144
215.44346900318823,1500567.0,146.7407,71.3058
464.15888336127773,734371.1,-18.2182,71.3142
1000.0,443624.2,-109.5836,71.3012
2154.4346900318824,150924.5,-84.73099,71.3039
4641.588833612777,76449.02,-86.77126,71.3198
10000.0,34124.23,-81.81422,71.3001
