Frequency,Impedance,Phase Angle,Temperature (Dry Bath)
10.0,3947786.0,10.37711,71.3124
21.544346900318832,3777321.0,20.16398,71.3149
46.41588833612777,5372487.0,-13.26043,71.3294
100.0,258088.0,-69.23475,71.3139
215.44346900318823,22706.75,86.89597,71.3173
464.15888336127773,1142399.0,-95.72378,71.3203
1000.0,841759.1,-62.98801,71.3189
2154.4346900318824,247216.8,-86.89674,71.3172
4641.588833612777,125000.3,-95.51864,71.331
10000.0,58298.81,-88.42492,71.3183
