Frequency,Impedance,Phase Angle,Temperature (Dry Bath)
10.0,17792.27,-20.44859,71.1014
21.544346900318832,15274.49,-17.65153,71.1085
46.41588833612777,13370.42,-15.33904,71.1113
100.0,11754.01,-13.66025,71.1151
215.44346900318823,10770.36,-12.49697,71.1106
464.15888336127773,9730.114,-11.64747,71.1042
1000.0,8916.841,-9.94918,71.1106
2154.4346900318824,8319.476,-9.416666,71.1224
4641.588833612777,7961.445,-10.26789,71.1099
10000.0,7330.979,-12.96128,71.1163
