Frequency,Impedance,Phase Angle,Temperature (Dry Bath)
10.0,6490672.0,16.87276,71.0799
21.544346900318832,7220546.0,15.98543,71.0924
46.41588833612777,3398757.0,-33.73761,71.0888
100.0,381706.2,-89.60529,71.0777
215.44346900318823,2256775.0,-102.2257,71.0905
464.15888336127773,437549.8,-115.0972,71.0809
1000.0,572655.4,-31.5341,71.075
2154.4346900318824,389743.0,-85.52975,71.083
4641.588833612777,152201.1,-84.154,71.0863
10000.0,65489.13,-86.48654,71.0747
