Frequency,Impedance,Phase Angle,Temperature (Dry Bath)
10.0,8581355.0,-19.46894,70.6075
21.544346900318832,8081377.0,-39.07236,70.6127
46.41588833612777,4916043.0,-30.33093,70.6208
100.0,858206.9,-48.8362,70.609
215.44346900318823,1220700.0,-16.89382,70.6092
464.15888336127773,616433.6,-126.354,70.6188
1000.0,803722.5,71.47673,70.627
2154.4346900318824,199889.4,-107.2836,70.618
4641.588833612777,115938.5,-104.5948,70.6192
10000.0,61947.98,-81.16612,70.6204
