Frequency,Impedance,Phase Angle,Temperature (Dry Bath)
10.0,5603192.0,-37.71625,71.0158
21.544346900318832,3567791.0,-1.902471,70.9815
46.41588833612777,6085428.0,-26.03997,71.0039
100.0,512730.8,-0.7434068,70.9947
215.44346900318823,750581.4,162.394,71.0065
464.15888336127773,461316.9,-88.31859,71.0144
1000.0,242862.9,10.43233,70.9968
2154.4346900318824,313647.3,-100.6404,71.0046
4641.588833612777,137118.5,-77.30619,70.996
10000.0,63822.21,-88.97357,70.9994
