Frequency,Impedance,Phase Angle,Temperature (Dry Bath)
10.0,10107680.0,8.982864,71.4451
21.544346900318832,5196522.0,-7.256303,71.4541
46.41588833612777,4242197.0,-35.48422,71.4362
100.0,346665.2,19.74978,71.4488
215.44346900318823,32583.92,2.829397,71.4245
464.15888336127773,1272494.0,-84.12562,71.4314
1000.0,718409.2,-33.88575,71.4153
2154.4346900318824,186149.6,-95.87245,71.4374
4641.588833612777,102531.6,-76.99068,71.4325
10000.0,63337.47,-93.11694,71.4376
