Frequency,Impedance,Phase Angle,Temperature (Dry Bath)
10.0,7599.226,-27.83722,70.8272
21.544346900318832,6165.852,-23.42059,70.8108
46.41588833612777,5186.91,-19.4767,70.8119
100.0,4520.312,-15.91887,70.8212
215.44346900318823,4017.028,-13.46811,70.8029
464.15888336127773,3642.603,-10.80231,70.8176
1000.0,3357.866,-8.884952,70.8196
2154.4346900318824,3185.479,-7.937348,70.8054
4641.588833612777,2995.818,-7.37913,70.8091
10000.0,2865.036,-7.659916,70.8311
