Frequency,Impedance,Phase Angle,Temperature (Dry Bath)
10.0,5502593.0,-1.706958,71.4026
21.544346900318832,5935228.0,-1.565779,71.3901
46.41588833612777,3578228.0,-16.84617,71.3964
100.0,525636.9,-61.36241,71.4138
215.44346900318823,689568.7,3.865311,71.4026
464.15888336127773,699601.6,-55.64854,71.4008
1000.0,374480.3,-119.3796,71.4098
2154.4346900318824,330936.7,-99.55603,71.416
4641.588833612777,131192.6,-79.72752,71.4227
10000.0,66345.79,-95.40291,71.4229
