Frequency,Impedance,Phase Angle,Temperature (Dry Bath)
10.0,80351.78,-14.68993,71.0334
21.544346900318832,71726.67,-12.32152,71.0412
46.41588833612777,65319.32,-11.46523,71.0201
100.0,57763.48,-9.210225,71.0352
215.44346900318823,57820.36,-5.89534,71.0371
464.15888336127773,49367.06,-6.62648,71.0548
1000.0,46690.76,-14.76676,71.0279
2154.4346900318824,44889.88,-14.56836,71.0236
4641.588833612777,42060.34,-23.69278,71.0282
10000.0,32769.16,-42.41122,71.0278
