Frequency,Impedance,Phase Angle,Temperature (Dry Bath)
10.0,9244879.0,-12.62769,71.2261
21.544346900318832,4797145.0,-12.91339,71.2147
46.41588833612777,6531420.0,-32.09026,71.2387
100.0,385823.3,31.6599,71.2378
215.44346900318823,389195.7,-1.328717,71.2329
464.15888336127773,749696.7,-1.848986,71.2205
1000.0,687061.6,-63.13985,71.2193
2154.4346900318824,1388087.0,-53.95641,71.2184
4641.588833612777,293623.7,-76.05543,71.2194
10000.0,116348.0,-98.03017,71.2225
