Frequency,Impedance,Phase Angle,Temperature (Dry Bath)
10.0,4049715.0,2.485709,71.5419
21.544346900318832,4328807.0,-20.19036,71.5361
46.41588833612777,5302990.0,-4.710371,71.5323
100.0,1191561.0,71.74842,71.5416
215.44346900318823,1197189.0,-57.21746,71.5435
464.15888336127773,2213541.0,-40.57176,71.5362
1000.0,1037211.0,-94.43864,71.5457
2154.4346900318824,458246.5,-73.87988,71.5253
4641.588833612777,268980.4,-101.4005,71.5366
10000.0,118666.6,-80.72174,71.5314
