Frequency,Impedance,Phase Angle,Temperature (Dry Bath)
10.0,12681.15,-26.3754,71.3098
21.544346900318832,10229.69,-23.88212,71.3351
46.41588833612777,8432.553,-21.31717,71.3274
100.0,7088.521,-17.37782,71.3173
215.44346900318823,6200.276,-29.0264,71.3061
464.15888336127773,5505.105,-14.14225,71.3136
1000.0,4907.167,-11.98086,71.3202
2154.4346900318824,4536.666,-11.45292,71.3247
4641.588833612777,4151.117,-11.72387,71.3168
10000.0,3806.69,-11.98993,71.3234
