Frequency,Impedance,Phase Angle,Temperature (Dry Bath)
10.0,157650.4,-10.05657,71.3643
21.544346900318832,147466.2,-9.118921,71.3597
46.41588833612777,138460.8,-9.78943,71.3562
100.0,131387.6,4.702313,71.3612
215.44346900318823,14023.36,44.3532,71.3522
464.15888336127773,106135.6,-16.22616,71.3621
1000.0,96225.21,-4.586038,71.363
2154.4346900318824,82903.53,-26.50407,71.3483
4641.588833612777,59930.8,-44.34871,71.3548
10000.0,42129.51,-62.53398,71.3464
