Frequency,Impedance,Phase Angle,Temperature (Dry Bath)
10.0,156703.6,-13.46286,70.952
21.544346900318832,141181.4,-12.11016,70.9445
46.41588833612777,127140.5,-11.62775,70.9509
100.0,126777.1,-18.18031,70.9614
215.44346900318823,122707.1,-20.70615,70.9577
464.15888336127773,110165.1,-18.14226,70.9609
1000.0,84717.76,-21.45526,70.9564
2154.4346900318824,76678.11,-22.80059,70.9647
4641.588833612777,65435.41,-40.31098,70.9508
10000.0,48212.78,-51.6169,70.9651
