Frequency,Impedance,Phase Angle,Temperature (Dry Bath)
10.0,4605050.0,-29.5038,71.3093
21.544346900318832,6858563.0,0.3645155,71.319
46.41588833612777,3630584.0,-19.53541,71.3301
100.0,949715.6,73.04859,71.3181
215.44346900318823,1245210.0,-74.82533,71.311
464.15888336127773,836558.1,-18.73664,71.3061
1000.0,342234.2,-109.2035,71.2991
2154.4346900318824,229636.4,-82.99395,71.327
4641.588833612777,129946.9,-81.99667,71.298
10000.0,59214.13,-88.73807,71.3185
