Frequency,Impedance,Phase Angle,Temperature (Dry Bath)
10.0,9665.645,-25.7202,70.7477
21.544346900318832,7885.893,-22.49787,70.7573
46.41588833612777,6614.905,-19.5558,70.7441
100.0,5736.476,-16.40567,70.7434
215.44346900318823,5036.963,-14.50743,70.7314
464.15888336127773,4531.306,-12.28263,70.758
1000.0,4093.803,-10.51056,70.7407
2154.4346900318824,3792.073,-9.558498,70.7337
4641.588833612777,3555.693,-9.168513,70.7454
10000.0,3384.498,-10.06822,70.7475
