Frequency,Impedance,Phase Angle,Temperature (Dry Bath)
10.0,1074541.0,-33.25319,71.2548
21.544346900318832,848801.9,-26.60863,71.248
46.41588833612777,673044.7,-23.29335,71.2756
100.0,515284.6,-45.55458,71.2738
215.44346900318823,368890.1,-21.12234,71.2724
464.15888336127773,422346.8,-53.63246,71.2754
1000.0,154899.0,-31.22777,71.2398
2154.4346900318824,162906.3,-61.74283,71.2577
4641.588833612777,106379.0,-77.38277,71.2722
10000.0,63630.53,-75.15505,71.2524
