Frequency,Impedance,Phase Angle,Temperature (Dry Bath)
10.0,5463199.0,-11.11628,70.9061
21.544346900318832,5651468.0,-12.44665,70.9144
46.41588833612777,6374836.0,-43.51465,70.9166
100.0,306811.2,-178.1217,70.9046
215.44346900318823,1359909.0,-45.27387,70.8981
464.15888336127773,1185746.0,176.2227,70.8974
1000.0,501740.3,-178.988,70.8919
2154.4346900318824,314828.5,-70.99758,70.8947
4641.588833612777,115406.0,-92.45362,70.904
10000.0,56687.14,-87.11992,70.8918
