Frequency,Impedance,Phase Angle,Temperature (Dry Bath)
10.0,4305105.0,0.7518955,71.4883
21.544346900318832,5997215.0,-16.38881,71.493
46.41588833612777,3996500.0,-15.28913,71.4922
100.0,2784724.0,-83.59316,71.5039
215.44346900318823,632510.2,-122.3356,71.4897
464.15888336127773,784754.3,-11.00968,71.5022
1000.0,468455.0,-45.95788,71.4925
2154.4346900318824,425972.2,-100.9751,71.4989
4641.588833612777,128954.1,-85.44098,71.4968
10000.0,69379.21,-93.8811,71.5049
