Frequency,Impedance,Phase Angle,Temperature (Dry Bath)
10.0,7315750.0,8.657498,32.364
21.544346900318832,4842371.0,10.03945,32.3825
46.41588833612777,4373755.0,-2.89825,32.3763
100.0,1392871.0,-57.22307,32.3769
215.44346900318823,882584.0,53.32377,32.3833
464.15888336127773,1698112.0,-1.276947,32.379
1000.0,1008819.0,-59.37865,32.3831
2154.4346900318824,822864.6,-55.9388,32.3616
4641.588833612777,233456.3,-90.31493,32.3717
10000.0,123157.4,-87.79353,32.3677
