Frequency,Impedance,Phase Angle,Temperature (Dry Bath)
10.0,150617.8,-15.18442,71.0141
21.544346900318832,136225.6,-13.34523,71.0156
46.41588833612777,121699.2,-12.57989,71.0118
100.0,119118.3,-11.92241,71.0225
215.44346900318823,92369.31,-16.90887,71.0262
464.15888336127773,103971.4,-13.74601,71.028
1000.0,82373.33,-14.74688,71.045
2154.4346900318824,76425.13,-16.04658,71.0412
4641.588833612777,64730.57,-27.97258,71.0251
10000.0,64969.5,-36.43352,71.0458
