Frequency,Impedance,Phase Angle,Temperature (Dry Bath)
10.0,6064620.0,-14.53239,71.146
21.544346900318832,4274937.0,-21.2186,71.1467
46.41588833612777,6662372.0,-31.89301,71.1621
100.0,459580.3,34.11101,71.1657
215.44346900318823,624120.3,-94.4908,71.1395
464.15888336127773,636748.6,-99.49303,71.1448
1000.0,506630.8,-62.52932,71.1449
2154.4346900318824,264953.1,-99.22503,71.1625
4641.588833612777,129415.2,-80.18989,71.1665
10000.0,57245.86,-89.43914,71.1558
