Frequency,Impedance,Phase Angle,Temperature (Dry Bath)
10.0,4959478.0,-13.57608,71.3099
21.544346900318832,28314590.0,26.70223,71.3087
46.41588833612777,3765040.0,-10.06729,71.3179
100.0,595245.5,-55.12318,71.3178
215.44346900318823,1289724.0,-92.17086,71.3015
464.15888336127773,9924975.0,-5.510817,71.326
1000.0,616391.5,-31.05197,71.3226
2154.4346900318824,373808.8,-57.88025,71.3295
4641.588833612777,247041.2,-69.94925,71.3133
10000.0,111169.2,-81.08959,71.3305
