Frequency,Impedance,Phase Angle,Temperature (Dry Bath)
10.0,175106.0,-13.2425,71.216
21.544346900318832,159115.5,-12.28604,71.217
46.41588833612777,142938.0,-12.01176,71.2252
100.0,99891.65,-11.07471,71.2279
215.44346900318823,134745.8,-9.923548,71.2109
464.15888336127773,107709.6,-9.53819,71.2191
1000.0,101342.5,-0.6604141,71.2322
2154.4346900318824,76242.33,-23.77347,71.236
4641.588833612777,80458.09,-40.82633,71.2269
10000.0,50097.2,-52.05194,71.2295
