Frequency,Impedance,Phase Angle,Temperature (Dry Bath)
10.0,23624.7,-19.5276,71.1435
21.544346900318832,20306.9,-17.51412,71.1369
46.41588833612777,17694.35,-15.66552,71.1305
100.0,15377.86,-13.66502,71.1529
215.44346900318823,13915.93,-12.64172,71.1417
464.15888336127773,12565.45,-10.92582,71.1497
1000.0,12163.76,-8.869756,71.14
2154.4346900318824,10967.26,-9.729361,71.1443
4641.588833612777,9955.867,-11.67766,71.1413
10000.0,9504.869,-15.42135,71.1405
