Frequency,Impedance,Phase Angle,Temperature (Dry Bath)
10.0,5371216.0,-17.17368,71.1304
21.544346900318832,5980813.0,-27.6502,71.1009
46.41588833612777,7174375.0,-3.274385,71.1251
100.0,588383.8,3.70172,71.1434
215.44346900318823,1242251.0,-33.10174,71.1333
464.15888336127773,257168.9,-71.09605,71.0963
1000.0,850106.5,-75.98158,71.1188
2154.4346900318824,248368.2,-83.47609,71.1164
4641.588833612777,111458.7,-76.73205,71.1216
10000.0,72043.01,-83.42028,71.0948
