Frequency,Impedance,Phase Angle,Temperature (Dry Bath)
10.0,12952.2,-21.06755,70.9177
21.544346900318832,11103.58,-17.68728,70.9201
46.41588833612777,9746.454,-15.16943,70.9112
100.0,8702.327,-12.86318,70.918
215.44346900318823,7833.292,-11.25896,70.9252
464.15888336127773,7260.075,-9.937172,70.9333
1000.0,6733.111,-10.63072,70.9277
2154.4346900318824,6123.735,-8.24975,70.9233
4641.588833612777,5862.962,-9.427623,70.9239
10000.0,5674.519,-10.93434,70.931
