Frequency,Impedance,Phase Angle,Temperature (Dry Bath)
10.0,1922042.0,-20.39273,71.0254
21.544346900318832,2096327.0,-20.17172,71.0198
46.41588833612777,1932015.0,-11.20706,71.0314
100.0,353192.2,-76.61169,71.0284
215.44346900318823,837784.8,-73.17466,71.0476
464.15888336127773,505876.4,-37.69198,71.0347
1000.0,606820.8,-26.92998,71.0192
2154.4346900318824,200249.1,-78.39864,71.0309
4641.588833612777,129065.8,-82.47969,71.0321
10000.0,58148.95,-84.64882,71.0228
