Frequency,Impedance,Phase Angle,Temperature (Dry Bath)
10.0,5311358.0,-19.84193,71.3029
21.544346900318832,6315061.0,1.050965,71.3056
46.41588833612777,7735974.0,-16.48082,71.3261
100.0,487667.3,-14.0772,71.3142
215.44346900318823,2075261.0,37.44187,71.3042
464.15888336127773,1823771.0,-69.13875,71.3123
1000.0,966853.2,-108.7419,71.3153
2154.4346900318824,469401.8,-92.23856,71.3134
4641.588833612777,111552.8,-80.35842,71.3147
10000.0,71625.4,-92.00124,71.3126
