Frequency,Impedance,Phase Angle,Temperature (Dry Bath)
10.0,4689226.0,-0.7130028,71.1708
21.544346900318832,5132346.0,-10.97255,71.1556
46.41588833612777,6325439.0,-37.61955,71.1745
100.0,1358374.0,-14.60843,71.1764
215.44346900318823,1179409.0,19.98555,71.2069
464.15888336127773,1132692.0,-48.18147,71.1805
1000.0,2156173.0,124.5641,71.173
2154.4346900318824,296896.3,-72.85003,71.1665
4641.588833612777,137352.3,-96.1972,71.1822
10000.0,71266.38,-90.10241,71.1704
