Frequency,Impedance,Phase Angle,Temperature (Dry Bath)
10.0,5761472.0,-18.59728,71.2602
21.544346900318832,4681043.0,-12.49888,71.2721
46.41588833612777,7215899.0,-20.19325,71.249
100.0,264910.9,-25.21075,71.2791
215.44346900318823,1525278.0,-32.8415,71.262
464.15888336127773,1386890.0,64.52606,71.2791
1000.0,951580.5,-76.85901,71.2621
2154.4346900318824,1991199.0,-86.32688,71.261
4641.588833612777,337940.0,-66.55059,71.2747
10000.0,155056.4,-80.96402,71.2808
