Frequency,Impedance,Phase Angle,Temperature (Dry Bath)
10.0,5020070.0,-11.4153,71.3927
21.544346900318832,6284857.0,10.98787,71.3958
46.41588833612777,4677034.0,-68.37809,71.412
100.0,770965.3,-89.31193,71.398
215.44346900318823,69026.04,67.46344,71.3973
464.15888336127773,961598.4,-116.2754,71.3953
1000.0,592422.9,-102.1703,71.3931
2154.4346900318824,682429.2,-93.71079,71.3991
4641.588833612777,103825.4,-75.89903,71.382
10000.0,68220.04,-89.78092,71.3669
