Frequency,Impedance,Phase Angle,Temperature (Dry Bath)
10.0,5221588.0,7.404408,70.5957
21.544346900318832,5301711.0,-15.36787,70.6059
46.41588833612777,5174442.0,-46.24258,70.5945
100.0,614512.0,-114.088,70.5991
215.44346900318823,780713.3,76.36851,70.6152
464.15888336127773,1136069.0,-174.6527,70.6104
1000.0,377209.8,29.24008,70.6057
2154.4346900318824,184050.8,-98.06701,70.6066
4641.588833612777,133087.1,-88.99875,70.5952
10000.0,62466.6,-84.18393,70.5988
