Frequency,Impedance,Phase Angle,Temperature (Dry Bath)
10.0,345035.4,-11.10557,71.3007
21.544346900318832,313145.8,-11.54415,71.3116
46.41588833612777,288428.7,-11.49029,71.3033
100.0,160004.4,-14.4472,71.3089
215.44346900318823,6734.185,6.34898,71.3097
464.15888336127773,7331.028,-8.786553,71.2921
1000.0,6763.688,-8.324804,71.3043
2154.4346900318824,6459.184,-7.980082,71.302
4641.588833612777,6038.39,-8.965431,71.3031
10000.0,53459.86,-63.29926,71.3173
