Frequency,Impedance,Phase Angle,Temperature (Dry Bath)
10.0,5147193.0,-0.8062649,71.0617
21.544346900318832,3781463.0,-1.61501,71.0691
46.41588833612777,5058338.0,-30.68254,71.0718
100.0,286789.9,-8.1174,71.0759
215.44346900318823,1179283.0,-106.5254,71.0665
464.15888336127773,693313.9,-55.62751,71.0687
1000.0,637414.7,-50.19891,71.064
2154.4346900318824,395635.3,-72.24886,71.0702
4641.588833612777,150990.8,-84.34098,71.0705
10000.0,59391.63,-84.85681,71.0718
