Frequency,Impedance,Phase Angle,Temperature (Dry Bath)
10.0,70380.82,-30.58252,71.3812
21.544346900318832,54478.23,-28.48166,71.3932
46.41588833612777,43163.05,-26.47439,71.3778
100.0,33159.49,-22.13866,71.3794
215.44346900318823,29580.91,-20.26417,71.3891
464.15888336127773,24593.61,-18.8596,71.3701
1000.0,21547.55,-16.90293,71.3846
2154.4346900318824,19344.62,-14.63326,71.3714
4641.588833612777,16444.14,-14.92347,71.3775
10000.0,14945.78,-17.12505,71.3533
