Frequency,Impedance,Phase Angle,Temperature (Dry Bath)
10.0,42742.11,-14.86182,71.4338
21.544346900318832,38620.34,-13.22922,71.4332
46.41588833612777,35330.75,-11.86256,71.4357
100.0,36146.75,-3.221414,71.4189
215.44346900318823,30096.68,-14.56692,71.4316
464.15888336127773,27125.85,-7.258092,71.4399
1000.0,25401.87,-11.75409,71.4168
2154.4346900318824,22194.21,-9.788418,71.4251
4641.588833612777,22228.06,-13.33451,71.4377
10000.0,19078.05,-22.87979,71.4337
