Frequency,Impedance,Phase Angle,Temperature (Dry Bath)
10.0,4501231.0,-27.99876,70.7531
21.544346900318832,4578426.0,3.928761,70.7452
46.41588833612777,4723098.0,-22.19756,70.7412
100.0,1240868.0,137.849,70.7303
215.44346900318823,2306610.0,-102.7199,70.7392
464.15888336127773,692246.3,-37.20525,70.7362
1000.0,153983.9,-63.79101,70.7365
2154.4346900318824,379379.5,-97.06613,70.7517
4641.588833612777,149359.9,-77.81013,70.7434
10000.0,73342.43,-93.67191,70.7498
