Frequency,Impedance,Phase Angle,Temperature (Dry Bath)
10.0,7397278.0,-18.57462,29.905
21.544346900318832,5262523.0,-13.56836,29.8764
46.41588833612777,5029116.0,-11.95471,29.799
100.0,457964.2,36.17592,29.9664
215.44346900318823,1102791.0,2.032091,29.9863
464.15888336127773,755588.5,-24.73109,30.0236
1000.0,527581.0,-131.6087,29.0791
2154.4346900318824,709307.6,-59.77393,29.284
4641.588833612777,283343.6,-97.98837,29.5907
10000.0,150056.1,-86.54883,29.6961
