Frequency,Impedance,Phase Angle,Temperature (Dry Bath)
10.0,16466240.0,-33.67219,71.3857
21.544346900318832,10121890.0,-30.27972,71.3748
46.41588833612777,5071890.0,-47.06618,71.3731
100.0,1350176.0,-109.742,71.3902
215.44346900318823,336611.7,-67.37454,71.3864
464.15888336127773,1085494.0,-86.48749,71.392
1000.0,484486.3,-68.37918,71.3713
2154.4346900318824,390152.4,-78.55864,71.3751
4641.588833612777,137090.1,-100.8206,71.3614
10000.0,62440.63,-88.32717,71.3617
