Frequency,Impedance,Phase Angle,Temperature (Dry Bath)
10.0,5886.471,-30.34103,70.7837
21.544346900318832,4672.395,-24.8028,70.788
46.41588833612777,3914.564,-19.7937,70.7791
100.0,3404.221,-15.75661,70.7716
215.44346900318823,3058.098,-12.76135,70.7791
464.15888336127773,2790.575,-10.74299,70.7843
1000.0,2575.215,-9.163693,70.7868
2154.4346900318824,2424.301,-7.631722,70.787
4641.588833612777,2294.664,-6.433416,70.7916
10000.0,2204.141,-6.977434,70.8106
