Frequency,Impedance,Phase Angle,Temperature (Dry Bath)
10.0,12441.64,-26.98481,71.3747
21.544346900318832,9997.853,-24.42979,71.3784
46.41588833612777,8222.139,-21.72623,71.3759
100.0,6976.358,-19.40853,71.3806
215.44346900318823,6016.251,-16.62326,71.3718
464.15888336127773,5279.655,-14.7785,71.394
1000.0,4693.425,-12.70057,71.3748
2154.4346900318824,4276.347,-11.95366,71.378
4641.588833612777,3927.663,-11.726,71.3873
10000.0,3602.454,-12.41739,71.3806
