Frequency,Impedance,Phase Angle,Temperature (Dry Bath)
10.0,20709.47,-22.21249,29.2054
21.544346900318832,17040.92,-23.94736,28.5364
46.41588833612777,13704.77,-25.19466,28.6259
100.0,11049.12,-26.48591,28.6223
215.44346900318823,8823.98,-25.22173,28.543
464.15888336127773,7007.411,-24.4507,28.6356
1000.0,5739.664,-24.55858,28.7359
2154.4346900318824,4693.796,-21.24317,28.6919
4641.588833612777,3910.329,-19.76481,28.7498
10000.0,3358.487,-18.19252,28.7095
