Frequency,Impedance,Phase Angle,Temperature (Dry Bath)
10.0,14839.21,-19.3969,70.9695
21.544346900318832,12780.37,-16.69207,70.9733
46.41588833612777,11274.21,-14.51453,70.9538
100.0,10157.76,-11.51634,70.9545
215.44346900318823,9193.007,-11.56419,70.9575
464.15888336127773,8509.116,-10.5703,70.9621
1000.0,7958.111,-9.441591,70.9675
2154.4346900318824,7318.957,-9.7657,70.9568
4641.588833612777,6807.063,-9.841564,70.9647
10000.0,6321.369,-12.76136,70.9557
