Frequency,Impedance,Phase Angle,Temperature (Dry Bath)
10.0,3908188.0,-2.090121,72.2503
21.544346900318832,5679818.0,-5.148828,72.2413
46.41588833612777,4749669.0,-11.44948,72.2268
100.0,1483970.0,-89.50856,72.2483
215.44346900318823,446924.2,-161.1723,72.2355
464.15888336127773,339162.5,-37.62587,72.2382
1000.0,431006.7,-53.60298,72.2371
2154.4346900318824,1237109.0,31.90213,72.2539
4641.588833612777,337165.9,-78.25421,72.2419
10000.0,147504.0,-85.66461,72.2406
