Frequency,Impedance,Phase Angle,Temperature (Dry Bath)
10.0,3464091.0,-24.68984,71.3276
21.544346900318832,4613442.0,-3.098315,71.3373
46.41588833612777,5326738.0,-17.05256,71.3391
100.0,660096.2,-17.27845,71.3307
215.44346900318823,788902.1,142.1119,71.3145
464.15888336127773,1167918.0,-164.3183,71.3271
1000.0,844647.2,-42.06492,71.3232
2154.4346900318824,631326.2,-114.271,71.3119
4641.588833612777,248872.1,-61.74251,71.3135
10000.0,122798.7,-73.37172,71.3289
