Frequency,Impedance,Phase Angle,Temperature (Dry Bath)
10.0,6688366.0,-10.42062,71.4823
21.544346900318832,6803817.0,-36.36254,71.5052
46.41588833612777,6789774.0,17.72835,71.5046
100.0,539590.4,-119.0023,71.5
215.44346900318823,2076722.0,34.03257,71.5099
464.15888336127773,744274.7,-72.41182,71.5103
1000.0,1479039.0,-77.7379,71.5167
2154.4346900318824,397324.9,-69.41332,71.4887
4641.588833612777,218791.3,-94.91841,71.4943
10000.0,108029.4,-86.46735,71.5015
