Frequency,Impedance,Phase Angle,Temperature (Dry Bath)
10.0,7515531.0,4.309814,70.5494
21.544346900318832,5258382.0,16.59273,70.5364
46.41588833612777,5246140.0,-9.846922,70.5481
100.0,292051.6,40.3311,70.521
215.44346900318823,390882.1,-154.078,70.5211
464.15888336127773,675048.6,-35.33447,70.5332
1000.0,497877.4,-151.7846,70.5302
2154.4346900318824,198349.4,-89.56137,70.5227
4641.588833612777,146717.1,-95.79984,70.5067
10000.0,57039.71,-93.75202,70.5123
