Frequency,Impedance,Phase Angle,Temperature (Dry Bath)
10.0,5959970.0,-9.999043,71.2893
21.544346900318832,3549830.0,-14.63463,71.2774
46.41588833612777,5271390.0,-25.2665,71.2833
100.0,1319801.0,13.50071,71.2716
215.44346900318823,901596.4,-94.03716,71.2817
464.15888336127773,1638936.0,-96.49603,71.2783
1000.0,342783.7,-58.97881,71.2549
2154.4346900318824,371731.7,-78.76116,71.2649
4641.588833612777,181073.6,-81.83914,71.2593
10000.0,126876.0,-83.41272,71.2538
