Frequency,Impedance,Phase Angle,Temperature (Dry Bath)
10.0,18620.32,-23.12576,32.356
21.544346900318832,15160.31,-24.6392,32.3956
46.41588833612777,12131.47,-25.76794,32.3817
100.0,9696.921,-25.97244,32.3913
215.44346900318823,7635.205,-25.30267,32.3835
464.15888336127773,6190.585,-23.42501,32.3796
1000.0,5060.008,-21.65141,32.3784
2154.4346900318824,4223.485,-19.70512,32.3956
4641.588833612777,3618.899,-17.88981,32.3703
10000.0,3146.965,-17.20982,32.3741
