Frequency,Impedance,Phase Angle,Temperature (Dry Bath)
10.0,12423.06,-26.98988,71.241
21.544346900318832,9987.498,-24.37455,71.2516
46.41588833612777,8220.53,-21.66525,71.2575
100.0,6887.548,-19.06854,71.2471
215.44346900318823,6054.682,-16.46989,71.2357
464.15888336127773,5343.054,-14.64219,71.2384
1000.0,4699.569,-13.35303,71.2499
2154.4346900318824,4267.114,-11.74759,71.2343
4641.588833612777,3932.76,-11.66077,71.2267
10000.0,3623.428,-12.2167,71.2414
