Frequency,Impedance,Phase Angle,Temperature (Dry Bath)
10.0,4338751.0,-10.39066,70.7018
21.544346900318832,6577095.0,17.72722,70.7055
46.41588833612777,4350795.0,-52.46054,70.6963
100.0,730634.9,6.295771,70.697
215.44346900318823,1326414.0,-101.4308,70.6998
464.15888336127773,536417.0,-32.94188,70.7068
1000.0,254938.9,-45.83477,70.7009
2154.4346900318824,279565.5,-99.18471,70.7077
4641.588833612777,112609.0,-67.23901,70.6947
10000.0,57851.28,-84.84391,70.6986
