Frequency,Impedance,Phase Angle,Temperature (Dry Bath)
10.0,7622.763,-28.43407,70.8733
21.544346900318832,5990.149,-27.04854,70.8578
46.41588833612777,4772.873,-25.1052,70.8606
100.0,3855.323,-22.88306,70.8602
215.44346900318823,3244.5,-19.81073,70.8378
464.15888336127773,2784.685,-16.82213,70.8433
1000.0,2445.978,-14.30274,70.8498
2154.4346900318824,2188.936,-12.29077,70.8415
4641.588833612777,2007.199,-10.96235,70.8324
10000.0,1858.095,-10.50342,70.8457
