Frequency,Impedance,Phase Angle,Temperature (Dry Bath)
10.0,6188606.0,0.6069341,71.5094
21.544346900318832,6941833.0,-3.010606,71.5017
46.41588833612777,8090120.0,-12.10938,71.5069
100.0,1283203.0,7.457325,71.508
215.44346900318823,821523.1,-97.80321,71.5088
464.15888336127773,1265671.0,104.8354,71.5119
1000.0,694288.0,-76.18332,71.5138
2154.4346900318824,483282.9,-75.36056,71.5195
4641.588833612777,283194.0,-86.13723,71.516
10000.0,129324.3,-70.95741,71.514
