Frequency,Impedance,Phase Angle,Temperature (Dry Bath)
10.0,314292.5,-15.82289,71.241
21.544346900318832,276469.3,-16.02327,71.2367
46.41588833612777,246759.5,-15.78998,71.2632
100.0,196868.7,-38.01887,71.2726
215.44346900318823,195401.1,-3.985253,71.2494
464.15888336127773,134285.0,-10.12224,71.2635
1000.0,150535.4,-21.31791,71.24
2154.4346900318824,122384.3,-36.43339,71.2539
4641.588833612777,89588.13,-46.80963,71.2479
10000.0,60015.05,-70.406,71.2546
