Frequency,Impedance,Phase Angle,Temperature (Dry Bath)
10.0,4882227.0,7.722386,71.3991
21.544346900318832,4945442.0,-15.52111,71.4004
46.41588833612777,4315123.0,-5.652372,71.4005
100.0,916448.2,-12.65488,71.3836
215.44346900318823,447580.6,4.226062,71.3882
464.15888336127773,9202731.0,-13.63144,71.3623
1000.0,627739.4,-42.66356,71.3876
2154.4346900318824,605763.7,13.08258,71.3896
4641.588833612777,312418.5,-76.83475,71.372
10000.0,105746.8,-81.71284,71.3679
