Frequency,Impedance,Phase Angle,Temperature (Dry Bath)
10.0,1290190.0,-24.13876,70.8848
21.544346900318832,1135403.0,-29.74798,70.8957
46.41588833612777,954460.6,-24.52726,70.8854
100.0,1222134.0,-12.97277,70.8622
215.44346900318823,344809.4,-20.93854,70.8942
464.15888336127773,551973.0,-62.36685,70.8921
1000.0,514107.4,-104.3291,70.8821
2154.4346900318824,199791.5,-62.47112,70.8966
4641.588833612777,75943.2,-68.85071,70.8789
10000.0,44677.39,-77.67959,70.8844
