Frequency,Impedance,Phase Angle,Temperature (Dry Bath)
10.0,12792.13,-27.40875,71.1871
21.544346900318832,10237.77,-24.7871,71.1858
46.41588833612777,8400.111,-21.99746,71.1892
100.0,6998.002,-18.28611,71.1909
215.44346900318823,6092.027,-17.19299,71.1958
464.15888336127773,5395.707,-14.78194,71.1887
1000.0,4771.013,-12.90876,71.1869
2154.4346900318824,4314.99,-12.18866,71.2097
4641.588833612777,3930.088,-11.46443,71.1889
10000.0,3645.256,-12.6657,71.1729
