Frequency,Impedance,Phase Angle,Temperature (Dry Bath)
10.0,24524.81,-20.81438,71.2095
21.544346900318832,20773.49,-18.15967,71.2331
46.41588833612777,18016.59,-15.64953,71.2152
100.0,15937.53,-13.13289,71.2179
215.44346900318823,14438.02,-13.5149,71.2201
464.15888336127773,13150.24,-10.69519,71.2253
1000.0,12586.27,-8.227945,71.2318
2154.4346900318824,11689.94,-9.426741,71.2215
4641.588833612777,10886.53,-9.943597,71.2224
10000.0,10247.76,-15.54052,71.2208
