Frequency,Impedance,Phase Angle,Temperature (Dry Bath)
10.0,8703817.0,-23.6929,71.2948
21.544346900318832,4446406.0,-1.433217,71.2894
46.41588833612777,6001370.0,0.2588579,71.2999
100.0,2715514.0,-8.762336,71.3122
215.44346900318823,896977.9,-21.40047,71.302
464.15888336127773,2176137.0,-38.38633,71.3028
1000.0,2163919.0,-144.7563,71.2947
2154.4346900318824,387531.2,-70.41258,71.2667
4641.588833612777,288693.4,-113.1573,71.2989
10000.0,102837.0,-81.33364,71.3098
