Frequency,Impedance,Phase Angle,Temperature (Dry Bath)
10.0,3837337.0,-6.822039,71.4036
21.544346900318832,5701788.0,-0.246076,71.4238
46.41588833612777,4132705.0,-23.15402,71.4156
100.0,683939.0,-164.7271,71.4027
215.44346900318823,2538994.0,134.7807,71.401
464.15888336127773,1459423.0,65.9024,71.4174
1000.0,1159961.0,-53.48354,71.4138
2154.4346900318824,752003.3,-134.9214,71.3992
4641.588833612777,204268.4,-75.0856,71.4016
10000.0,121036.8,-81.91469,71.417
