Frequency,Impedance,Phase Angle,Temperature (Dry Bath)
10.0,80800.97,-36.60037,71.1751
21.544346900318832,60169.6,-33.00077,71.193
46.41588833612777,46269.37,-28.8314,71.2031
100.0,37122.95,-26.23924,71.2242
215.44346900318823,28566.91,-25.90912,71.1957
464.15888336127773,25750.13,-18.4104,71.2054
1000.0,22776.34,-14.05347,71.2196
2154.4346900318824,20434.78,-17.94661,71.1986
4641.588833612777,17981.43,-24.04946,71.1969
10000.0,14749.16,-31.36528,71.204
