Frequency,Impedance,Phase Angle,Temperature (Dry Bath)
10.0,6252843.0,-11.11879,70.8276
21.544346900318832,5704645.0,-7.503797,70.8389
46.41588833612777,4883861.0,-17.00779,70.8287
100.0,415436.6,-148.3069,70.822
215.44346900318823,957051.2,-14.49589,70.8268
464.15888336127773,597318.9,-93.9412,70.8346
1000.0,429622.7,-47.89661,70.8381
2154.4346900318824,237671.6,-78.99928,70.8157
4641.588833612777,109647.0,-71.54516,70.8127
10000.0,59479.37,-83.82373,70.8324
