Frequency,Impedance,Phase Angle,Temperature (Dry Bath)
10.0,5031268.0,-3.001286,71.3418
21.544346900318832,5003739.0,-10.83203,71.3507
46.41588833612777,4409000.0,-29.06947,71.3149
100.0,874413.6,50.67144,71.3391
215.44346900318823,421949.5,-91.08481,71.349
464.15888336127773,426937.2,-70.32602,71.3521
1000.0,746236.4,174.1607,71.3313
2154.4346900318824,392804.0,-82.31479,71.3505
4641.588833612777,163901.7,-74.04986,71.3567
10000.0,111075.6,-84.49473,71.3611
