Frequency,Impedance,Phase Angle,Temperature (Dry Bath)
10.0,14362.68,-19.73456,71.0923
21.544346900318832,12357.25,-17.01317,71.0875
46.41588833612777,10887.75,-14.91425,71.1056
100.0,9584.058,-14.06197,71.0862
215.44346900318823,8816.27,-11.38092,71.0801
464.15888336127773,8053.474,-10.38743,71.0954
1000.0,7468.808,-9.991095,71.0873
2154.4346900318824,6938.391,-9.114188,71.0903
4641.588833612777,6434.202,-10.71531,71.0673
10000.0,6059.067,-12.39774,71.0797
