Frequency,Impedance,Phase Angle,Temperature (Dry Bath)
10.0,10094.08,-25.74228,70.6053
21.544346900318832,8231.415,-22.64938,70.6084
46.41588833612777,6890.931,-19.69753,70.6072
100.0,5878.584,-18.20597,70.6032
215.44346900318823,5237.594,-14.62521,70.595
464.15888336127773,4675.602,-12.59182,70.61
1000.0,4329.77,-12.15668,70.6126
2154.4346900318824,3907.738,-9.635824,70.6063
4641.588833612777,3682.856,-9.392704,70.6178
10000.0,3437.812,-10.24392,70.6342
