Frequency,Impedance,Phase Angle,Temperature (Dry Bath)
10.0,4582934.0,22.85107,71.2748
21.544346900318832,6456149.0,-22.84344,71.2738
46.41588833612777,6089973.0,-25.71866,71.2699
100.0,497525.0,24.48265,71.2761
215.44346900318823,526092.9,-70.46237,71.2708
464.15888336127773,1015567.0,-170.6165,71.2714
1000.0,543905.4,-111.4129,71.28
2154.4346900318824,1665823.0,-105.5058,71.2926
4641.588833612777,267369.3,-84.98359,71.2823
10000.0,127224.2,-88.29027,71.2931
