Frequency,Impedance,Phase Angle,Temperature (Dry Bath)
10.0,5597937.0,-13.66911,71.6973
21.544346900318832,3974610.0,-7.370066,71.6999
46.41588833612777,5176381.0,-9.816364,71.7078
100.0,416025.6,-82.8782,71.7031
215.44346900318823,537443.2,-111.877,71.702
464.15888336127773,2951348.0,177.5331,71.6989
1000.0,665675.1,61.76123,71.6978
2154.4346900318824,1384287.0,-175.4958,71.706
4641.588833612777,203624.8,-83.31899,71.7017
10000.0,117435.7,-89.82976,71.6989
