Frequency,Impedance,Phase Angle,Temperature (Dry Bath)
10.0,527141.7,-19.6175,71.3456
21.544346900318832,482099.7,-15.44822,71.335
46.41588833612777,394169.2,-15.84186,71.3519
100.0,700495.1,4.05707,71.3419
215.44346900318823,5906.904,162.0276,71.3506
464.15888336127773,283442.0,-0.8400463,71.3382
1000.0,215269.3,-13.72765,71.33
2154.4346900318824,157732.3,-41.30413,71.3413
4641.588833612777,94371.28,-61.57926,71.3208
10000.0,53281.33,-72.69124,71.3417
