Frequency,Impedance,Phase Angle,Temperature (Dry Bath)
10.0,44021.94,-14.81314,70.7864
21.544346900318832,39936.87,-12.92458,70.8144
46.41588833612777,36302.84,-12.03052,70.7892
100.0,36478.09,-12.44908,70.7938
215.44346900318823,29554.8,-10.57674,70.7952
464.15888336127773,28198.96,-9.186034,70.7866
1000.0,26083.3,-9.021151,70.78
2154.4346900318824,24745.13,-14.42204,70.7886
4641.588833612777,22274.79,-19.9624,70.8001
10000.0,20446.23,-23.59563,70.8041
