Frequency,Impedance,Phase Angle,Temperature (Dry Bath)
10.0,269106.6,-13.48683,70.9682
21.544346900318832,231183.8,-14.54798,70.972
46.41588833612777,202309.7,-15.92886,70.9787
100.0,145381.4,-5.91143,70.977
215.44346900318823,179815.2,6.154292,70.9732
464.15888336127773,125956.4,-25.78762,70.9539
1000.0,96105.77,-29.81982,70.9757
2154.4346900318824,106450.2,-19.43994,70.9561
4641.588833612777,65356.78,-19.00131,70.9712
10000.0,90912.66,-45.0772,70.9631
