Frequency,Impedance,Phase Angle,Temperature (Dry Bath)
10.0,4004163.0,-17.47038,70.9681
21.544346900318832,7947106.0,-22.00386,70.9612
46.41588833612777,5791448.0,-28.28431,70.9544
100.0,319505.9,-38.20713,70.9719
215.44346900318823,680477.0,7.559933,70.9793
464.15888336127773,780750.2,-7.146027,70.9668
1000.0,687783.5,-45.2012,70.9859
2154.4346900318824,435648.8,-100.3966,70.9517
4641.588833612777,121031.7,-102.4754,70.9763
10000.0,72271.6,-89.00654,70.9725
