Frequency,Impedance,Phase Angle,Temperature (Dry Bath)
10.0,3834615.0,-19.2681,71.4454
21.544346900318832,4847092.0,-37.35636,71.4484
46.41588833612777,5438717.0,-38.40434,71.4595
100.0,1490851.0,111.2934,71.462
215.44346900318823,1112904.0,115.7168,71.4502
464.15888336127773,382080.7,-90.92897,71.462
1000.0,308181.6,-86.86518,71.449
2154.4346900318824,191611.3,-97.50506,71.4489
4641.588833612777,122950.7,-84.73879,71.4533
10000.0,66849.25,-89.06245,71.4608
