Frequency,Impedance,Phase Angle,Temperature (Dry Bath)
10.0,4597868.0,-24.67049,70.6224
21.544346900318832,4822755.0,-18.58812,70.6085
46.41588833612777,3730992.0,-16.89319,70.6075
100.0,532196.1,4.579838,70.602
215.44346900318823,462588.2,153.6931,70.605
464.15888336127773,397867.8,-35.38968,70.5993
1000.0,768116.5,127.5386,70.6068
2154.4346900318824,201949.2,-78.7395,70.6079
4641.588833612777,141324.0,-77.6294,70.6069
10000.0,56061.34,-86.67023,70.6064
