Frequency,Impedance,Phase Angle,Temperature (Dry Bath)
10.0,4835215.0,-11.6358,71.3767
21.544346900318832,4396098.0,-12.7918,71.3584
46.41588833612777,4766130.0,-18.26663,71.3772
100.0,1391340.0,-28.47475,71.3734
215.44346900318823,2844975.0,-43.21256,71.367
464.15888336127773,725035.5,-10.78738,71.3632
1000.0,1626562.0,-78.02084,71.3791
2154.4346900318824,691388.9,-71.96663,71.3723
4641.588833612777,225924.0,-68.81201,71.3791
10000.0,193239.8,-75.27649,71.3818
