Frequency,Impedance,Phase Angle,Temperature (Dry Bath)
10.0,582775.0,-5.787375,71.4781
21.544346900318832,576873.7,-2.637031,71.4578
46.41588833612777,578281.7,-6.436445,71.4757
100.0,264458.5,-13.32404,71.4814
215.44346900318823,782268.8,46.9202,71.4665
464.15888336127773,587847.4,-45.70617,71.4858
1000.0,527408.0,-40.65986,71.4819
2154.4346900318824,353841.3,-47.50087,71.4735
4641.588833612777,186682.9,-78.31611,71.468
10000.0,113668.5,-71.59965,71.4634
