Frequency,Impedance,Phase Angle,Temperature (Dry Bath)
10.0,13127.46,-28.36368,71.0805
21.544346900318832,10412.19,-25.62216,71.0706
46.41588833612777,8482.804,-22.6751,71.0868
100.0,7085.601,-19.4399,71.0711
215.44346900318823,6164.259,-17.06216,71.0879
464.15888336127773,5414.395,-14.88732,71.0886
1000.0,4792.205,-13.30455,71.0765
2154.4346900318824,4369.402,-12.5823,71.0876
4641.588833612777,4008.909,-11.91809,71.0908
10000.0,3631.45,-13.20577,71.0835
