Frequency,Impedance,Phase Angle,Temperature (Dry Bath)
10.0,5595867.0,18.78718,71.3964
21.544346900318832,5650057.0,-16.48103,71.3826
46.41588833612777,5974795.0,-25.11124,71.3897
100.0,521742.4,-179.6222,71.3752
215.44346900318823,37886.89,-100.4368,71.386
464.15888336127773,1053680.0,-81.96109,71.3803
1000.0,264716.2,-124.6516,71.3788
2154.4346900318824,302733.6,-79.67234,71.3715
4641.588833612777,163002.0,-88.64927,71.3793
10000.0,63791.19,-83.86968,71.3763
