Frequency,Impedance,Phase Angle,Temperature (Dry Bath)
10.0,6756863.0,-12.9513,71.3718
21.544346900318832,4647973.0,-51.91389,71.365
46.41588833612777,3219503.0,-26.36576,71.3931
100.0,598717.4,-45.56813,71.3794
215.44346900318823,11734.01,13.89508,71.3727
464.15888336127773,425630.2,-44.38206,71.3739
1000.0,289003.2,-56.08275,71.3699
2154.4346900318824,412013.1,-102.2514,71.378
4641.588833612777,125078.1,-89.48085,71.372
10000.0,66858.63,-74.77045,71.359
