Frequency,Impedance,Phase Angle,Temperature (Dry Bath)
10.0,10015490.0,-16.15498,70.9491
21.544346900318832,4942545.0,-13.85863,70.9543
46.41588833612777,4153934.0,-26.26191,70.9427
100.0,528923.6,79.47531,70.9537
215.44346900318823,3142828.0,44.45581,70.9464
464.15888336127773,277055.5,-62.67893,70.9242
1000.0,353670.8,-60.70691,70.9416
2154.4346900318824,261961.6,-52.30221,70.9632
4641.588833612777,101776.4,-84.64537,70.9352
10000.0,50637.81,-82.85046,70.93
