Frequency,Impedance,Phase Angle,Temperature (Dry Bath)
10.0,721852.7,-10.59939,71.3041
21.544346900318832,727649.2,-14.66193,71.2852
46.41588833612777,618414.9,-11.5122,71.3054
100.0,327672.5,68.55826,71.2876
215.44346900318823,60044.12,-27.03902,71.2817
464.15888336127773,347041.7,-63.05464,71.2961
1000.0,960905.4,-12.67944,71.2969
2154.4346900318824,301722.4,-68.33155,71.3015
4641.588833612777,103503.1,-72.91773,71.3006
10000.0,60433.56,-82.33662,71.2994
