Frequency,Impedance,Phase Angle,Temperature (Dry Bath)
10.0,3952598.0,6.754912,71.5401
21.544346900318832,7147537.0,-6.360777,71.5397
46.41588833612777,4854027.0,-15.55739,71.5507
100.0,639353.2,29.29393,71.5341
215.44346900318823,572746.0,-83.17641,71.5344
464.15888336127773,1803515.0,129.0552,71.5396
1000.0,745020.6,-123.3242,71.5354
2154.4346900318824,502157.1,-84.46601,71.5384
4641.588833612777,488196.3,-73.15964,71.5368
10000.0,110607.8,-83.21534,71.5523
