Frequency,Impedance,Phase Angle,Temperature (Dry Bath)
10.0,380757.2,-6.613304,71.491
21.544346900318832,367165.9,-3.877839,71.5069
46.41588833612777,343921.0,-5.069069,71.4958
100.0,1270081.0,0.5464046,71.5022
215.44346900318823,354361.7,0.5241299,71.4994
464.15888336127773,204285.9,-6.434598,71.4987
1000.0,349551.4,-16.55126,71.5073
2154.4346900318824,261268.0,-47.45084,71.5014
4641.588833612777,135774.4,-57.5561,71.5142
10000.0,108585.1,-77.61818,71.4884
