Frequency,Impedance,Phase Angle,Temperature (Dry Bath)
10.0,164293.9,-9.836655,71.3947
21.544346900318832,152697.3,-8.583193,71.3814
46.41588833612777,145215.4,-5.648904,71.3944
100.0,170406.6,-22.83189,71.3933
215.44346900318823,32408.86,158.9558,71.3851
464.15888336127773,114799.9,-6.710934,71.3829
1000.0,113108.1,-10.94081,71.3852
2154.4346900318824,110960.8,-25.02407,71.4081
4641.588833612777,80875.48,-40.5383,71.3855
10000.0,43117.79,-62.87284,71.402
