Frequency,Impedance,Phase Angle,Temperature (Dry Bath)
10.0,7451505.0,-37.176,71.1617
21.544346900318832,12036580.0,17.37231,71.1688
46.41588833612777,5349677.0,-29.27136,71.1396
100.0,341274.4,5.291491,71.125
215.44346900318823,1408329.0,-39.42852,71.1554
464.15888336127773,564359.2,-79.30834,71.1447
1000.0,497306.1,-104.4801,71.1581
2154.4346900318824,258426.9,-73.49153,71.1602
4641.588833612777,154740.9,-95.68473,71.1596
10000.0,70716.47,-88.31928,71.1597
