Frequency,Impedance,Phase Angle,Temperature (Dry Bath)
10.0,176998.6,-13.1959,71.3132
21.544346900318832,159508.4,-10.24461,71.3265
46.41588833612777,148590.6,-11.61566,71.3177
100.0,107877.1,-24.41196,71.3229
215.44346900318823,162615.4,13.12405,71.312
464.15888336127773,100070.3,-10.60381,71.3146
1000.0,105650.5,-18.34748,71.3164
2154.4346900318824,86842.06,-25.28483,71.3186
4641.588833612777,79484.43,-38.39713,71.3183
10000.0,56163.76,-56.48122,71.3153
