Frequency,Impedance,Phase Angle,Temperature (Dry Bath)
10.0,163682.4,-9.050468,71.2911
21.544346900318832,153462.7,-9.510247,71.2914
46.41588833612777,142608.7,-9.307308,71.2813
100.0,122775.9,1.035217,71.2931
215.44346900318823,139103.6,-16.71874,71.2795
464.15888336127773,124025.1,-18.82954,71.2815
1000.0,104137.3,-23.05206,71.285
2154.4346900318824,90420.36,-29.77146,71.2838
4641.588833612777,70578.78,-50.95514,71.2972
10000.0,41824.21,-59.52764,71.2794
