Frequency,Impedance,Phase Angle,Temperature (Dry Bath)
10.0,4023213.0,-10.7068,70.9464
21.544346900318832,3718460.0,-8.982532,70.9529
46.41588833612777,4754772.0,-23.70633,70.9432
100.0,455449.2,99.70747,70.9562
215.44346900318823,742910.2,27.89899,70.951
464.15888336127773,684013.0,-174.9269,70.9536
1000.0,328825.4,-54.28815,70.9596
2154.4346900318824,173833.8,-71.9672,70.9589
4641.588833612777,157012.5,-88.05403,70.9701
10000.0,57192.92,-92.73127,70.94
