Frequency,Impedance,Phase Angle,Temperature (Dry Bath)
10.0,4293619.0,2.975901,71.0014
21.544346900318832,4556166.0,-13.33561,70.9764
46.41588833612777,4055781.0,-30.8219,70.9928
100.0,421844.5,62.68762,70.9934
215.44346900318823,475390.6,-17.75816,70.9892
464.15888336127773,696998.4,-114.5575,70.9883
1000.0,307732.8,-67.20978,70.9877
2154.4346900318824,431618.9,-87.94141,71.0057
4641.588833612777,124547.2,-94.8762,70.9908
10000.0,59929.46,-86.84666,70.9912
