Frequency,Impedance,Phase Angle,Temperature (Dry Bath)
10.0,4579100.0,19.57974,71.1447
21.544346900318832,6841434.0,15.49256,71.1423
46.41588833612777,6023255.0,-5.962658,71.1329
100.0,1177597.0,10.33168,71.1411
215.44346900318823,464677.5,-50.47957,71.118
464.15888336127773,1014066.0,-151.8091,71.1404
1000.0,395529.6,168.1427,71.1326
2154.4346900318824,695651.7,-43.73103,71.1209
4641.588833612777,626367.2,-121.4082,71.1412
10000.0,255978.8,-126.6512,71.122
