Frequency,Impedance,Phase Angle,Temperature (Dry Bath)
10.0,636333.7,-13.27121,71.1476
21.544346900318832,612678.3,-10.94099,71.1473
46.41588833612777,563374.7,-13.10131,71.1626
100.0,298159.0,-5.908161,71.1623
215.44346900318823,289566.9,-30.22425,71.1496
464.15888336127773,445811.0,-23.11855,71.1338
1000.0,439404.9,-100.4875,71.166
2154.4346900318824,186306.8,-53.63785,71.1599
4641.588833612777,156304.4,-46.64115,71.1717
10000.0,161911.4,-42.05792,71.1867
