Frequency,Impedance,Phase Angle,Temperature (Dry Bath)
10.0,5969634.0,-24.93713,71.0709
21.544346900318832,3505212.0,-7.805872,71.0668
46.41588833612777,3832474.0,-22.90677,71.0975
100.0,652103.0,-128.0386,71.0805
215.44346900318823,1078027.0,-49.93658,71.0889
464.15888336127773,1178437.0,4.981769,71.0807
1000.0,467549.3,-102.2403,71.0879
2154.4346900318824,258315.6,-94.18481,71.0745
4641.588833612777,113816.1,-86.27149,71.1012
10000.0,57117.99,-80.7905,71.0903
