Frequency,Impedance,Phase Angle,Temperature (Dry Bath)
10.0,6295535.0,8.632438,71.3303
21.544346900318832,5665122.0,11.86748,71.3223
46.41588833612777,3562060.0,-29.90477,71.3184
100.0,1370071.0,153.4011,71.3223
215.44346900318823,2227290.0,58.16051,71.3161
464.15888336127773,487192.6,-168.8756,71.3242
1000.0,320170.7,-59.79421,71.3176
2154.4346900318824,321492.4,-101.5709,71.3314
4641.588833612777,121698.9,-86.53741,71.3147
10000.0,64906.91,-79.11173,71.314
