Frequency,Impedance,Phase Angle,Temperature (Dry Bath)
10.0,673338.1,-1.144451,71.3781
21.544346900318832,604254.0,-4.202862,71.3655
46.41588833612777,617545.0,-4.658222,71.3829
100.0,455675.0,-21.08553,71.3731
215.44346900318823,872596.5,7.167336,71.3622
464.15888336127773,491918.3,-21.7788,71.3829
1000.0,436342.8,-20.74857,71.3743
2154.4346900318824,283625.6,-56.66624,71.3778
4641.588833612777,190733.8,-68.04264,71.3745
10000.0,78773.99,-68.74421,71.3811
