Frequency,Impedance,Phase Angle,Temperature (Dry Bath)
10.0,1136189.0,-8.406217,71.6529
21.544346900318832,1009970.0,-4.724958,71.6456
46.41588833612777,1039885.0,-8.968634,71.6695
100.0,268663.3,14.17967,71.6397
215.44346900318823,390664.8,11.12427,71.6459
464.15888336127773,462365.5,-122.0923,71.6467
1000.0,886055.1,57.34,71.6441
2154.4346900318824,388558.7,-77.64576,71.642
4641.588833612777,210390.6,-65.78444,71.6382
10000.0,103755.9,-66.40601,71.6323
