Frequency,Impedance,Phase Angle,Temperature (Dry Bath)
10.0,3717226.0,-3.200261,71.1314
21.544346900318832,3793453.0,-25.31823,71.1203
46.41588833612777,4264433.0,-38.43755,71.1229
100.0,768943.2,-68.53983,71.0981
215.44346900318823,539352.5,-76.76435,71.1157
464.15888336127773,213895.6,-80.67476,71.1194
1000.0,502795.9,-47.56781,71.113
2154.4346900318824,263128.3,-109.9055,71.103
4641.588833612777,113096.2,-85.14116,71.1076
10000.0,60398.01,-84.74009,71.1044
