Frequency,Impedance,Phase Angle,Temperature (Dry Bath)
10.0,5116530.0,-8.664741,71.5397
21.544346900318832,3500093.0,-3.699015,71.5304
46.41588833612777,7166520.0,-13.59601,71.5281
100.0,860130.6,110.4201,71.5298
215.44346900318823,635704.1,-17.12311,71.5213
464.15888336127773,437211.9,-53.57877,71.5235
1000.0,477174.5,-50.88324,71.5299
2154.4346900318824,681196.3,-56.09541,71.5427
4641.588833612777,220715.5,-102.9509,71.5211
10000.0,116894.4,-82.81385,71.5283
