Frequency,Impedance,Phase Angle,Temperature (Dry Bath)
10.0,82641.98,-20.09449,71.3982
21.544346900318832,70182.06,-19.75581,71.3877
46.41588833612777,59433.03,-19.60963,71.4022
100.0,49697.8,-17.69075,71.3969
215.44346900318823,43941.07,-13.89563,71.3916
464.15888336127773,37425.2,-18.41453,71.3769
1000.0,32789.94,-16.04471,71.3663
2154.4346900318824,29127.72,-14.78796,71.3919
4641.588833612777,25203.56,-15.95139,71.3684
10000.0,23087.64,-19.06199,71.3771
