Frequency,Impedance,Phase Angle,Temperature (Dry Bath)
10.0,320987.7,-8.374302,71.4244
21.544346900318832,301459.0,-11.04368,71.4153
46.41588833612777,276158.3,-9.655244,71.4155
100.0,338872.7,-0.04777436,71.4162
215.44346900318823,219372.7,-15.35673,71.442
464.15888336127773,183087.1,-0.02158161,71.4266
1000.0,239519.4,-28.39385,71.4467
2154.4346900318824,136628.8,-32.98384,71.4431
4641.588833612777,97717.7,-69.4312,71.4195
10000.0,60499.23,-71.47153,71.4287
