Frequency,Impedance,Phase Angle,Temperature (Dry Bath)
10.0,4365380.0,-25.65369,71.3263
21.544346900318832,3887026.0,-14.75042,71.2965
46.41588833612777,4765203.0,-20.07292,71.3046
100.0,776230.4,107.0582,71.2925
215.44346900318823,650312.6,34.06673,71.303
464.15888336127773,913807.4,-87.71556,71.2923
1000.0,595697.7,-40.44084,71.3001
2154.4346900318824,227127.6,-79.76652,71.3093
4641.588833612777,147119.3,-71.75127,71.309
10000.0,63049.73,-91.04455,71.3088
