Frequency,Impedance,Phase Angle,Temperature (Dry Bath)
10.0,3277412.0,-2.489783,71.2901
21.544346900318832,5327235.0,-15.09803,71.2698
46.41588833612777,4879059.0,9.156439,71.2707
100.0,326382.0,-20.21289,71.2563
215.44346900318823,816396.0,-65.97988,71.2618
464.15888336127773,360611.8,-66.9324,71.2681
1000.0,155500.8,-100.4094,71.2574
2154.4346900318824,243473.5,-2.681568,71.2484
4641.588833612777,188814.3,-49.67819,71.2556
10000.0,113377.1,-67.41651,71.2548
