Frequency,Impedance,Phase Angle,Temperature (Dry Bath)
10.0,14727.81,-18.22687,71.1791
21.544346900318832,12827.19,-17.03764,71.1733
46.41588833612777,11220.59,-16.58049,71.1748
100.0,9380.864,-16.76337,71.1782
215.44346900318823,8642.083,-15.1533,71.1643
464.15888336127773,7607.085,-13.17323,71.1728
1000.0,6946.148,-12.72092,71.1574
2154.4346900318824,6351.021,-10.84084,71.1555
4641.588833612777,5847.015,-10.42266,71.155
10000.0,5447.111,-11.04438,71.1598
