Frequency,Impedance,Phase Angle,Temperature (Dry Bath)
10.0,4523176.0,11.61977,70.6343
21.544346900318832,5900743.0,-31.49256,70.6364
46.41588833612777,4294286.0,-17.5113,70.6241
100.0,446759.6,70.92245,70.6291
215.44346900318823,1038463.0,-61.87547,70.6369
464.15888336127773,702907.8,-15.82009,70.6453
1000.0,1177856.0,-79.99311,70.6298
2154.4346900318824,360431.9,-98.94785,70.6375
4641.588833612777,136948.8,-83.91606,70.6407
10000.0,70510.72,-88.46836,70.6301
