Frequency,Impedance,Phase Angle,Temperature (Dry Bath)
10.0,4978220.0,-32.28023,71.1889
21.544346900318832,4124278.0,-27.65265,71.2016
46.41588833612777,3635547.0,-36.36378,71.177
100.0,984636.9,168.1372,71.1842
215.44346900318823,714232.4,-86.03555,71.2182
464.15888336127773,1066127.0,-68.16744,71.1869
1000.0,437846.0,-107.5498,71.19
2154.4346900318824,197041.9,-72.76835,71.1942
4641.588833612777,114888.7,-90.71649,71.1965
10000.0,55639.9,-81.50583,71.2009
