Frequency,Impedance,Phase Angle,Temperature (Dry Bath)
10.0,597358.6,1.827377,71.2828
21.544346900318832,530458.6,-2.513926,71.2735
46.41588833612777,561216.5,-3.385581,71.2722
100.0,347423.8,-24.09622,71.2959
215.44346900318823,419465.8,-41.86377,71.2651
464.15888336127773,2428345.0,-74.63067,71.2766
1000.0,556700.2,-48.17234,71.2765
2154.4346900318824,310197.6,-55.43681,71.269
4641.588833612777,176466.9,-61.89733,71.2764
10000.0,113265.6,-60.49783,71.2661
