Frequency,Impedance,Phase Angle,Temperature (Dry Bath)
10.0,3993172.0,-1.138986,71.0752
21.544346900318832,7197846.0,-45.24825,71.0467
46.41588833612777,4555533.0,-14.35204,71.0657
100.0,564552.2,16.01191,71.0636
215.44346900318823,720407.0,-42.89016,71.0745
464.15888336127773,2977768.0,120.0076,71.0567
1000.0,723943.7,-32.3121,71.0937
2154.4346900318824,883922.7,-123.4339,71.0694
4641.588833612777,325280.4,-84.10196,71.0641
10000.0,176876.7,-83.41799,71.0627
