Frequency,Impedance,Phase Angle,Temperature (Dry Bath)
10.0,8995648.0,9.511831,71.4361
21.544346900318832,4098037.0,-33.70842,71.4398
46.41588833612777,4457605.0,6.370816,71.4402
100.0,1048824.0,-177.7903,71.4486
215.44346900318823,1671742.0,118.0828,71.4446
464.15888336127773,373731.8,-40.4568,71.4373
1000.0,431074.2,-31.80975,71.4491
2154.4346900318824,452347.2,-66.37557,71.4403
4641.588833612777,179797.3,-95.1931,71.4522
10000.0,109987.8,-89.43586,71.4499
