Frequency,Impedance,Phase Angle,Temperature (Dry Bath)
10.0,19400.62,-22.48127,71.5104
21.544346900318832,16071.63,-21.48071,71.5042
46.41588833612777,13405.8,-20.31,71.5264
100.0,11410.32,-17.79005,71.5396
215.44346900318823,9834.553,-17.18859,71.5324
464.15888336127773,8697.832,-13.93405,71.5425
1000.0,7778.548,-11.78026,71.5435
2154.4346900318824,7115.457,-10.1514,71.5165
4641.588833612777,6662.097,-9.091744,71.5313
10000.0,6202.749,-10.67014,71.5127
