Frequency,Impedance,Phase Angle,Temperature (Dry Bath)
10.0,3408722.0,-8.632785,71.1754
21.544346900318832,4227157.0,-10.49924,71.161
46.41588833612777,3354717.0,-17.43367,71.1705
100.0,4002988.0,71.42015,71.1627
215.44346900318823,2520812.0,-9.040364,71.1805
464.15888336127773,465466.4,-54.94283,71.1718
1000.0,1804149.0,43.18489,71.1654
2154.4346900318824,567029.2,-75.83799,71.1628
4641.588833612777,251659.5,-101.6133,71.1728
10000.0,98262.59,-92.34673,71.1626
