Frequency,Impedance,Phase Angle,Temperature (Dry Bath)
10.0,5189378.0,12.33661,71.296
21.544346900318832,4094237.0,-23.70169,71.2991
46.41588833612777,4961626.0,-26.52088,71.2912
100.0,2942297.0,108.6673,71.3021
215.44346900318823,1999156.0,44.27352,71.3075
464.15888336127773,706092.2,172.5662,71.2931
1000.0,1267021.0,-81.74084,71.2994
2154.4346900318824,378766.8,-68.21215,71.2963
4641.588833612777,136789.0,-75.86902,71.3052
10000.0,61188.55,-87.23604,71.2903
