Frequency,Impedance,Phase Angle,Temperature (Dry Bath)
10.0,2183281.0,-7.975848,71.7632
21.544346900318832,1996860.0,-0.8160618,71.7808
46.41588833612777,1863190.0,-14.10345,71.7564
100.0,533714.2,67.19132,71.7871
215.44346900318823,348568.1,168.8902,71.7508
464.15888336127773,1299015.0,104.1056,71.7524
1000.0,928872.7,-7.460393,71.7492
2154.4346900318824,318581.4,-94.41333,71.7759
4641.588833612777,228690.6,-62.41896,71.7527
10000.0,108896.5,-112.9874,71.7564
