Frequency,Impedance,Phase Angle,Temperature (Dry Bath)
10.0,6998564.0,-14.15165,71.69
21.544346900318832,5890867.0,-27.89917,71.6752
46.41588833612777,5142760.0,16.42033,71.6875
100.0,321032.0,136.4821,71.6816
215.44346900318823,674631.0,126.9304,71.6762
464.15888336127773,14721030.0,-41.88382,71.6786
1000.0,696146.1,51.65322,71.6763
2154.4346900318824,1219177.0,-73.58577,71.6876
4641.588833612777,257966.8,-109.7809,71.6649
10000.0,118140.1,-106.2219,71.6705
