Frequency,Impedance,Phase Angle,Temperature (Dry Bath)
10.0,913423.4,-4.36169,71.2342
21.544346900318832,863436.3,-11.33037,71.2259
46.41588833612777,841525.0,-4.42634,71.241
100.0,1830116.0,-113.7746,71.2188
215.44346900318823,1858501.0,112.7065,71.2243
464.15888336127773,719863.7,-26.05355,71.2131
1000.0,574471.0,-32.00873,71.2188
2154.4346900318824,213077.9,-37.12494,71.2219
4641.588833612777,262831.7,-40.55431,71.2176
10000.0,97734.93,-57.12314,71.2299
