Frequency,Impedance,Phase Angle,Temperature (Dry Bath)
10.0,12560080.0,-10.68582,70.8623
21.544346900318832,4025218.0,-12.74948,70.8325
46.41588833612777,4473640.0,-26.98687,70.8299
100.0,4094273.0,-0.8575959,70.8237
215.44346900318823,4560387.0,-34.86006,70.8368
464.15888336127773,1137273.0,-62.46032,70.8314
1000.0,685797.1,21.78882,70.83
2154.4346900318824,308081.3,-86.68875,70.8219
4641.588833612777,97444.88,-99.42533,70.8496
10000.0,49488.54,-83.4827,70.8401
