Frequency,Impedance,Phase Angle,Temperature (Dry Bath)
10.0,3713837.0,-12.58588,71.1806
21.544346900318832,6560353.0,-5.710826,71.1713
46.41588833612777,3864592.0,-4.419114,71.1948
100.0,603017.0,-85.05552,71.175
215.44346900318823,536081.9,-30.60594,71.1843
464.15888336127773,1185057.0,-68.28945,71.1939
1000.0,648414.8,-71.20841,71.1936
2154.4346900318824,301431.8,-77.80853,71.1868
4641.588833612777,124195.5,-85.00451,71.184
10000.0,67813.84,-86.74797,71.1949
