Frequency,Impedance,Phase Angle,Temperature (Dry Bath)
10.0,19570.13,-29.23008,70.6915
21.544346900318832,15451.84,-27.05745,70.6948
46.41588833612777,12403.3,-24.67099,70.7067
100.0,10031.73,-21.55587,70.6995
215.44346900318823,8555.578,-19.86501,70.6885
464.15888336127773,7429.885,-17.50027,70.6869
1000.0,6541.315,-14.16084,70.6959
2154.4346900318824,5964.942,-11.37702,70.6883
4641.588833612777,5512.077,-11.54106,70.6964
10000.0,5128.56,-12.78508,70.7007
