Frequency,Impedance,Phase Angle,Temperature (Dry Bath)
10.0,10560.24,-22.19962,70.873
21.544346900318832,8967.145,-18.9579,70.8894
46.41588833612777,7781.815,-16.67017,70.8757
100.0,6862.319,-15.85002,70.8798
215.44346900318823,6153.48,-12.66843,70.8916
464.15888336127773,5605.952,-11.9862,70.8788
1000.0,5089.329,-10.36251,70.8697
2154.4346900318824,4693.914,-9.691798,70.8733
4641.588833612777,4411.972,-9.649962,70.8821
10000.0,4135.379,-10.54109,70.889
