Frequency,Impedance,Phase Angle,Temperature (Dry Bath)
10.0,6423374.0,-3.140626,28.7327
21.544346900318832,5619201.0,-4.542297,28.7482
46.41588833612777,5558208.0,-30.74735,28.8251
100.0,3892280.0,-99.53387,28.7829
215.44346900318823,1014111.0,-146.3546,28.7303
464.15888336127773,2539509.0,15.79155,28.8393
1000.0,535246.4,-19.7663,28.5528
2154.4346900318824,722868.6,-53.122,28.5014
4641.588833612777,221536.2,-71.31092,28.8252
10000.0,154074.0,-75.74377,28.829
