Frequency,Impedance,Phase Angle,Temperature (Dry Bath)
10.0,41688.3,-30.41323,71.1436
21.544346900318832,32312.39,-28.91403,71.137
46.41588833612777,25274.64,-27.27441,71.149
100.0,19701.72,-22.11663,71.1431
215.44346900318823,16150.32,-21.73313,71.1288
464.15888336127773,13608.58,-20.36752,71.1442
1000.0,11615.68,-17.29786,71.1508
2154.4346900318824,10383.41,-16.58722,71.1246
4641.588833612777,9202.611,-15.57908,71.1372
10000.0,8292.077,-17.47025,71.1328
