Frequency,Impedance,Phase Angle,Temperature (Dry Bath)
10.0,3718260.0,-10.43886,70.6461
21.544346900318832,4479409.0,-12.97539,70.6582
46.41588833612777,4847570.0,-21.63861,70.6551
100.0,401032.1,-40.40431,70.6559
215.44346900318823,536204.1,-59.24993,70.6601
464.15888336127773,544114.5,-129.2046,70.6579
1000.0,1896289.0,-115.4337,70.659
2154.4346900318824,243907.2,-109.3242,70.6552
4641.588833612777,129921.9,-87.20093,70.656
10000.0,60582.3,-84.14396,70.6631
