Frequency,Impedance,Phase Angle,Temperature (Dry Bath)
10.0,23650.51,-21.07395,71.3022
21.544346900318832,20009.0,-18.35886,71.2897
46.41588833612777,17387.92,-15.23225,71.2987
100.0,15545.97,-11.25461,71.2883
215.44346900318823,9072.937,-24.93039,71.3104
464.15888336127773,13054.09,-8.940755,71.3005
1000.0,11983.21,-7.711049,71.3093
2154.4346900318824,11492.54,-8.509664,71.3094
4641.588833612777,10841.11,-10.06246,71.3014
10000.0,10232.8,-15.24885,71.2953
