Frequency,Impedance,Phase Angle,Temperature (Dry Bath)
10.0,12009150.0,-2.174145,71.4629
21.544346900318832,3786614.0,10.15178,71.4619
46.41588833612777,5173900.0,-7.740144,71.4557
100.0,2934687.0,14.71091,71.4402
215.44346900318823,1082413.0,142.0571,71.4494
464.15888336127773,983287.7,-53.82429,71.4448
1000.0,2215661.0,-136.1109,71.4488
2154.4346900318824,473551.6,-57.01139,71.4509
4641.588833612777,232641.7,-68.20013,71.443
10000.0,151252.6,-85.28573,71.4607
