Frequency,Impedance,Phase Angle,Temperature (Dry Bath)
10.0,54797.58,-19.15775,70.9263
21.544346900318832,47622.58,-17.6207,70.9207
46.41588833612777,41544.98,-15.85093,70.917
100.0,33351.77,-20.14985,70.9146
215.44346900318823,33237.75,-15.85669,70.886
464.15888336127773,32366.43,-9.505888,70.9011
1000.0,26782.78,-13.87002,70.9165
2154.4346900318824,25059.52,-12.87932,70.905
4641.588833612777,23359.65,-18.28696,70.9013
10000.0,20172.23,-26.87756,70.924
