Frequency,Impedance,Phase Angle,Temperature (Dry Bath)
10.0,4080287.0,-5.941655,71.1073
21.544346900318832,4073506.0,-33.17792,71.1066
46.41588833612777,2285924.0,-34.67097,71.1059
100.0,331672.5,-4.787884,71.1048
215.44346900318823,2358798.0,34.69396,71.1071
464.15888336127773,1609614.0,-66.56192,71.1127
1000.0,360957.8,-91.45828,71.1003
2154.4346900318824,331687.5,-55.48709,71.1029
4641.588833612777,137355.5,-86.61272,71.0912
10000.0,63766.91,-88.37309,71.1015
