Frequency,Impedance,Phase Angle,Temperature (Dry Bath)
10.0,161503.4,-16.83894,71.0723
21.544346900318832,143123.1,-14.41094,71.0712
46.41588833612777,128337.9,-13.50086,71.0681
100.0,148808.8,-1.979012,71.0609
215.44346900318823,99894.05,-8.930248,71.0657
464.15888336127773,94035.55,-11.98289,71.0465
1000.0,69224.4,-13.28356,71.0588
2154.4346900318824,78431.92,-20.45833,71.0449
4641.588833612777,60530.52,-24.68081,71.0404
10000.0,58576.34,-40.06129,71.0473
