Frequency,Impedance,Phase Angle,Temperature (Dry Bath)
10.0,6399124.0,-28.67969,71.2098
21.544346900318832,5038285.0,-13.18443,71.1888
46.41588833612777,3478841.0,-6.757121,71.2065
100.0,2667755.0,-164.7575,71.1933
215.44346900318823,1264713.0,-128.5058,71.1916
464.15888336127773,990157.3,-77.89622,71.1803
1000.0,436260.1,-77.16572,71.1882
2154.4346900318824,394338.0,-73.35391,71.1864
4641.588833612777,138566.8,-76.90242,71.187
10000.0,69471.31,-81.80717,71.1984
