Frequency,Impedance,Phase Angle,Temperature (Dry Bath)
10.0,4562459.0,-15.54185,71.47
21.544346900318832,5248347.0,12.79966,71.4801
46.41588833612777,3485854.0,-36.30676,71.48
100.0,609867.8,-82.66288,71.4781
215.44346900318823,914993.9,-93.89033,71.4876
464.15888336127773,2125972.0,-73.71914,71.483
1000.0,279352.5,-117.7214,71.4758
2154.4346900318824,544631.4,-91.3596,71.4873
4641.588833612777,119139.0,-97.54818,71.4832
10000.0,58619.07,-86.87823,71.4849
