Frequency,Impedance,Phase Angle,Temperature (Dry Bath)
10.0,23248.45,-23.87902,71.1965
21.544346900318832,19020.11,-23.51078,71.2085
46.41588833612777,15600.35,-23.16837,71.2019
100.0,12859.82,-22.61778,71.2044
215.44346900318823,10745.9,-21.91872,71.2198
464.15888336127773,9051.402,-20.87685,71.2041
1000.0,7673.566,-20.92851,71.2
2154.4346900318824,6357.039,-20.54758,71.1898
4641.588833612777,5396.321,-19.96558,71.2041
10000.0,4626.828,-18.73798,71.2086
