Frequency,Impedance,Phase Angle,Temperature (Dry Bath)
10.0,109709.9,-13.49459,71.3776
21.544346900318832,97939.34,-12.31744,71.3778
46.41588833612777,88167.35,-11.39071,71.3789
100.0,80713.52,-9.200039,71.3926
215.44346900318823,40154.78,-40.37447,71.3733
464.15888336127773,69541.18,-10.58861,71.3538
1000.0,69931.22,-11.93108,71.3604
2154.4346900318824,62374.29,-26.35672,71.3743
4641.588833612777,50494.07,-29.45773,71.366
10000.0,38293.55,-37.87041,71.3701
