Frequency,Impedance,Phase Angle,Temperature (Dry Bath)
10.0,4858348.0,14.17388,70.9667
21.544346900318832,4841492.0,-11.92106,70.9698
46.41588833612777,4029653.0,-6.695872,70.9531
100.0,1724364.0,-22.45626,70.964
215.44346900318823,2126009.0,-107.1345,70.9514
464.15888336127773,607214.0,-78.96834,70.9682
1000.0,651081.7,-86.67707,70.9631
2154.4346900318824,470714.1,-92.55579,70.9518
4641.588833612777,121598.8,-82.37823,70.9628
10000.0,68562.77,-82.69354,70.9636
