Frequency,Impedance,Phase Angle,Temperature (Dry Bath)
10.0,3951694.0,-3.803244,71.3006
21.544346900318832,7185194.0,5.169097,71.3022
46.41588833612777,8903454.0,48.46576,71.294
100.0,729722.6,-31.76448,71.2798
215.44346900318823,22154.62,-55.46041,71.3001
464.15888336127773,359020.5,160.8242,71.2837
1000.0,474405.2,-71.08823,71.2802
2154.4346900318824,276880.8,-75.20104,71.2825
4641.588833612777,183238.9,-77.9531,71.3062
10000.0,59119.75,-82.13542,71.2965
