Frequency,Impedance,Phase Angle,Temperature (Dry Bath)
10.0,203962.2,-16.50935,72.0103
21.544346900318832,180174.2,-14.28407,72.0117
46.41588833612777,159184.6,-15.48466,71.9979
100.0,131687.6,-16.60792,71.99
215.44346900318823,137793.0,-22.32573,71.9869
464.15888336127773,88567.73,-10.66829,71.9842
1000.0,111360.1,-24.89733,71.9952
2154.4346900318824,81033.52,-9.701692,71.9923
4641.588833612777,68141.51,-30.07724,71.9943
10000.0,50691.71,-41.21334,71.9878
