Frequency,Impedance,Phase Angle,Temperature (Dry Bath)
10.0,3676490.0,-18.20523,70.9342
21.544346900318832,3411692.0,-12.38215,70.9382
46.41588833612777,2411935.0,-27.4963,70.9403
100.0,794342.3,12.64559,70.9313
215.44346900318823,396795.4,13.73825,70.9516
464.15888336127773,2079728.0,-172.691,70.9358
1000.0,633796.3,-106.6502,70.9375
2154.4346900318824,231563.2,-65.67031,70.9558
4641.588833612777,118299.9,-82.26945,70.9355
10000.0,59195.54,-85.93489,70.9481
