Frequency,Impedance,Phase Angle,Temperature (Dry Bath)
10.0,81300.48,-36.84466,71.4035
21.544346900318832,60644.03,-32.57008,71.4062
46.41588833612777,46488.18,-28.69482,71.4114
100.0,37920.81,-20.86096,71.3943
215.44346900318823,31974.88,-18.68192,71.392
464.15888336127773,25840.17,-17.96572,71.3929
1000.0,24121.29,-17.43266,71.3881
2154.4346900318824,21869.44,-17.08146,71.3882
4641.588833612777,18793.83,-17.82022,71.3806
10000.0,16321.71,-22.98328,71.3999
