Frequency,Impedance,Phase Angle,Temperature (Dry Bath)
10.0,4326875.0,2.509195,71.4148
21.544346900318832,4738849.0,-0.6482978,71.404
46.41588833612777,4875785.0,-34.86551,71.3965
100.0,760561.4,-122.5882,71.4158
215.44346900318823,1642980.0,-46.17923,71.4016
464.15888336127773,813799.7,-137.6795,71.4269
1000.0,1807313.0,-1.790477,71.4
2154.4346900318824,422289.8,-56.07436,71.404
4641.588833612777,237914.4,-74.65301,71.4057
10000.0,114365.4,-80.33262,71.4103
