Frequency,Impedance,Phase Angle,Temperature (Dry Bath)
10.0,844532.7,-4.575669,71.3258
21.544346900318832,801890.1,-6.802687,71.3043
46.41588833612777,806912.4,-3.234217,71.3087
100.0,442271.2,4.025949,71.331
215.44346900318823,370202.6,-7.815955,71.3287
464.15888336127773,867971.1,-78.59945,71.3297
1000.0,466428.8,-30.26013,71.319
2154.4346900318824,213845.0,-59.58206,71.3254
4641.588833612777,144478.8,-75.26429,71.331
10000.0,108967.0,-81.72386,71.3123
