Frequency,Impedance,Phase Angle,Temperature (Dry Bath)
10.0,6844349.0,6.27396,71.6151
21.544346900318832,4275264.0,7.549555,71.6079
46.41588833612777,3991043.0,-24.44942,71.6011
100.0,510725.6,-70.24782,71.6173
215.44346900318823,1024534.0,51.50764,71.6152
464.15888336127773,621584.6,119.2774,71.6078
1000.0,306486.2,-89.07233,71.6151
2154.4346900318824,682752.3,-38.46674,71.6251
4641.588833612777,269629.9,-137.9961,71.6196
10000.0,125666.0,-93.6238,71.6178
