Frequency,Impedance,Phase Angle,Temperature (Dry Bath)
10.0,258612.5,-24.89006,71.2311
21.544346900318832,213088.3,-22.25049,71.2329
46.41588833612777,177284.4,-19.83659,71.2408
100.0,149402.3,-5.729586,71.2372
215.44346900318823,101591.2,-9.242406,71.232
464.15888336127773,118952.2,-19.12483,71.2376
1000.0,92416.02,-32.31631,71.226
2154.4346900318824,92032.67,-29.0605,71.2303
4641.588833612777,59008.69,-46.25827,71.2382
10000.0,43849.8,-58.87493,71.2235
