Frequency,Impedance,Phase Angle,Temperature (Dry Bath)
10.0,69936.24,-11.32179,71.1924
21.544346900318832,64228.46,-9.109089,71.1887
46.41588833612777,60176.13,-8.109462,71.2011
100.0,57781.56,-9.10401,71.1873
215.44346900318823,52169.91,0.7873959,71.1914
464.15888336127773,51715.03,-8.445735,71.1861
1000.0,52174.31,-4.180246,71.1889
2154.4346900318824,56450.53,-9.394253,71.174
4641.588833612777,48601.27,-12.29143,71.1896
10000.0,43455.86,-22.76981,71.192
