Frequency,Impedance,Phase Angle,Temperature (Dry Bath)
10.0,38921.24,-22.21326,71.1181
21.544346900318832,32448.24,-21.96115,71.1032
46.41588833612777,27143.34,-22.01387,71.1071
100.0,23456.51,-23.5985,71.0855
215.44346900318823,19875.29,-20.49532,71.0884
464.15888336127773,15247.25,-23.38923,71.0875
1000.0,12824.49,-25.54473,71.0889
2154.4346900318824,10169.06,-22.072,71.0978
4641.588833612777,8295.948,-25.40545,71.0935
10000.0,6674.566,-20.4928,71.0861
