Frequency,Impedance,Phase Angle,Temperature (Dry Bath)
10.0,22299.03,-28.945,70.5829
21.544346900318832,17630.89,-26.87554,70.6008
46.41588833612777,14137.44,-24.60908,70.5978
100.0,11634.57,-23.08494,70.596
215.44346900318823,9937.109,-19.58458,70.6055
464.15888336127773,8380.475,-16.01417,70.6136
1000.0,7545.123,-14.0824,70.6011
2154.4346900318824,6659.463,-12.65484,70.6174
4641.588833612777,6150.262,-11.51929,70.605
10000.0,5740.535,-13.54893,70.6268
