Frequency,Impedance,Phase Angle,Temperature (Dry Bath)
10.0,3897406.0,-23.95484,70.5275
21.544346900318832,3578542.0,-23.41226,70.5477
46.41588833612777,4847433.0,-36.19253,70.5392
100.0,718422.9,22.71945,70.544
215.44346900318823,1534474.0,44.06224,70.541
464.15888336127773,581762.5,-122.6726,70.5379
1000.0,132118.8,-131.0777,70.52
2154.4346900318824,344484.8,-138.7437,70.5377
4641.588833612777,88349.21,-88.81982,70.5267
10000.0,49306.21,-89.78278,70.5305
