Frequency,Impedance,Phase Angle,Temperature (Dry Bath)
10.0,4624437.0,-9.749111,71.0138
21.544346900318832,4804971.0,4.590897,71.0195
46.41588833612777,5414796.0,-14.70712,71.0114
100.0,453551.0,43.97814,71.0197
215.44346900318823,1071390.0,92.75696,71.0129
464.15888336127773,371815.3,133.1312,71.0116
1000.0,209149.7,-132.0397,71.0189
2154.4346900318824,468571.8,-18.56343,71.0143
4641.588833612777,184370.8,-58.94715,71.0079
10000.0,137298.8,-77.45591,71.0044
