Frequency,Impedance,Phase Angle,Temperature (Dry Bath)
10.0,359677.0,-23.92541,70.9199
21.544346900318832,297546.2,-23.49215,70.922
46.41588833612777,250715.0,-22.39037,70.9024
100.0,177966.6,-13.02565,70.917
215.44346900318823,157512.8,-23.21036,70.9038
464.15888336127773,146729.6,-26.67653,70.8942
1000.0,117723.5,-30.43421,70.9004
2154.4346900318824,93384.35,-30.30814,70.8867
4641.588833612777,73925.33,-53.66424,70.8965
10000.0,43925.27,-66.84979,70.8864
