Frequency,Impedance,Phase Angle,Temperature (Dry Bath)
10.0,99834.47,-13.41617,71.8588
21.544346900318832,91342.76,-11.36942,71.8528
46.41588833612777,82833.17,-10.16382,71.8583
100.0,82372.85,-6.26504,71.8524
215.44346900318823,74870.44,4.426095,71.8516
464.15888336127773,66888.57,-9.796569,71.848
1000.0,65855.83,-11.8023,71.8549
2154.4346900318824,60293.69,-10.71,71.8631
4641.588833612777,53639.21,-17.29284,71.8591
10000.0,48487.21,-30.47739,71.8548
