Frequency,Impedance,Phase Angle,Temperature (Dry Bath)
10.0,4042283.0,-2.817981,71.1503
21.544346900318832,4338924.0,-16.13125,71.1392
46.41588833612777,4549764.0,-37.35778,71.1535
100.0,1125857.0,-22.07174,71.1446
215.44346900318823,1376908.0,-158.206,71.1578
464.15888336127773,942015.9,-30.41988,71.1586
1000.0,249469.8,-106.5768,71.1584
2154.4346900318824,258399.0,-73.42468,71.1587
4641.588833612777,128210.0,-94.85239,71.153
10000.0,56954.62,-83.77065,71.1604
