Frequency,Impedance,Phase Angle,Temperature (Dry Bath)
10.0,7771146.0,-15.95217,72.0818
21.544346900318832,4877248.0,24.15076,72.0851
46.41588833612777,7927914.0,14.50584,72.0914
100.0,1101943.0,-149.8249,72.0849
215.44346900318823,522196.5,-127.3551,72.0946
464.15888336127773,1280699.0,134.2951,72.0887
1000.0,390101.7,-158.5213,72.0888
2154.4346900318824,726301.5,16.93079,72.1038
4641.588833612777,184514.2,-121.947,72.0829
10000.0,246137.3,-94.87491,72.0997
