Frequency,Impedance,Phase Angle,Temperature (Dry Bath)
10.0,10297710.0,-9.53936,71.5496
21.544346900318832,5519976.0,21.73399,71.5484
46.41588833612777,4708917.0,-19.55905,71.5426
100.0,1568556.0,-52.25977,71.5419
215.44346900318823,1464665.0,-165.3826,71.5602
464.15888336127773,654367.7,-109.7101,71.53
1000.0,741825.7,-15.33103,71.5577
2154.4346900318824,761671.3,-82.99077,71.5526
4641.588833612777,274010.8,-68.66078,71.5443
10000.0,154025.1,-79.59379,71.5572
