Frequency,Impedance,Phase Angle,Temperature (Dry Bath)
10.0,5268437.0,-19.93351,70.3378
21.544346900318832,5133408.0,6.266231,70.332
46.41588833612777,9242606.0,-2.512459,70.3502
100.0,436573.7,6.962058,70.3379
215.44346900318823,469094.8,-78.90525,70.3502
464.15888336127773,752616.2,38.08999,70.3302
1000.0,512114.0,-19.64262,70.3438
2154.4346900318824,586797.9,-67.01799,70.3319
4641.588833612777,286344.5,-58.27736,70.332
10000.0,165201.1,-92.36384,70.3376
