Frequency,Impedance,Phase Angle,Temperature (Dry Bath)
10.0,1248974.0,-10.2442,71.7476
21.544346900318832,1030808.0,-9.756838,71.7443
46.41588833612777,934303.8,-10.84116,71.744
100.0,358308.5,-111.815,71.7618
215.44346900318823,1098888.0,-176.5487,71.7628
464.15888336127773,437296.7,-28.73376,71.7622
1000.0,915268.7,-91.6573,71.7559
2154.4346900318824,1908243.0,31.53345,71.763
4641.588833612777,124653.5,-73.41318,71.7483
10000.0,92477.59,-69.28144,71.7549
