Frequency,Impedance,Phase Angle,Temperature (Dry Bath)
10.0,5232653.0,-18.56905,71.346
21.544346900318832,3339637.0,-7.537074,71.347
46.41588833612777,4800224.0,-16.53689,71.3409
100.0,318341.0,-20.80868,71.3511
215.44346900318823,1200007.0,-102.9929,71.3517
464.15888336127773,720685.8,-42.80153,71.3584
1000.0,415446.1,-133.6285,71.3614
2154.4346900318824,278951.6,-75.43042,71.3614
4641.588833612777,120761.2,-86.84453,71.377
10000.0,59196.25,-87.41447,71.3642
