Frequency,Impedance,Phase Angle,Temperature (Dry Bath)
10.0,5001513.0,23.24253,71.3946
21.544346900318832,3769616.0,15.91256,71.3885
46.41588833612777,4204344.0,-27.42184,71.4007
100.0,1110004.0,-14.18715,71.3815
215.44346900318823,731526.4,6.949965,71.388
464.15888336127773,775591.7,-118.6782,71.3867
1000.0,936634.9,-72.75904,71.3685
2154.4346900318824,624583.9,-73.5609,71.3714
4641.588833612777,278836.3,-84.21327,71.3835
10000.0,131335.1,-78.74889,71.3924
