Frequency,Impedance,Phase Angle,Temperature (Dry Bath)
10.0,25803.12,-18.79715,71.4766
21.544346900318832,22243.95,-17.71901,71.4781
46.41588833612777,19311.33,-17.13168,71.4671
100.0,16577.99,-15.84761,71.4671
215.44346900318823,14989.59,-14.25478,71.462
464.15888336127773,13111.71,-13.64574,71.4709
1000.0,11725.84,-11.84294,71.4683
2154.4346900318824,10850.03,-11.34042,71.4644
4641.588833612777,9894.883,-10.70768,71.4663
10000.0,9247.291,-10.07546,71.4637
