Frequency,Impedance,Phase Angle,Temperature (Dry Bath)
10.0,591903.3,-26.83403,71.2933
21.544346900318832,459718.8,-25.82864,71.2828
46.41588833612777,395667.8,-25.2654,71.2901
100.0,165290.6,-17.02224,71.2884
215.44346900318823,27739.76,-4.457352,71.2813
464.15888336127773,171614.5,0.5059583,71.2882
1000.0,300951.1,-33.1622,71.2932
2154.4346900318824,162297.5,-53.30228,71.29
4641.588833612777,86764.69,-53.19383,71.2812
10000.0,49469.15,-66.55323,71.2975
