Frequency,Impedance,Phase Angle,Temperature (Dry Bath)
10.0,24218.93,-19.85394,71.2084
21.544346900318832,20725.33,-17.72826,71.2001
46.41588833612777,18059.38,-15.64863,71.2032
100.0,16380.27,-13.55022,71.1935
215.44346900318823,14482.55,-12.45446,71.185
464.15888336127773,13184.04,-11.50611,71.1891
1000.0,12211.6,-11.03155,71.1948
2154.4346900318824,11273.95,-9.647741,71.1917
4641.588833612777,10692.85,-11.11463,71.1955
10000.0,9961.271,-14.70489,71.2009
