Frequency,Impedance,Phase Angle,Temperature (Dry Bath)
10.0,6024096.0,-9.246237,70.9334
21.544346900318832,7676081.0,-20.52415,70.9309
46.41588833612777,4928289.0,-32.46642,70.9417
100.0,404993.6,-13.02037,70.9296
215.44346900318823,567890.9,-122.4565,70.9171
464.15888336127773,520628.7,-76.51725,70.9296
1000.0,664963.2,-28.99363,70.9336
2154.4346900318824,277329.2,-72.84401,70.9318
4641.588833612777,117949.3,-96.00499,70.9352
10000.0,61475.4,-93.66063,70.9366
