Frequency,Impedance,Phase Angle,Temperature (Dry Bath)
10.0,7044130.0,1.868493,70.9972
21.544346900318832,6618944.0,-13.50937,71.0242
46.41588833612777,5568173.0,-7.075345,71.0045
100.0,443401.4,-43.58258,71.0094
215.44346900318823,342618.7,-67.46642,70.9923
464.15888336127773,391808.5,151.8489,70.994
1000.0,190737.1,-47.09171,70.9965
2154.4346900318824,240483.7,45.63868,70.991
4641.588833612777,471730.9,-147.5776,71.0088
10000.0,177063.1,-74.97791,70.9939
