Frequency,Impedance,Phase Angle,Temperature (Dry Bath)
10.0,7031646.0,-41.75209,71.5556
21.544346900318832,5552396.0,-5.492096,71.5538
46.41588833612777,5048469.0,-17.24653,71.5657
100.0,1419663.0,-0.3276106,71.5648
215.44346900318823,757592.8,132.225,71.5597
464.15888336127773,1188032.0,-84.67713,71.5681
1000.0,557068.4,-51.92378,71.5666
2154.4346900318824,345702.0,-100.7015,71.5771
4641.588833612777,164654.3,-64.58665,71.5602
10000.0,114039.7,-82.67611,71.5638
