Frequency,Impedance,Phase Angle,Temperature (Dry Bath)
10.0,229887.7,-25.1639,71.4786
21.544346900318832,185354.0,-23.54619,71.4735
46.41588833612777,157654.3,-20.74924,71.4773
100.0,133408.2,-57.63473,71.4633
215.44346900318823,115890.9,-19.20937,71.4682
464.15888336127773,87358.07,-20.98624,71.4671
1000.0,97679.55,-30.58164,71.4621
2154.4346900318824,68544.47,-29.73482,71.4792
4641.588833612777,57457.45,-32.29737,71.4714
10000.0,37584.9,-51.2824,71.4839
