Frequency,Impedance,Phase Angle,Temperature (Dry Bath)
10.0,4345633.0,7.8251,71.2907
21.544346900318832,8125487.0,27.27455,71.2867
46.41588833612777,3792605.0,-34.22415,71.2907
100.0,492084.3,-29.48792,71.2905
215.44346900318823,666410.0,97.78099,71.2922
464.15888336127773,782990.0,-33.13263,71.289
1000.0,320986.3,-85.17636,71.2757
2154.4346900318824,365421.8,-69.19661,71.2968
4641.588833612777,145158.2,-77.5773,71.2871
10000.0,67260.32,-79.12166,71.2834
