Frequency,Impedance,Phase Angle,Temperature (Dry Bath)
10.0,14629.24,-17.16289,71.2724
21.544346900318832,12903.62,-15.80172,71.275
46.41588833612777,11455.23,-15.28457,71.2903
100.0,10063.61,-15.25732,71.2962
215.44346900318823,9124.768,-13.76798,71.2915
464.15888336127773,8111.184,-12.68597,71.2787
1000.0,7358.053,-11.85787,71.2926
2154.4346900318824,6724.383,-10.92186,71.2817
4641.588833612777,6268.858,-9.256991,71.2882
10000.0,5762.256,-9.202086,71.2778
