Frequency,Impedance,Phase Angle,Temperature (Dry Bath)
10.0,13416.44,-20.05517,70.9357
21.544346900318832,11516.27,-17.31328,70.9317
46.41588833612777,10107.52,-15.1782,70.9349
100.0,9049.231,-13.63804,70.9399
215.44346900318823,8068.697,-12.06404,70.93
464.15888336127773,7493.384,-11.0887,70.9368
1000.0,6718.959,-10.14912,70.9451
2154.4346900318824,6418.273,-9.454149,70.9414
4641.588833612777,5991.722,-9.968765,70.935
10000.0,5602.655,-12.73204,70.9283
