Frequency,Impedance,Phase Angle,Temperature (Dry Bath)
10.0,6263850.0,21.48424,71.1277
21.544346900318832,7762695.0,-29.12828,71.1362
46.41588833612777,4182042.0,-17.25604,71.1454
100.0,1433214.0,91.6541,71.1361
215.44346900318823,4186527.0,-138.9721,71.1253
464.15888336127773,371755.0,-92.93666,71.1366
1000.0,666047.1,-133.0856,71.1432
2154.4346900318824,346847.7,-90.24252,71.1243
4641.588833612777,130880.7,-75.08497,71.1306
10000.0,60479.3,-89.1334,71.1396
