Frequency,Impedance,Phase Angle,Temperature (Dry Bath)
10.0,1119780.0,-20.31615,71.361
21.544346900318832,946196.8,-24.57685,71.3782
46.41588833612777,785205.1,-21.1478,71.3637
100.0,451570.4,-7.546402,71.3805
215.44346900318823,456110.1,-39.86272,71.3739
464.15888336127773,333285.8,-58.19808,71.3839
1000.0,306290.1,-56.75693,71.3548
2154.4346900318824,237409.3,-58.83105,71.3551
4641.588833612777,90371.09,-78.40428,71.3607
10000.0,62143.1,-70.51781,71.3559
