Frequency,Impedance,Phase Angle,Temperature (Dry Bath)
10.0,5365939.0,-4.669725,71.3115
21.544346900318832,5019841.0,-25.86766,71.3247
46.41588833612777,4999203.0,-18.66916,71.3172
100.0,362336.1,-130.1683,71.3317
215.44346900318823,348696.2,-31.66659,71.3242
464.15888336127773,434781.9,11.6489,71.2933
1000.0,535767.0,-55.22994,71.3247
2154.4346900318824,230156.4,-22.13389,71.3147
4641.588833612777,178715.8,-141.4076,71.3195
10000.0,532038.0,-84.67013,71.3147
