Frequency,Impedance,Phase Angle,Temperature (Dry Bath)
10.0,54254.26,-18.59798,70.9469
21.544346900318832,47161.14,-16.68589,70.9559
46.41588833612777,41296.05,-15.60729,70.9578
100.0,37716.91,-8.876505,70.9378
215.44346900318823,31553.3,-14.58709,70.9385
464.15888336127773,29707.93,-11.51485,70.9411
1000.0,28489.03,-13.23895,70.9498
2154.4346900318824,25886.31,-14.27928,70.94
4641.588833612777,21928.21,-19.82009,70.9545
10000.0,20175.11,-26.58392,70.9177
