Frequency,Impedance,Phase Angle,Temperature (Dry Bath)
10.0,176540.1,-12.2418,71.2675
21.544346900318832,160696.2,-11.77062,71.2936
46.41588833612777,148252.5,-11.72297,71.2794
100.0,120390.2,0.2761682,71.2671
215.44346900318823,128774.9,4.840181,71.2767
464.15888336127773,102177.1,-15.14192,71.2601
1000.0,90310.46,-14.73804,71.2592
2154.4346900318824,102200.1,-21.76832,71.2697
4641.588833612777,82379.86,-39.14594,71.2503
10000.0,49160.36,-52.92058,71.279
