Frequency,Impedance,Phase Angle,Temperature (Dry Bath)
10.0,158182.2,-9.395228,71.2786
21.544346900318832,147941.7,-7.970769,71.2861
46.41588833612777,138234.1,-8.891284,71.2773
100.0,110629.6,-11.90939,71.2717
215.44346900318823,104302.7,-4.502261,71.2722
464.15888336127773,117288.6,-14.15764,71.2819
1000.0,115668.8,-22.75406,71.2829
2154.4346900318824,82946.64,-33.00102,71.2831
4641.588833612777,69714.64,-47.14898,71.2739
10000.0,46130.05,-59.75516,71.2702
