Frequency,Impedance,Phase Angle,Temperature (Dry Bath)
10.0,5078505.0,-11.01522,70.9817
21.544346900318832,4280140.0,-5.535931,70.9799
46.41588833612777,7236328.0,-41.74606,70.9733
100.0,754421.1,-22.53848,70.9827
215.44346900318823,571165.6,22.53321,70.9809
464.15888336127773,2296361.0,2.902446,70.9921
1000.0,685202.6,-96.47683,70.9872
2154.4346900318824,194260.3,-77.06443,70.995
4641.588833612777,171349.3,-79.47414,70.9756
10000.0,68074.27,-85.04145,70.9937
