Frequency,Impedance,Phase Angle,Temperature (Dry Bath)
10.0,4681549.0,-8.739868,71.8074
21.544346900318832,4121920.0,-12.04308,71.8073
46.41588833612777,5455361.0,-16.51883,71.796
100.0,2275732.0,-130.4197,71.7924
215.44346900318823,672082.6,-11.61867,71.7932
464.15888336127773,1824977.0,43.7631,71.7906
1000.0,328621.5,-48.53473,71.8299
2154.4346900318824,662306.3,-73.69859,71.796
4641.588833612777,197111.9,-81.82497,71.7902
10000.0,139747.6,-71.14646,71.7835
