Frequency,Impedance,Phase Angle,Temperature (Dry Bath)
10.0,4703231.0,9.307505,71.3193
21.544346900318832,6905509.0,-10.14636,71.317
46.41588833612777,4310689.0,-9.084307,71.3252
100.0,1362197.0,63.75885,71.33
215.44346900318823,951278.9,0.9876836,71.3211
464.15888336127773,532110.9,65.29511,71.3278
1000.0,1264995.0,-121.0737,71.3273
2154.4346900318824,439730.6,-122.6028,71.3255
4641.588833612777,332886.8,-79.22188,71.3303
10000.0,183120.7,-97.07938,71.3359
