Frequency,Impedance,Phase Angle,Temperature (Dry Bath)
10.0,4325369.0,-14.24841,71.2669
21.544346900318832,7832370.0,-26.5533,71.2793
46.41588833612777,4748297.0,-25.13794,71.283
100.0,1403730.0,-94.66983,71.2835
215.44346900318823,820425.7,18.42044,71.2862
464.15888336127773,422725.9,-72.91921,71.2731
1000.0,669458.8,-114.0636,71.29
2154.4346900318824,489724.8,-73.1766,71.2911
4641.588833612777,266828.8,-82.71858,71.2669
10000.0,125815.3,-81.05678,71.2668
