Frequency,Impedance,Phase Angle,Temperature (Dry Bath)
10.0,4382779.0,-139.9952,71.3267
21.544346900318832,6333698.0,2.886828,71.345
46.41588833612777,3963109.0,-38.60253,71.3326
100.0,572581.7,-99.25836,71.3208
215.44346900318823,1211250.0,-46.9237,71.3305
464.15888336127773,559738.8,-86.70877,71.3269
1000.0,573779.4,-86.94105,71.3342
2154.4346900318824,345569.6,-137.3135,71.3051
4641.588833612777,132573.4,-99.48672,71.3272
10000.0,71573.46,-91.5741,71.3079
