Frequency,Impedance,Phase Angle,Temperature (Dry Bath)
10.0,6992.127,-25.68047,70.6246
21.544346900318832,5633.207,-24.56113,70.6352
46.41588833612777,4586.507,-22.99728,70.6233
100.0,3804.254,-21.39546,70.6413
215.44346900318823,3214.215,-18.60703,70.6314
464.15888336127773,2774.289,-15.87097,70.635
1000.0,2443.5,-13.46189,70.6312
2154.4346900318824,2208.645,-11.37623,70.6296
4641.588833612777,2043.787,-10.56365,70.6401
10000.0,1907.205,-10.56098,70.6389
