Frequency,Impedance,Phase Angle,Temperature (Dry Bath)
10.0,4739736.0,-11.93713,71.3106
21.544346900318832,3927779.0,-19.32365,71.33
46.41588833612777,1708103.0,-26.76342,71.3286
100.0,307320.2,-75.22321,71.3208
215.44346900318823,104568.3,166.6467,71.3141
464.15888336127773,656267.7,-59.28372,71.3392
1000.0,340780.8,-61.70922,71.3244
2154.4346900318824,186143.1,-81.45633,71.3267
4641.588833612777,122913.1,-72.10306,71.3222
10000.0,54195.83,-84.13283,71.3225
