Frequency,Impedance,Phase Angle,Temperature (Dry Bath)
10.0,4244292.0,-6.057344,71.4531
21.544346900318832,4951002.0,-27.0811,71.4729
46.41588833612777,3926423.0,-32.93368,71.4603
100.0,771412.7,-65.19294,71.4632
215.44346900318823,427442.0,-22.96811,71.4747
464.15888336127773,1199339.0,-11.47862,71.4659
1000.0,385729.1,-97.14644,71.4767
2154.4346900318824,376735.0,-70.96983,71.4826
4641.588833612777,180568.8,-103.0529,71.4721
10000.0,64877.23,-86.98283,71.4806
