Frequency,Impedance,Phase Angle,Temperature (Dry Bath)
10.0,144194.9,-13.73602,70.961
21.544346900318832,132503.3,-12.79712,70.956
46.41588833612777,118689.9,-12.1716,70.9554
100.0,112207.8,-20.32063,70.9618
215.44346900318823,108197.6,-23.76124,70.9664
464.15888336127773,86389.75,-11.76828,70.9643
1000.0,83579.53,-13.0975,70.9609
2154.4346900318824,71237.02,-18.55153,70.9515
4641.588833612777,58744.15,-32.86327,70.9635
10000.0,45086.16,-46.57689,70.9496
