Frequency,Impedance,Phase Angle,Temperature (Dry Bath)
10.0,23882.13,-19.83566,71.312
21.544346900318832,20488.22,-17.66366,71.3223
46.41588833612777,17792.17,-15.69818,71.3147
100.0,15899.35,-14.15606,71.3324
215.44346900318823,14384.79,-11.44314,71.3097
464.15888336127773,12659.09,-10.48718,71.3293
1000.0,11821.84,-9.279915,71.3272
2154.4346900318824,10936.21,-9.230673,71.3178
4641.588833612777,10495.55,-10.83806,71.3333
10000.0,9886.724,-16.23487,71.3316
