Frequency,Impedance,Phase Angle,Temperature (Dry Bath)
10.0,9346256.0,-23.2278,71.208
21.544346900318832,5493510.0,-16.98521,71.2171
46.41588833612777,5796690.0,-17.35149,71.2247
100.0,3996087.0,-38.7187,71.2302
215.44346900318823,1111078.0,51.67803,71.2223
464.15888336127773,1373191.0,13.72681,71.2278
1000.0,359912.9,-119.1473,71.2179
2154.4346900318824,1393995.0,-83.80197,71.2236
4641.588833612777,325874.5,-148.1529,71.229
10000.0,127246.5,-94.65581,71.2101
