Frequency,Impedance,Phase Angle,Temperature (Dry Bath)
10.0,163955.2,-15.83561,70.9004
21.544346900318832,144007.1,-17.42634,70.9137
46.41588833612777,123792.0,-17.74584,70.8994
100.0,109606.9,-15.36001,70.8959
215.44346900318823,89526.55,-17.12364,70.9061
464.15888336127773,81820.26,-20.56273,70.8948
1000.0,59231.39,-26.42699,70.905
2154.4346900318824,58807.18,-31.04313,70.9062
4641.588833612777,45795.78,-40.78786,70.8952
10000.0,32642.55,-53.42214,70.9048
