Frequency,Impedance,Phase Angle,Temperature (Dry Bath)
10.0,4226974.0,9.164173,71.4898
21.544346900318832,12817260.0,-2.037111,71.4726
46.41588833612777,5577415.0,3.657998,71.4769
100.0,935461.2,0.4141018,71.4831
215.44346900318823,1731521.0,164.9656,71.4789
464.15888336127773,752881.2,80.76828,71.4896
1000.0,728767.4,-88.42549,71.482
2154.4346900318824,809991.8,-47.31645,71.4772
4641.588833612777,525751.0,-41.15997,71.4726
10000.0,120700.0,-77.16288,71.4741
