Frequency,Impedance,Phase Angle,Temperature (Dry Bath)
10.0,11670.01,-23.57145,71.522
21.544346900318832,9523.494,-23.94191,71.5011
46.41588833612777,7728.464,-23.62461,71.5145
100.0,6341.685,-20.84637,71.5174
215.44346900318823,5339.91,-20.20468,71.5168
464.15888336127773,4574.403,-17.28372,71.5161
1000.0,3992.401,-15.62373,71.5098
2154.4346900318824,3530.502,-13.98843,71.51
4641.588833612777,3141.492,-13.29892,71.5154
10000.0,2857.904,-12.11227,71.5342
