Frequency,Impedance,Phase Angle,Temperature (Dry Bath)
10.0,4188676.0,12.56495,71.2597
21.544346900318832,4479300.0,3.678176,71.2337
46.41588833612777,3893538.0,-18.16132,71.2641
100.0,450876.7,9.756351,71.2686
215.44346900318823,516087.3,-44.57182,71.2808
464.15888336127773,659741.8,-60.23105,71.2734
1000.0,1282004.0,-72.50097,71.2682
2154.4346900318824,240347.8,-70.36689,71.2783
4641.588833612777,161445.2,-93.86496,71.2733
10000.0,74274.88,-89.15212,71.2597
