Frequency,Impedance,Phase Angle,Temperature (Dry Bath)
10.0,5212658.0,-7.005694,70.8923
21.544346900318832,4405726.0,-27.93841,70.8822
46.41588833612777,3755776.0,-31.55016,70.8789
100.0,468629.3,-62.95181,70.8914
215.44346900318823,776144.0,-144.2454,70.8926
464.15888336127773,1050817.0,-42.18887,70.884
1000.0,1217886.0,-24.13601,70.8978
2154.4346900318824,243704.8,-81.0277,70.8972
4641.588833612777,115433.0,-64.01184,70.902
10000.0,59197.58,-91.79461,70.8909
