Frequency,Impedance,Phase Angle,Temperature (Dry Bath)
10.0,3641248.0,-3.026615,71.6251
21.544346900318832,6011237.0,-4.294796,71.6256
46.41588833612777,4811763.0,-14.69212,71.6277
100.0,358560.4,143.7075,71.6343
215.44346900318823,363329.9,116.8496,71.6375
464.15888336127773,1625516.0,-146.6292,71.6415
1000.0,597711.1,-104.7233,71.6187
2154.4346900318824,610416.7,-70.13316,71.6223
4641.588833612777,379453.8,47.86605,71.6222
10000.0,170072.0,-100.9043,71.6354
