Frequency,Impedance,Phase Angle,Temperature (Dry Bath)
10.0,5379972.0,18.66441,70.6196
21.544346900318832,3368723.0,8.72323,70.6126
46.41588833612777,4850572.0,-12.5234,70.6088
100.0,589148.5,50.28146,70.5999
215.44346900318823,967304.0,-14.95713,70.6212
464.15888336127773,828515.7,-56.33285,70.6089
1000.0,253466.3,-51.92572,70.6249
2154.4346900318824,204177.4,-74.02112,70.6059
4641.588833612777,113560.2,-92.17326,70.6071
10000.0,62896.24,-90.95373,70.6073
