Frequency,Impedance,Phase Angle,Temperature (Dry Bath)
10.0,4900984.0,-2.679984,71.3162
21.544346900318832,7788203.0,-0.1163447,71.3301
46.41588833612777,5176786.0,-31.64593,71.3136
100.0,552539.2,-60.05853,71.3119
215.44346900318823,1055116.0,-2.54939,71.3178
464.15888336127773,759726.6,-25.48889,71.3149
1000.0,439846.9,-105.1937,71.3128
2154.4346900318824,414024.8,-62.03333,71.327
4641.588833612777,155626.7,-95.92049,71.3072
10000.0,72196.61,-84.37405,71.3266
