Frequency,Impedance,Phase Angle,Temperature (Dry Bath)
10.0,6810.111,-35.85855,70.8358
21.544346900318832,5148.519,-31.10611,70.8285
46.41588833612777,4051.593,-26.56112,70.8392
100.0,3304.486,-22.47611,70.833
215.44346900318823,2798.219,-18.7361,70.8272
464.15888336127773,2449.41,-15.50498,70.8302
1000.0,2185.193,-12.64199,70.8334
2154.4346900318824,1998.041,-10.71485,70.838
4641.588833612777,1839.827,-9.491932,70.8533
10000.0,1721.936,-8.742929,70.8428
