Frequency,Impedance,Phase Angle,Temperature (Dry Bath)
10.0,5255.086,-35.05179,70.4711
21.544346900318832,3990.605,-29.45639,70.4821
46.41588833612777,3209.255,-24.02728,70.4756
100.0,2691.519,-19.78559,70.4826
215.44346900318823,2356.385,-16.21905,70.4782
464.15888336127773,2098.254,-13.43005,70.4848
1000.0,1898.202,-11.28666,70.5008
2154.4346900318824,1734.888,-9.643319,70.4937
4641.588833612777,1621.777,-8.369815,70.4838
10000.0,1527.731,-7.877715,70.4896
