Frequency,Impedance,Phase Angle,Temperature (Dry Bath)
10.0,9080808.0,-24.50321,71.2065
21.544346900318832,5313197.0,7.059614,71.1824
46.41588833612777,3945627.0,-19.59927,71.1899
100.0,3765908.0,-121.2845,71.1999
215.44346900318823,1230976.0,-45.76214,71.1921
464.15888336127773,1021687.0,-17.1201,71.1989
1000.0,657914.3,-80.28384,71.1944
2154.4346900318824,345337.0,-103.7905,71.1838
4641.588833612777,135650.5,-108.3317,71.2008
10000.0,75266.17,-95.6847,71.189
