Frequency,Impedance,Phase Angle,Temperature (Dry Bath)
10.0,6215318.0,-20.26939,70.6949
21.544346900318832,3949950.0,-21.8321,70.7092
46.41588833612777,4551265.0,5.45877,70.7103
100.0,377530.0,-47.27097,70.7074
215.44346900318823,4698665.0,-166.3279,70.6855
464.15888336127773,885434.0,-100.2895,70.6824
1000.0,399038.7,-21.62751,70.6863
2154.4346900318824,211830.5,-69.75952,70.6965
4641.588833612777,112043.7,-87.56595,70.6991
10000.0,58010.71,-84.38481,70.6936
