Frequency,Impedance,Phase Angle,Temperature (Dry Bath)
10.0,12286.12,-26.89191,71.2217
21.544346900318832,9880.211,-24.26588,71.2281
46.41588833612777,8148.366,-21.49225,71.2291
100.0,6872.94,-18.73477,71.2303
215.44346900318823,5974.361,-16.11291,71.2149
464.15888336127773,5310.006,-14.56994,71.2317
1000.0,4699.344,-12.97598,71.2483
2154.4346900318824,4257.525,-12.10429,71.2305
4641.588833612777,3945.163,-11.48344,71.2419
10000.0,3593.934,-12.92984,71.2259
