Frequency,Impedance,Phase Angle,Temperature (Dry Bath)
10.0,6735143.0,-1.114872,71.3856
21.544346900318832,6197223.0,-47.54241,71.3802
46.41588833612777,5423373.0,-10.44071,71.381
100.0,474244.7,-130.9091,71.3812
215.44346900318823,1263629.0,25.40415,71.3753
464.15888336127773,908179.9,-44.91597,71.3824
1000.0,843860.5,-19.05236,71.3813
2154.4346900318824,335611.1,-62.7479,71.3725
4641.588833612777,436187.0,-85.10282,71.3895
10000.0,123712.5,-89.21324,71.3777
