Frequency,Impedance,Phase Angle,Temperature (Dry Bath)
10.0,4729542.0,10.82108,70.6196
21.544346900318832,11909140.0,18.06346,70.6267
46.41588833612777,4030090.0,-24.31803,70.6395
100.0,880507.6,5.440567,70.6343
215.44346900318823,1392284.0,35.72845,70.6304
464.15888336127773,736663.1,-73.63259,70.6378
1000.0,280058.4,-66.28324,70.6192
2154.4346900318824,220768.4,-89.90405,70.6197
4641.588833612777,138473.8,-82.96448,70.6243
10000.0,54805.03,-86.69608,70.6284
