Frequency,Impedance,Phase Angle,Temperature (Dry Bath)
10.0,25364.35,-23.57938,70.3237
21.544346900318832,20838.24,-23.14025,70.3344
46.41588833612777,17246.03,-22.74046,70.3203
100.0,14630.44,-21.91061,70.3399
215.44346900318823,12118.26,-22.99506,70.3349
464.15888336127773,9966.04,-21.63264,70.3215
1000.0,8314.704,-20.94671,70.3322
2154.4346900318824,7008.875,-21.87695,70.3116
4641.588833612777,5830.064,-21.47049,70.3316
10000.0,4898.995,-19.70128,70.3186
