Frequency,Impedance,Phase Angle,Temperature (Dry Bath)
10.0,4124381.0,2.612693,71.3002
21.544346900318832,6094407.0,-36.48506,71.2957
46.41588833612777,3914249.0,-22.43991,71.2868
100.0,1010764.0,33.21342,71.295
215.44346900318823,425869.4,54.14203,71.2831
464.15888336127773,817432.5,-98.96758,71.2828
1000.0,288141.3,-80.26843,71.2932
2154.4346900318824,296457.6,-78.20119,71.2861
4641.588833612777,124977.8,-74.42724,71.2738
10000.0,64962.94,-80.2758,71.2884
