Frequency,Impedance,Phase Angle,Temperature (Dry Bath)
10.0,5309893.0,-12.62492,71.262
21.544346900318832,5756861.0,22.76068,71.2597
46.41588833612777,4624234.0,-19.88786,71.2801
100.0,373434.1,-11.52993,71.2693
215.44346900318823,2155579.0,-35.1588,71.2761
464.15888336127773,1307310.0,-58.28433,71.2587
1000.0,939007.4,-52.60069,71.2769
2154.4346900318824,693174.1,-95.90997,71.2699
4641.588833612777,345844.8,-49.49576,71.2736
10000.0,130989.5,-84.85318,71.2752
