Frequency,Impedance,Phase Angle,Temperature (Dry Bath)
10.0,21797.38,-14.43317,70.9253
21.544346900318832,19765.44,-11.45151,70.919
46.41588833612777,18263.9,-9.190194,70.9208
100.0,17018.06,-7.640486,70.9209
215.44346900318823,16269.88,-6.55539,70.9165
464.15888336127773,15404.39,-7.999916,70.9196
1000.0,15255.42,-6.808702,70.9186
2154.4346900318824,14338.6,-7.522197,70.9052
4641.588833612777,13441.97,-12.10123,70.9217
10000.0,12847.98,-18.57205,70.9022
