Frequency,Impedance,Phase Angle,Temperature (Dry Bath)
10.0,4262308.0,-8.543028,71.297
21.544346900318832,5885051.0,-15.7354,71.2977
46.41588833612777,3773016.0,-41.49719,71.2883
100.0,344640.6,-102.9593,71.303
215.44346900318823,25618.07,138.9056,71.3042
464.15888336127773,608788.8,-115.1011,71.2998
1000.0,2687362.0,-86.66355,71.2915
2154.4346900318824,230607.7,-74.01756,71.2845
4641.588833612777,107822.5,-86.38108,71.3029
10000.0,57667.71,-87.07918,71.2884
