Frequency,Impedance,Phase Angle,Temperature (Dry Bath)
10.0,56721.6,-14.84582,70.5763
21.544346900318832,50823.79,-13.26086,70.5676
46.41588833612777,45973.3,-12.58822,70.5816
100.0,42887.72,-6.823248,70.5666
215.44346900318823,38485.17,-11.94315,70.5723
464.15888336127773,35739.79,-14.25809,70.574
1000.0,30242.91,-16.86589,70.5717
2154.4346900318824,28725.54,-16.89169,70.5654
4641.588833612777,23874.77,-24.76047,70.5736
10000.0,21465.83,-36.05149,70.5684
