Frequency,Impedance,Phase Angle,Temperature (Dry Bath)
10.0,14840.33,-19.47666,70.9889
21.544346900318832,12812.67,-16.69287,70.9968
46.41588833612777,11279.45,-14.57667,70.98
100.0,10347.23,-12.44788,70.9735
215.44346900318823,9203.027,-11.06485,70.9828
464.15888336127773,8441.325,-10.2242,70.9779
1000.0,7935.623,-8.60511,70.9654
2154.4346900318824,7275.83,-9.292203,70.9587
4641.588833612777,6838.055,-10.12242,70.9648
10000.0,6301.593,-13.10696,70.9794
