Frequency,Impedance,Phase Angle,Temperature (Dry Bath)
10.0,13556.93,-23.85347,71.4562
21.544346900318832,11060.11,-24.1845,71.4812
46.41588833612777,8965.482,-23.75691,71.4878
100.0,7386.953,-21.86082,71.479
215.44346900318823,6162.075,-19.88635,71.4797
464.15888336127773,5313.014,-18.05255,71.4742
1000.0,4559.213,-16.00587,71.4862
2154.4346900318824,4011.282,-14.44004,71.4702
4641.588833612777,3571.384,-13.84025,71.4934
10000.0,3207.79,-13.52489,71.4872
