Frequency,Impedance,Phase Angle,Temperature (Dry Bath)
10.0,3627894.0,-18.16329,71.267
21.544346900318832,3030465.0,-37.44615,71.2799
46.41588833612777,3015451.0,-36.59516,71.3009
100.0,1859897.0,-72.18124,71.2874
215.44346900318823,582847.3,-81.70932,71.2764
464.15888336127773,325507.8,-37.00729,71.2878
1000.0,380646.7,-100.8009,71.2828
2154.4346900318824,404872.2,-78.8803,71.2768
4641.588833612777,192853.7,-73.09506,71.2647
10000.0,61930.87,-86.38024,71.278
