Frequency,Impedance,Phase Angle,Temperature (Dry Bath)
10.0,5757337.0,21.81915,71.3987
21.544346900318832,4085218.0,-15.8418,71.379
46.41588833612777,5786231.0,-20.22645,71.3817
100.0,1221240.0,-87.42968,71.3984
215.44346900318823,649164.8,-139.5405,71.4136
464.15888336127773,658876.9,161.2111,71.3892
1000.0,406765.5,-56.09026,71.4124
2154.4346900318824,260065.5,-83.63655,71.3772
4641.588833612777,160246.7,-75.70592,71.3788
10000.0,68214.95,-87.02163,71.4025
