Frequency,Impedance,Phase Angle,Temperature (Dry Bath)
10.0,103219.9,-14.13466,71.3668
21.544346900318832,94060.46,-12.41181,71.3738
46.41588833612777,85988.43,-11.07454,71.3658
100.0,105004.1,-12.79577,71.3728
215.44346900318823,30249.24,95.84982,71.3741
464.15888336127773,64528.09,-11.22037,71.3694
1000.0,55251.69,-15.35607,71.3629
2154.4346900318824,55608.56,-20.65226,71.3602
4641.588833612777,53554.08,-27.62641,71.3671
10000.0,37852.35,-42.29682,71.3719
