Frequency,Impedance,Phase Angle,Temperature (Dry Bath)
10.0,238598.6,-23.99643,71.3578
21.544346900318832,194173.4,-22.13504,71.3616
46.41588833612777,168202.3,-19.39858,71.3684
100.0,123651.4,-12.86817,71.3736
215.44346900318823,18619.48,66.95948,71.3638
464.15888336127773,106877.6,-5.502627,71.3655
1000.0,92258.88,-20.21389,71.3651
2154.4346900318824,85055.12,-25.32919,71.3564
4641.588833612777,61537.04,-42.30624,71.3712
10000.0,38958.04,-53.99374,71.3691
