Frequency,Impedance,Phase Angle,Temperature (Dry Bath)
10.0,8542474.0,-28.50855,70.7213
21.544346900318832,5867878.0,-12.20169,70.7289
46.41588833612777,5830456.0,-19.48018,70.7218
100.0,345324.5,-12.07595,70.7214
215.44346900318823,662567.4,-104.0833,70.7299
464.15888336127773,565494.8,57.88818,70.7373
1000.0,411991.6,-86.40118,70.7167
2154.4346900318824,176028.4,-99.30385,70.7306
4641.588833612777,119916.9,-78.57938,70.722
10000.0,54180.79,-82.16316,70.737
