Frequency,Impedance,Phase Angle,Temperature (Dry Bath)
10.0,3742533.0,-0.1805343,71.2331
21.544346900318832,4437530.0,-10.74394,71.225
46.41588833612777,4393303.0,-11.48361,71.215
100.0,690214.7,144.5604,71.2294
215.44346900318823,597632.5,5.672901,71.2309
464.15888336127773,3296452.0,-132.9997,71.2199
1000.0,610616.6,-61.17689,71.2283
2154.4346900318824,289501.8,-80.33287,71.2292
4641.588833612777,106427.3,-69.37401,71.2254
10000.0,70470.75,-93.27783,71.2384
