Frequency,Impedance,Phase Angle,Temperature (Dry Bath)
10.0,2945186.0,-11.73019,71.1225
21.544346900318832,2307916.0,-8.213521,71.124
46.41588833612777,1748776.0,-24.64753,71.1246
100.0,4574657.0,-124.4567,71.1306
215.44346900318823,418895.1,-83.49371,71.1365
464.15888336127773,940373.1,-86.75686,71.1271
1000.0,5892069.0,-42.62428,71.1136
2154.4346900318824,210956.4,-87.74569,71.1316
4641.588833612777,126431.4,-82.4409,71.1194
10000.0,63769.29,-89.31639,71.1091
