Frequency,Impedance,Phase Angle,Temperature (Dry Bath)
10.0,3653686.0,-6.463121,71.0504
21.544346900318832,5203395.0,2.569556,71.0498
46.41588833612777,3857446.0,-14.28159,71.048
100.0,494557.6,44.57046,71.0618
215.44346900318823,1397917.0,4.940033,71.0633
464.15888336127773,329366.3,38.51045,71.0602
1000.0,361267.8,-135.1879,71.0729
2154.4346900318824,328155.8,-28.68349,71.0617
4641.588833612777,236850.6,-108.9358,71.065
10000.0,178315.7,-98.23026,71.054
