Frequency,Impedance,Phase Angle,Temperature (Dry Bath)
10.0,3872463.0,-27.52163,71.1686
21.544346900318832,3647638.0,-18.27972,71.1714
46.41588833612777,3253472.0,-30.18292,71.1753
100.0,540448.1,-158.6796,71.1739
215.44346900318823,642467.2,-41.6747,71.1705
464.15888336127773,661952.1,29.53034,71.1649
1000.0,439155.3,-92.89068,71.1587
2154.4346900318824,229000.6,-95.80504,71.1701
4641.588833612777,70547.18,-85.33362,71.1568
10000.0,54240.65,-87.7329,71.1593
