Frequency,Impedance,Phase Angle,Temperature (Dry Bath)
10.0,5442839.0,7.285389,71.3661
21.544346900318832,5836320.0,-11.40638,71.3651
46.41588833612777,3779366.0,8.736804,71.3659
100.0,480462.9,-68.27844,71.357
215.44346900318823,2048946.0,-17.91441,71.3568
464.15888336127773,4522328.0,-26.72537,71.3516
1000.0,787188.7,-35.49245,71.364
2154.4346900318824,635242.8,-89.28984,71.3553
4641.588833612777,283687.9,-55.73542,71.3443
10000.0,160326.6,-83.38727,71.357
