Frequency,Impedance,Phase Angle,Temperature (Dry Bath)
10.0,56181.03,-17.14413,70.7826
21.544346900318832,49581.88,-15.066,70.7995
46.41588833612777,44540.95,-14.36763,70.7863
100.0,37389.84,-14.19649,70.7886
215.44346900318823,34546.71,-14.03221,70.7922
464.15888336127773,33208.72,-15.51272,70.8002
1000.0,28409.06,-14.34187,70.7887
2154.4346900318824,26729.93,-11.59919,70.7997
4641.588833612777,24666.46,-18.84796,70.8129
10000.0,21224.85,-27.86495,70.797
