Frequency,Impedance,Phase Angle,Temperature (Dry Bath)
10.0,2567411.0,-2.965486,71.128
21.544346900318832,2288129.0,-15.31288,71.1283
46.41588833612777,2158269.0,-0.005929312,71.1259
100.0,321200.5,28.53443,71.1482
215.44346900318823,1002961.0,163.089,71.1459
464.15888336127773,449360.8,-109.106,71.1234
1000.0,1071075.0,-56.62998,71.1236
2154.4346900318824,261699.1,-101.127,71.1439
4641.588833612777,240998.0,-165.0455,71.1376
10000.0,154400.4,-91.63977,71.1277
