Frequency,Impedance,Phase Angle,Temperature (Dry Bath)
10.0,5324951.0,-21.19238,70.803
21.544346900318832,6999851.0,-20.71048,70.8177
46.41588833612777,4405607.0,-23.72433,70.8208
100.0,970316.0,133.166,70.8119
215.44346900318823,9076452.0,131.3031,70.8177
464.15888336127773,6258029.0,-48.97384,70.8284
1000.0,709478.9,-74.86556,70.8198
2154.4346900318824,437448.6,-57.74849,70.8221
4641.588833612777,119057.7,-73.13789,70.8315
10000.0,59139.78,-93.61225,70.8195
