Frequency,Impedance,Phase Angle,Temperature (Dry Bath)
10.0,4251044.0,-5.146314,70.7094
21.544346900318832,5399756.0,-17.17506,70.7096
46.41588833612777,3971379.0,-19.26108,70.7095
100.0,756979.0,-143.3772,70.7044
215.44346900318823,2765363.0,-25.89858,70.6922
464.15888336127773,1379811.0,-158.1216,70.7046
1000.0,579498.9,-37.22206,70.704
2154.4346900318824,217143.5,-97.97603,70.7061
4641.588833612777,123703.7,-96.93801,70.7047
10000.0,63294.22,-83.86963,70.6951
