Frequency,Impedance,Phase Angle,Temperature (Dry Bath)
10.0,6432.591,-36.60527,70.8479
21.544346900318832,4835.169,-31.5926,70.8512
46.41588833612777,3798.458,-26.80922,70.8581
100.0,3117.723,-22.70069,70.8576
215.44346900318823,2629.854,-18.76513,70.8388
464.15888336127773,2297.305,-15.4514,70.8398
1000.0,2043.164,-12.87913,70.8431
2154.4346900318824,1859.895,-10.98097,70.8496
4641.588833612777,1714.612,-9.526682,70.8435
10000.0,1605.118,-8.7353,70.8498
