Frequency,Impedance,Phase Angle,Temperature (Dry Bath)
10.0,32630.17,-30.02835,71.4527
21.544346900318832,25507.18,-28.53929,71.445
46.41588833612777,20106.55,-26.59631,71.4593
100.0,16701.49,-23.2242,71.4504
215.44346900318823,13223.9,-21.36483,71.443
464.15888336127773,11238.27,-18.51642,71.4568
1000.0,10055.23,-16.55998,71.4369
2154.4346900318824,8821.008,-14.07262,71.4491
4641.588833612777,8109.817,-14.49305,71.476
10000.0,7428.422,-16.23747,71.4559
