Frequency,Impedance,Phase Angle,Temperature (Dry Bath)
10.0,8701.795,-25.83647,70.8685
21.544346900318832,7102.808,-22.61119,70.8699
46.41588833612777,5958.458,-19.53476,70.8633
100.0,5122.836,-16.56943,70.8539
215.44346900318823,4562.002,-14.44055,70.8751
464.15888336127773,4122.443,-12.03904,70.8648
1000.0,3695.757,-10.80448,70.851
2154.4346900318824,3420.601,-9.17051,70.8541
4641.588833612777,3225.535,-8.544369,70.852
10000.0,3052.476,-9.450499,70.8511
