Frequency,Impedance,Phase Angle,Temperature (Dry Bath)
10.0,5468300.0,21.71357,71.1865
21.544346900318832,4793891.0,-10.34344,71.1791
46.41588833612777,6044530.0,-26.91254,71.1757
100.0,1603921.0,129.9579,71.1837
215.44346900318823,1344262.0,97.80798,71.1816
464.15888336127773,3688432.0,54.6116,71.1728
1000.0,2301239.0,-117.3684,71.1849
2154.4346900318824,726612.8,-108.0499,71.1872
4641.588833612777,223809.9,-61.61391,71.1851
10000.0,192819.5,-81.77399,71.1764
