Frequency,Impedance,Phase Angle,Temperature (Dry Bath)
10.0,11805.79,-27.27683,70.9635
21.544346900318832,9522.231,-24.01327,70.9746
46.41588833612777,7878.848,-20.89349,70.9768
100.0,6590.095,-16.92986,70.9784
215.44346900318823,5908.995,-15.03047,70.9741
464.15888336127773,5267.036,-13.08393,70.9688
1000.0,4792.524,-11.22309,70.982
2154.4346900318824,4465.16,-10.46702,70.9719
4641.588833612777,4109.042,-10.16032,70.9748
10000.0,3787.913,-12.23709,70.9775
