Frequency,Impedance,Phase Angle,Temperature (Dry Bath)
10.0,1721632.0,-23.71574,70.5065
21.544346900318832,1619025.0,-29.55768,70.5275
46.41588833612777,1240229.0,-27.69281,70.5359
100.0,471492.1,44.70913,70.5189
215.44346900318823,431319.4,154.8327,70.5385
464.15888336127773,1688967.0,22.09829,70.5115
1000.0,203833.3,-87.58172,70.5348
2154.4346900318824,256349.7,-60.11314,70.5562
4641.588833612777,144980.5,-90.8171,70.5431
10000.0,63451.27,-91.68421,70.5494
