Frequency,Impedance,Phase Angle,Temperature (Dry Bath)
10.0,5143166.0,19.44936,71.4631
21.544346900318832,5080897.0,3.61515,71.4739
46.41588833612777,3665655.0,-29.93259,71.4601
100.0,2003301.0,-133.5925,71.4588
215.44346900318823,2653692.0,-169.4592,71.4787
464.15888336127773,420860.2,-140.0251,71.4831
1000.0,237939.1,159.5766,71.4652
2154.4346900318824,211615.0,-93.1391,71.4961
4641.588833612777,97341.73,-87.5955,71.48
10000.0,57518.02,-87.50972,71.4979
