Frequency,Impedance,Phase Angle,Temperature (Dry Bath)
10.0,7470064.0,5.289586,70.6274
21.544346900318832,3397760.0,-18.63428,70.624
46.41588833612777,6106168.0,-36.67614,70.6547
100.0,607639.0,107.7206,70.6355
215.44346900318823,868349.7,-46.175,70.6525
464.15888336127773,405088.8,-102.9562,70.637
1000.0,1257454.0,-136.9892,70.6591
2154.4346900318824,373196.0,-37.27253,70.648
4641.588833612777,120041.2,-81.60396,70.6571
10000.0,56142.29,-94.84946,70.6493
