Frequency,Impedance,Phase Angle,Temperature (Dry Bath)
10.0,24547.45,-20.16415,71.2852
21.544346900318832,21003.68,-17.81335,71.2808
46.41588833612777,18247.02,-15.67416,71.3013
100.0,15833.0,-13.3566,71.2918
215.44346900318823,14769.44,-10.40824,71.3039
464.15888336127773,13392.68,-10.74438,71.3025
1000.0,12270.84,-8.123269,71.2912
2154.4346900318824,11535.27,-9.631916,71.2745
4641.588833612777,10720.97,-11.18562,71.3163
10000.0,10152.0,-15.67622,71.3081
