Frequency,Impedance,Phase Angle,Temperature (Dry Bath)
10.0,5325804.0,-15.46207,70.923
21.544346900318832,4479623.0,-26.0089,70.9071
46.41588833612777,4998860.0,-34.01324,70.9071
100.0,2798058.0,-81.69804,70.9299
215.44346900318823,1226658.0,-25.95247,70.9132
464.15888336127773,1268441.0,-89.12414,70.9241
1000.0,376919.0,-44.82034,70.9317
2154.4346900318824,241066.4,-96.08502,70.9214
4641.588833612777,124808.4,-88.98613,70.9315
10000.0,52789.74,-83.82379,70.919
