Frequency,Impedance,Phase Angle,Temperature (Dry Bath)
10.0,6043434.0,7.604797,71.0693
21.544346900318832,9097673.0,-19.10631,71.0753
46.41588833612777,4798114.0,-19.95871,71.0773
100.0,505421.8,-115.5468,71.0848
215.44346900318823,906750.3,-98.67591,71.0853
464.15888336127773,1426824.0,132.9996,71.0807
1000.0,790764.1,-80.90082,71.0904
2154.4346900318824,401577.6,-104.5576,71.0919
4641.588833612777,414885.9,-47.49942,71.0855
10000.0,140219.3,-86.26483,71.0784
