Frequency,Impedance,Phase Angle,Temperature (Dry Bath)
10.0,604050.2,-4.626314,71.598
21.544346900318832,564218.0,-2.673194,71.5716
46.41588833612777,545866.3,-5.58615,71.5735
100.0,769853.8,-4.791139,71.5812
215.44346900318823,315699.2,-33.35162,71.5657
464.15888336127773,691139.4,-58.81815,71.5761
1000.0,516254.7,-21.0095,71.5688
2154.4346900318824,273410.8,-43.64762,71.5692
4641.588833612777,216699.6,-39.11199,71.5558
10000.0,96618.34,-76.65807,71.5809
