Frequency,Impedance,Phase Angle,Temperature (Dry Bath)
10.0,4980694.0,5.533203,71.6277
21.544346900318832,7535778.0,20.84609,71.6453
46.41588833612777,4973438.0,-13.68805,71.6417
100.0,451311.7,36.21055,71.6345
215.44346900318823,372049.0,12.36575,71.6148
464.15888336127773,827641.3,-20.79273,71.6173
1000.0,312115.8,-10.92825,71.6257
2154.4346900318824,510453.8,-62.93602,71.6301
4641.588833612777,284214.1,-121.5021,71.6159
10000.0,158772.2,-60.28338,71.6258
