Frequency,Impedance,Phase Angle,Temperature (Dry Bath)
10.0,46318.08,-19.83295,71.2119
21.544346900318832,39253.63,-19.93257,71.2149
46.41588833612777,33558.62,-20.47804,71.2239
100.0,28531.69,-16.29919,71.2363
215.44346900318823,22936.52,-22.69444,71.2183
464.15888336127773,19847.41,-24.41439,71.2285
1000.0,14567.26,-25.69376,71.2319
2154.4346900318824,12294.6,-23.7819,71.2214
4641.588833612777,10223.23,-24.19669,71.1977
10000.0,8379.274,-22.86466,71.2336
