Frequency,Impedance,Phase Angle,Temperature (Dry Bath)
10.0,4604195.0,-14.17946,71.5369
21.544346900318832,4456968.0,-3.501718,71.5192
46.41588833612777,8465798.0,-3.313179,71.5413
100.0,599540.9,23.6815,71.5351
215.44346900318823,1155407.0,-154.083,71.5354
464.15888336127773,596478.0,59.4403,71.538
1000.0,499498.6,-108.853,71.5442
2154.4346900318824,2678358.0,-173.5091,71.5349
4641.588833612777,255533.5,-76.22941,71.5097
10000.0,127926.2,-79.77675,71.5378
