Frequency,Impedance,Phase Angle,Temperature (Dry Bath)
10.0,4457896.0,-6.696575,70.9233
21.544346900318832,6341633.0,-18.45457,70.9123
46.41588833612777,5777975.0,-20.19489,70.9271
100.0,700392.8,-10.19608,70.9059
215.44346900318823,409092.0,5.533497,70.9056
464.15888336127773,615674.2,-68.01071,70.9133
1000.0,724618.2,-140.3731,70.9061
2154.4346900318824,263145.0,-111.7129,70.9185
4641.588833612777,153915.8,-84.1849,70.9138
10000.0,59882.69,-92.05327,70.9255
