Frequency,Impedance,Phase Angle,Temperature (Dry Bath)
10.0,599291.7,-3.224326,71.6508
21.544346900318832,571499.5,-4.040168,71.6249
46.41588833612777,582375.4,-5.793813,71.6414
100.0,324581.8,-23.04671,71.635
215.44346900318823,579347.0,-14.5138,71.6315
464.15888336127773,440641.1,-36.47988,71.6408
1000.0,489175.7,-39.24138,71.6443
2154.4346900318824,404918.9,-58.54513,71.63
4641.588833612777,209122.0,-78.01476,71.6253
10000.0,101519.9,-67.8629,71.6303
