Frequency,Impedance,Phase Angle,Temperature (Dry Bath)
10.0,3401773.0,8.253133,71.1296
21.544346900318832,4535243.0,-8.631316,71.1218
46.41588833612777,4144915.0,-12.37352,71.1404
100.0,1013141.0,-5.654894,71.1349
215.44346900318823,413774.4,94.24867,71.1313
464.15888336127773,810665.6,-127.344,71.1331
1000.0,293129.1,-38.23361,71.1432
2154.4346900318824,2605554.0,-77.37336,71.119
4641.588833612777,211223.5,-92.80216,71.1289
10000.0,100117.1,-56.75739,71.1338
