Frequency,Impedance,Phase Angle,Temperature (Dry Bath)
10.0,13160.7,-27.69073,70.9775
21.544346900318832,10513.85,-25.16935,70.9761
46.41588833612777,8577.016,-22.47007,70.9523
100.0,7170.001,-20.23738,70.967
215.44346900318823,6170.658,-17.15718,70.9573
464.15888336127773,5423.901,-15.27821,70.9553
1000.0,4852.046,-13.56777,70.9739
2154.4346900318824,4359.187,-12.40487,70.9495
4641.588833612777,3976.164,-11.96732,70.969
10000.0,3637.438,-12.7726,70.9771
