Frequency,Impedance,Phase Angle,Temperature (Dry Bath)
10.0,8145131.0,-2.335015,70.9153
21.544346900318832,4129957.0,-29.24956,70.93
46.41588833612777,4576780.0,-21.223,70.9144
100.0,722848.6,-147.8209,70.9199
215.44346900318823,1959873.0,-6.198823,70.9349
464.15888336127773,2791514.0,-59.50592,70.9302
1000.0,716396.1,-77.63618,70.926
2154.4346900318824,299679.3,-89.1328,70.9199
4641.588833612777,97291.09,-93.81514,70.8978
10000.0,62131.3,-89.68485,70.8953
