Frequency,Impedance,Phase Angle,Temperature (Dry Bath)
10.0,5273699.0,5.334823,71.1339
21.544346900318832,3202907.0,6.00981,71.1414
46.41588833612777,3463212.0,-8.591336,71.1286
100.0,483850.8,-123.1284,71.1261
215.44346900318823,2772667.0,-157.214,71.1406
464.15888336127773,690925.3,-63.07706,71.1314
1000.0,397451.0,-62.63561,71.1425
2154.4346900318824,556167.4,-41.91537,71.1454
4641.588833612777,125993.3,-81.39265,71.1322
10000.0,66142.09,-87.36976,71.1143
