Frequency,Impedance,Phase Angle,Temperature (Dry Bath)
10.0,5365462.0,13.11631,71.0043
21.544346900318832,7272393.0,-35.87633,71.0024
46.41588833612777,4911881.0,-19.51661,71.0058
100.0,558319.9,-24.07791,71.0206
215.44346900318823,544742.3,108.0019,71.0136
464.15888336127773,509849.6,163.5713,71.0034
1000.0,621609.5,-170.2783,71.0027
2154.4346900318824,582402.6,80.95158,71.0143
4641.588833612777,359519.3,-63.38176,71.0073
10000.0,296981.0,-96.04559,71.0095
