Frequency,Impedance,Phase Angle,Temperature (Dry Bath)
10.0,5559794.0,3.648789,70.6464
21.544346900318832,6462611.0,-57.15038,70.6288
46.41588833612777,4231059.0,-39.8749,70.633
100.0,556483.3,-13.65152,70.6431
215.44346900318823,1232785.0,-120.8034,70.6383
464.15888336127773,545033.5,-40.011,70.6404
1000.0,344904.9,-50.82983,70.6323
2154.4346900318824,220507.9,-87.11852,70.6265
4641.588833612777,99374.99,-83.47715,70.6506
10000.0,56056.19,-84.87638,70.6256
