Frequency,Impedance,Phase Angle,Temperature (Dry Bath)
10.0,4703830.0,-6.999275,70.7327
21.544346900318832,4074023.0,19.24219,70.7219
46.41588833612777,4565987.0,-23.75469,70.7309
100.0,1957845.0,-34.15573,70.717
215.44346900318823,796610.2,-131.268,70.7307
464.15888336127773,1139192.0,-8.722044,70.7273
1000.0,3520028.0,-60.39684,70.7334
2154.4346900318824,221407.5,-47.55304,70.7277
4641.588833612777,100802.3,-71.70576,70.733
10000.0,51655.15,-89.04128,70.726
