Frequency,Impedance,Phase Angle,Temperature (Dry Bath)
10.0,4202502.0,-8.904122,71.3554
21.544346900318832,3199228.0,-24.85043,71.3686
46.41588833612777,2547117.0,-35.09368,71.3507
100.0,378083.1,-158.9932,71.3617
215.44346900318823,633017.5,-93.78865,71.3699
464.15888336127773,367084.3,-80.66499,71.3723
1000.0,354446.3,-61.34021,71.3748
2154.4346900318824,251034.3,-53.48695,71.3648
4641.588833612777,122060.6,-93.35997,71.3702
10000.0,69667.46,-89.3028,71.3601
