Frequency,Impedance,Phase Angle,Temperature (Dry Bath)
10.0,4893553.0,9.221666,71.2925
21.544346900318832,3342499.0,-32.4713,71.2929
46.41588833612777,4423818.0,-36.29033,71.2994
100.0,327117.4,57.00861,71.2919
215.44346900318823,1228533.0,-49.98066,71.2802
464.15888336127773,596368.2,-13.42193,71.2913
1000.0,362471.6,-69.31607,71.2816
2154.4346900318824,311434.0,-103.4368,71.2888
4641.588833612777,121806.8,-85.66876,71.2979
10000.0,56310.23,-79.68447,71.2934
