Frequency,Impedance,Phase Angle,Temperature (Dry Bath)
10.0,4697731.0,-24.47593,70.8174
21.544346900318832,3589729.0,-13.2632,70.814
46.41588833612777,3811840.0,-17.16322,70.7829
100.0,3288772.0,-109.3287,70.7925
215.44346900318823,572712.4,-16.12314,70.7991
464.15888336127773,697759.1,28.48143,70.8019
1000.0,217929.2,-76.7067,70.7889
2154.4346900318824,248384.0,-75.23021,70.7934
4641.588833612777,128731.4,-76.5702,70.8076
10000.0,54208.26,-88.27845,70.8012
