Frequency,Impedance,Phase Angle,Temperature (Dry Bath)
10.0,5731101.0,6.275336,70.7466
21.544346900318832,5273348.0,-16.18305,70.7491
46.41588833612777,5144954.0,-32.2386,70.7534
100.0,393425.7,-6.69417,70.7546
215.44346900318823,1007048.0,-6.760457,70.7444
464.15888336127773,788300.7,-84.76661,70.7497
1000.0,2904223.0,-140.5769,70.7536
2154.4346900318824,260803.9,-92.08281,70.747
4641.588833612777,122283.5,-97.18194,70.7423
10000.0,57816.58,-82.47591,70.7583
