Frequency,Impedance,Phase Angle,Temperature (Dry Bath)
10.0,4824609.0,-8.921304,71.3921
21.544346900318832,3983862.0,-4.878331,71.3873
46.41588833612777,5630196.0,-8.020592,71.3917
100.0,1109543.0,-26.16837,71.4059
215.44346900318823,677548.7,-85.36206,71.3918
464.15888336127773,916626.5,17.3874,71.387
1000.0,556069.3,-59.7914,71.4028
2154.4346900318824,513957.6,-129.9615,71.3767
4641.588833612777,262841.6,-97.23822,71.3859
10000.0,129633.1,-89.42927,71.3833
