Frequency,Impedance,Phase Angle,Temperature (Dry Bath)
10.0,17142.82,-24.23455,71.5453
21.544346900318832,13849.32,-25.54168,71.5287
46.41588833612777,11018.83,-26.36209,71.5301
100.0,8685.759,-26.02541,71.5459
215.44346900318823,6984.74,-25.48696,71.5341
464.15888336127773,5636.746,-23.31481,71.5327
1000.0,4640.549,-21.42544,71.5523
2154.4346900318824,3906.226,-18.94786,71.5431
4641.588833612777,3360.984,-16.93012,71.5571
10000.0,2954.611,-15.66093,71.558
