Frequency,Impedance,Phase Angle,Temperature (Dry Bath)
10.0,4351705.0,-27.35163,70.7935
21.544346900318832,5116440.0,1.696127,70.7828
46.41588833612777,4173983.0,-21.81029,70.8082
100.0,299543.9,66.37749,70.8034
215.44346900318823,735055.1,11.0651,70.7989
464.15888336127773,1322933.0,-31.95503,70.8057
1000.0,2626687.0,-109.2707,70.8
2154.4346900318824,252835.1,-62.69952,70.8144
4641.588833612777,134233.4,-76.81158,70.8009
10000.0,51284.17,-83.45948,70.7875
