Frequency,Impedance,Phase Angle,Temperature (Dry Bath)
10.0,5356988.0,-1.529793,71.3988
21.544346900318832,4886001.0,-25.25748,71.3867
46.41588833612777,5206576.0,-21.65752,71.3749
100.0,782778.7,13.69043,71.3903
215.44346900318823,963960.2,-62.37557,71.3835
464.15888336127773,2288016.0,-101.3641,71.3959
1000.0,7661568.0,127.0322,71.3706
2154.4346900318824,451741.7,-66.61099,71.3936
4641.588833612777,249596.1,-100.2005,71.3892
10000.0,135921.0,-81.31252,71.3961
