Frequency,Impedance,Phase Angle,Temperature (Dry Bath)
10.0,4099668.0,-1.155316,71.2335
21.544346900318832,5565900.0,-8.338677,71.235
46.41588833612777,5786400.0,-32.10884,71.2357
100.0,628310.2,98.16091,71.2505
215.44346900318823,261727.8,-13.91481,71.2424
464.15888336127773,2292491.0,140.1253,71.2405
1000.0,3790751.0,-168.4016,71.2458
2154.4346900318824,303548.9,-82.41601,71.2518
4641.588833612777,189936.4,-81.61462,71.2344
10000.0,63360.47,-93.71191,71.2558
