Frequency,Impedance,Phase Angle,Temperature (Dry Bath)
10.0,12365.78,-26.93274,71.284
21.544346900318832,9943.102,-24.3617,71.2547
46.41588833612777,8192.983,-21.53855,71.2325
100.0,6934.382,-18.59685,71.238
215.44346900318823,6077.227,-16.37029,71.2605
464.15888336127773,5320.848,-14.62685,71.2592
1000.0,4684.158,-12.9044,71.2285
2154.4346900318824,4296.942,-11.78737,71.2249
4641.588833612777,3918.458,-11.10674,71.2509
10000.0,3598.473,-11.95592,71.2459
