Frequency,Impedance,Phase Angle,Temperature (Dry Bath)
10.0,157823.9,-10.75157,70.8985
21.544346900318832,145902.9,-10.32116,70.9062
46.41588833612777,133313.3,-9.948152,70.9002
100.0,125729.6,-13.2447,70.9127
215.44346900318823,128848.2,-10.0454,70.9232
464.15888336127773,102993.3,-21.53276,70.9132
1000.0,91690.72,-14.86601,70.912
2154.4346900318824,80171.81,-29.20174,70.9326
4641.588833612777,77526.45,-37.61364,70.9225
10000.0,44380.19,-62.14842,70.9346
