Frequency,Impedance,Phase Angle,Temperature (Dry Bath)
10.0,4845914.0,8.313173,71.0088
21.544346900318832,7905096.0,-19.78821,71.0243
46.41588833612777,4760451.0,-20.43069,71.0248
100.0,701792.0,33.7633,71.016
215.44346900318823,1060024.0,-112.5374,71.0157
464.15888336127773,1158405.0,106.4697,71.0245
1000.0,591028.6,-103.3419,71.0151
2154.4346900318824,224030.4,-77.11934,71.0051
4641.588833612777,147945.3,-96.46012,71.0193
10000.0,59375.92,-90.02404,71.0206
