Frequency,Impedance,Phase Angle,Temperature (Dry Bath)
10.0,150256.2,-11.93909,71.164
21.544346900318832,133502.3,-11.88831,71.1799
46.41588833612777,125973.4,-10.49405,71.1584
100.0,120871.2,-12.05785,71.1596
215.44346900318823,109505.0,-8.805186,71.1779
464.15888336127773,100848.9,-18.09008,71.1698
1000.0,111967.3,-3.622888,71.1817
2154.4346900318824,96298.45,-31.61328,71.1851
4641.588833612777,63180.81,-52.38386,71.15
10000.0,38834.58,-58.5148,71.1712
