Frequency,Impedance,Phase Angle,Temperature (Dry Bath)
10.0,4438485.0,-12.52835,71.4124
21.544346900318832,5836517.0,5.044712,71.4186
46.41588833612777,3564440.0,-26.86325,71.4213
100.0,1082558.0,-87.67885,71.4163
215.44346900318823,457069.2,-96.39346,71.4413
464.15888336127773,766828.1,-55.18025,71.4194
1000.0,525303.5,166.2721,71.4346
2154.4346900318824,382787.4,-89.53186,71.441
4641.588833612777,136253.6,-82.21549,71.4311
10000.0,83014.57,-89.49759,71.4239
