Frequency,Impedance,Phase Angle,Temperature (Dry Bath)
10.0,4921876.0,7.270288,71.4722
21.544346900318832,8344823.0,21.48852,71.4561
46.41588833612777,5610729.0,-12.89665,71.4537
100.0,840002.9,-44.55336,71.4562
215.44346900318823,2288430.0,-116.3728,71.4547
464.15888336127773,925511.4,-87.01208,71.4723
1000.0,1092671.0,-77.1953,71.4486
2154.4346900318824,398027.1,-105.1918,71.4491
4641.588833612777,228509.7,-75.99121,71.4607
10000.0,210401.4,-88.48229,71.4682
