Frequency,Impedance,Phase Angle,Temperature (Dry Bath)
10.0,4325839.0,12.93027,71.6341
21.544346900318832,4023438.0,-21.96534,71.6466
46.41588833612777,5054870.0,-22.43604,71.6483
100.0,910340.6,-2.571249,71.6465
215.44346900318823,1062991.0,-23.87687,71.6401
464.15888336127773,866785.7,-58.78682,71.6382
1000.0,475060.9,-36.66958,71.6517
2154.4346900318824,595267.0,-71.97518,71.6522
4641.588833612777,320684.1,-89.54188,71.6254
10000.0,134859.6,-83.3424,71.6261
