Frequency,Impedance,Phase Angle,Temperature (Dry Bath)
10.0,61565.41,-13.6885,71.1467
21.544346900318832,55349.08,-12.7884,71.1459
46.41588833612777,50190.68,-11.41106,71.1624
100.0,50538.36,-7.74076,71.1687
215.44346900318823,45440.69,-8.614198,71.1637
464.15888336127773,45795.13,-3.414458,71.1463
1000.0,39360.22,-4.617005,71.1637
2154.4346900318824,37061.69,-8.750868,71.1586
4641.588833612777,30601.61,-6.739623,71.1443
10000.0,34277.37,-17.30386,71.1697
