Frequency,Impedance,Phase Angle,Temperature (Dry Bath)
10.0,806361.4,-32.61003,71.3376
21.544346900318832,659539.6,-26.96221,71.3658
46.41588833612777,467338.1,-29.84956,71.3319
100.0,348287.1,9.834451,71.3406
215.44346900318823,83687.08,100.2419,71.3361
464.15888336127773,350627.0,-27.06254,71.3391
1000.0,328307.2,-35.9553,71.3413
2154.4346900318824,162244.8,-55.8509,71.344
4641.588833612777,97388.78,-68.47204,71.3459
10000.0,54003.67,-77.50465,71.3476
