Frequency,Impedance,Phase Angle,Temperature (Dry Bath)
10.0,4203922.0,-22.37813,71.4808
21.544346900318832,6696738.0,2.944105,71.5
46.41588833612777,5470524.0,5.62411,71.4954
100.0,499996.7,15.1988,71.4934
215.44346900318823,945709.3,-37.03486,71.483
464.15888336127773,955847.4,-155.0398,71.4944
1000.0,809185.3,-52.43035,71.4981
2154.4346900318824,430968.9,-77.46872,71.4889
4641.588833612777,265736.5,-95.4555,71.5092
10000.0,166189.9,-89.76439,71.4972
