Frequency,Impedance,Phase Angle,Temperature (Dry Bath)
10.0,40780.09,-30.2149,71.2466
21.544346900318832,31741.37,-28.97768,71.256
46.41588833612777,24780.28,-27.30509,71.2416
100.0,19688.05,-24.60679,71.2599
215.44346900318823,15995.7,-21.75458,71.2441
464.15888336127773,13952.71,-19.79244,71.2628
1000.0,11797.96,-17.5448,71.2476
2154.4346900318824,10109.8,-15.48328,71.244
4641.588833612777,9153.308,-16.00084,71.2509
10000.0,8412.607,-17.4288,71.2482
