Frequency,Impedance,Phase Angle,Temperature (Dry Bath)
10.0,9700.555,-27.09368,70.6046
21.544346900318832,7699.876,-26.41999,70.5969
46.41588833612777,6147.219,-25.0111,70.5932
100.0,4984.83,-23.60311,70.6148
215.44346900318823,4127.456,-20.19707,70.607
464.15888336127773,3505.204,-18.11482,70.6094
1000.0,3056.744,-15.07107,70.6074
2154.4346900318824,2746.095,-13.18899,70.599
4641.588833612777,2489.742,-12.08447,70.6039
10000.0,2304.22,-12.25802,70.6096
