Frequency,Impedance,Phase Angle,Temperature (Dry Bath)
10.0,156181.9,-10.61827,70.9526
21.544346900318832,145220.0,-11.10988,70.9645
46.41588833612777,134001.9,-9.371419,70.9498
100.0,101415.2,-13.87613,70.9506
215.44346900318823,113159.1,-3.896077,70.9939
464.15888336127773,100508.6,-15.58349,70.9664
1000.0,102654.7,-20.90112,70.9447
2154.4346900318824,87955.22,-35.1979,70.9575
4641.588833612777,65759.33,-38.0043,70.9562
10000.0,44864.06,-62.38664,70.9454
