Frequency,Impedance,Phase Angle,Temperature (Dry Bath)
10.0,5769007.0,-6.471306,71.2857
21.544346900318832,5213968.0,3.119724,71.288
46.41588833612777,4171258.0,-4.036532,71.2857
100.0,911591.6,-58.70733,71.3012
215.44346900318823,451572.4,119.1956,71.3096
464.15888336127773,594302.6,-103.0333,71.3037
1000.0,887047.0,-27.10273,71.2938
2154.4346900318824,381454.1,-61.61323,71.2874
4641.588833612777,140040.2,-83.6708,71.3126
10000.0,65649.21,-88.00144,71.3076
