Frequency,Impedance,Phase Angle,Temperature (Dry Bath)
10.0,3720618.0,-26.31092,71.3337
21.544346900318832,6824326.0,4.285692,71.358
46.41588833612777,5252607.0,-36.72639,71.3344
100.0,596435.9,-103.6248,71.3456
215.44346900318823,8919.693,26.46619,71.3244
464.15888336127773,890799.5,-84.924,71.3289
1000.0,531630.2,-82.80888,71.3294
2154.4346900318824,252504.2,-98.21319,71.3424
4641.588833612777,143203.5,-92.5245,71.3479
10000.0,68381.19,-89.06672,71.33
