Frequency,Impedance,Phase Angle,Temperature (Dry Bath)
10.0,5964799.0,7.687676,71.6216
21.544346900318832,6145210.0,-26.34521,71.595
46.41588833612777,3524275.0,-12.08257,71.6292
100.0,423552.0,107.2074,71.6194
215.44346900318823,562330.9,-37.33499,71.6061
464.15888336127773,481982.2,-92.77824,71.6112
1000.0,511376.4,135.2261,71.6254
2154.4346900318824,201671.5,-26.21067,71.624
4641.588833612777,249332.0,-70.26125,71.6308
10000.0,138525.6,-82.51618,71.6113
