Frequency,Impedance,Phase Angle,Temperature (Dry Bath)
10.0,7944376.0,21.99232,71.0663
21.544346900318832,7088774.0,-21.43124,71.0632
46.41588833612777,3672821.0,-32.12137,71.0799
100.0,643444.0,-59.40433,71.0678
215.44346900318823,497173.1,-129.3534,71.0785
464.15888336127773,951856.2,-99.65073,71.0761
1000.0,620150.6,-14.73659,71.0705
2154.4346900318824,439657.1,-73.44448,71.0669
4641.588833612777,132233.0,-93.47831,71.0765
10000.0,66682.15,-93.94036,71.0707
