Frequency,Impedance,Phase Angle,Temperature (Dry Bath)
10.0,6068020.0,8.362152,70.7639
21.544346900318832,15308490.0,-26.98259,70.7532
46.41588833612777,3500593.0,-20.29428,70.7665
100.0,2251229.0,-59.42322,70.761
215.44346900318823,419179.0,-129.2171,70.7565
464.15888336127773,570463.6,-7.25612,70.7586
1000.0,708291.9,33.46442,70.7534
2154.4346900318824,177679.8,-98.4837,70.7637
4641.588833612777,92863.06,-88.61872,70.7718
10000.0,69725.52,-81.16082,70.7568
