Frequency,Impedance,Phase Angle,Temperature (Dry Bath)
10.0,3431049.0,6.690456,71.2415
21.544346900318832,5545048.0,-10.6399,71.2347
46.41588833612777,4955617.0,-37.99916,71.2333
100.0,761121.6,114.3741,71.2302
215.44346900318823,494854.8,140.5184,71.2293
464.15888336127773,643300.1,-70.98506,71.2469
1000.0,978825.4,-158.8395,71.2456
2154.4346900318824,257412.7,-65.82739,71.227
4641.588833612777,121055.4,-84.53397,71.2276
10000.0,65151.07,-79.35285,71.2339
