Frequency,Impedance,Phase Angle,Temperature (Dry Bath)
10.0,4865476.0,-0.7785901,71.4603
21.544346900318832,7580676.0,10.4031,71.473
46.41588833612777,3978173.0,-35.92776,71.473
100.0,1128674.0,-102.9692,71.4737
215.44346900318823,2032428.0,37.46441,71.4632
464.15888336127773,467776.5,-49.22397,71.4659
1000.0,366420.6,-103.2791,71.4614
2154.4346900318824,185378.6,-105.412,71.4594
4641.588833612777,193711.1,-81.39991,71.4709
10000.0,68437.34,-89.41972,71.4579
