Frequency,Impedance,Phase Angle,Temperature (Dry Bath)
10.0,65714.24,-32.69842,71.384
21.544346900318832,50609.77,-30.22784,71.383
46.41588833612777,39165.47,-27.40342,71.3925
100.0,31740.4,-27.66782,71.3701
215.44346900318823,25672.47,-22.62281,71.3727
464.15888336127773,22247.34,-19.63679,71.3822
1000.0,18979.76,-17.06514,71.3796
2154.4346900318824,16620.94,-14.80564,71.3919
4641.588833612777,15348.13,-14.85651,71.4106
10000.0,13730.86,-15.52119,71.3954
