Frequency,Impedance,Phase Angle,Temperature (Dry Bath)
10.0,5521649.0,9.779547,71.3017
21.544346900318832,4009789.0,-20.24422,71.2992
46.41588833612777,3755397.0,-31.60708,71.2907
100.0,2031771.0,177.402,71.3018
215.44346900318823,503767.1,35.7709,71.2985
464.15888336127773,646382.8,-77.73887,71.2949
1000.0,512676.7,-85.03048,71.2958
2154.4346900318824,271909.4,-94.49294,71.3046
4641.588833612777,130517.1,-83.06093,71.3026
10000.0,63003.47,-82.33487,71.3035
