Frequency,Impedance,Phase Angle,Temperature (Dry Bath)
10.0,156324.2,-9.940133,71.46
21.544346900318832,146794.2,-7.98187,71.4796
46.41588833612777,136672.5,-8.312474,71.4807
100.0,115826.7,-6.704101,71.4744
215.44346900318823,103919.1,-14.3802,71.4845
464.15888336127773,112350.5,-7.646228,71.4721
1000.0,91101.13,-21.5872,71.475
2154.4346900318824,91911.28,-17.3428,71.4737
4641.588833612777,66405.27,-49.45683,71.4824
10000.0,45053.59,-53.32024,71.4687
