Frequency,Impedance,Phase Angle,Temperature (Dry Bath)
10.0,23620.84,-29.09101,70.5226
21.544346900318832,18627.53,-27.07272,70.5202
46.41588833612777,14892.92,-24.96126,70.5242
100.0,12394.74,-22.24555,70.5236
215.44346900318823,10028.32,-20.39228,70.5157
464.15888336127773,8775.874,-16.99042,70.5274
1000.0,7823.5,-13.1527,70.507
2154.4346900318824,6939.289,-13.89153,70.5126
4641.588833612777,6407.124,-12.08871,70.5249
10000.0,6007.203,-12.68235,70.5091
