Frequency,Impedance,Phase Angle,Temperature (Dry Bath)
10.0,3495430.0,-9.693308,71.0761
21.544346900318832,2044120.0,-21.79549,71.063
46.41588833612777,2839769.0,-19.27733,71.0689
100.0,881403.4,-5.585127,71.0756
215.44346900318823,530819.8,6.782977,71.0824
464.15888336127773,911599.9,-47.82161,71.0724
1000.0,361299.6,-101.8738,71.0764
2154.4346900318824,356344.9,-83.39547,71.071
4641.588833612777,131474.5,-86.53886,71.0715
10000.0,59263.96,-83.98334,71.0845
