Frequency,Impedance,Phase Angle,Temperature (Dry Bath)
10.0,122518.2,-14.71546,71.3113
21.544346900318832,110818.2,-13.38431,71.3171
46.41588833612777,99649.31,-12.88258,71.297
100.0,89430.26,-18.24064,71.3114
215.44346900318823,82152.02,-12.7032,71.321
464.15888336127773,72684.62,-13.59462,71.3073
1000.0,66206.11,-18.73629,71.3014
2154.4346900318824,58937.8,-16.78155,71.3098
4641.588833612777,52525.71,-20.55891,71.3293
10000.0,41302.0,-29.29096,71.3243
