Frequency,Impedance,Phase Angle,Temperature (Dry Bath)
10.0,14230.32,-38.10477,70.965
21.544346900318832,10476.26,-34.45226,70.9588
46.41588833612777,7922.052,-30.67292,70.9676
100.0,6168.611,-26.30423,70.9628
215.44346900318823,5088.913,-22.49289,70.9693
464.15888336127773,4271.443,-18.31143,70.9562
1000.0,3698.676,-14.68704,70.9646
2154.4346900318824,3389.661,-11.53261,70.969
4641.588833612777,3144.23,-9.739089,70.9606
10000.0,2971.68,-9.58237,70.966
