Frequency,Impedance,Phase Angle,Temperature (Dry Bath)
10.0,4110275.0,-16.08357,71.5346
21.544346900318832,6335243.0,6.345899,71.5457
46.41588833612777,6975419.0,-23.26938,71.5399
100.0,363495.3,14.56265,71.5432
215.44346900318823,1422993.0,-75.69437,71.5204
464.15888336127773,757531.3,32.15774,71.5204
1000.0,485292.2,-66.04557,71.5232
2154.4346900318824,324610.6,-82.59889,71.5078
4641.588833612777,169520.8,-81.9216,71.5294
10000.0,111765.8,-70.96527,71.5273
