Frequency,Impedance,Phase Angle,Temperature (Dry Bath)
10.0,156923.8,-11.12303,71.2727
21.544346900318832,145843.5,-8.779669,71.2746
46.41588833612777,138275.4,-8.295931,71.283
100.0,135412.1,-19.92009,71.2833
215.44346900318823,25412.53,48.87965,71.2731
464.15888336127773,138499.2,-16.62557,71.2773
1000.0,105186.4,-23.41632,71.2764
2154.4346900318824,87274.15,-34.71205,71.2826
4641.588833612777,80964.73,-42.41189,71.278
10000.0,45109.99,-54.44864,71.2791
