Frequency,Impedance,Phase Angle,Temperature (Dry Bath)
10.0,5704783.0,17.99541,71.3694
21.544346900318832,4606500.0,-12.0094,71.3645
46.41588833612777,3311624.0,-19.81549,71.3767
100.0,500029.9,-28.81555,71.3762
215.44346900318823,19011.39,-21.27156,71.3649
464.15888336127773,747803.6,-94.31863,71.3689
1000.0,421994.8,-68.16663,71.3681
2154.4346900318824,285111.6,-85.3483,71.3561
4641.588833612777,161360.6,-102.6884,71.3574
10000.0,65099.69,-83.94117,71.3609
