Frequency,Impedance,Phase Angle,Temperature (Dry Bath)
10.0,4719241.0,-22.06987,71.2505
21.544346900318832,4682031.0,-34.21123,71.2432
46.41588833612777,3457011.0,-13.25489,71.2584
100.0,423094.2,135.9769,71.2499
215.44346900318823,10296.12,90.4474,71.2686
464.15888336127773,430144.6,-33.74794,71.2533
1000.0,409109.8,-141.3125,71.2591
2154.4346900318824,334913.5,-104.6663,71.26
4641.588833612777,158520.7,-83.96725,71.2588
10000.0,66368.04,-86.24597,71.2726
