Frequency,Impedance,Phase Angle,Temperature (Dry Bath)
10.0,4873282.0,-6.361523,71.3552
21.544346900318832,2651839.0,-28.25898,71.3542
46.41588833612777,2255663.0,-28.38991,71.3392
100.0,401604.4,-149.8352,71.3396
215.44346900318823,753966.6,13.94988,71.3422
464.15888336127773,1609212.0,135.9047,71.3415
1000.0,549348.0,-68.08721,71.3342
2154.4346900318824,363485.7,-58.15261,71.3192
4641.588833612777,142182.9,-84.34671,71.3365
10000.0,64220.56,-87.5222,71.3247
