Frequency,Impedance,Phase Angle,Temperature (Dry Bath)
10.0,33093.19,-11.04767,70.9235
21.544346900318832,30966.79,-9.307128,70.9185
46.41588833612777,28946.01,-8.710307,70.9057
100.0,28484.14,-10.44305,70.9189
215.44346900318823,25930.06,-7.509341,70.9114
464.15888336127773,23419.35,-9.949305,70.9233
1000.0,22949.15,-11.11135,70.9248
2154.4346900318824,21022.64,-9.889682,70.9222
4641.588833612777,20972.1,-13.23106,70.9119
10000.0,18143.38,-22.48321,70.9088
