Frequency,Impedance,Phase Angle,Temperature (Dry Bath)
10.0,6341265.0,-15.75782,70.6965
21.544346900318832,5295318.0,6.95513,70.6921
46.41588833612777,4153996.0,-28.16461,70.6823
100.0,6264014.0,-53.5163,70.6918
215.44346900318823,697891.6,-100.2946,70.6898
464.15888336127773,659424.4,-81.87743,70.6904
1000.0,335183.8,-70.40713,70.7052
2154.4346900318824,358141.7,-85.61016,70.681
4641.588833612777,108114.7,-76.58539,70.6883
10000.0,69299.41,-83.50296,70.6847
