Frequency,Impedance,Phase Angle,Temperature (Dry Bath)
10.0,5707048.0,-12.65805,70.7502
21.544346900318832,4985102.0,0.8265206,70.7576
46.41588833612777,5210575.0,-25.10365,70.7458
100.0,545545.3,6.757322,70.7428
215.44346900318823,1033737.0,-37.56067,70.7523
464.15888336127773,1150862.0,-73.23731,70.753
1000.0,1291471.0,44.04764,70.7506
2154.4346900318824,255419.7,-103.0932,70.7551
4641.588833612777,143312.4,-79.42146,70.7609
10000.0,67679.05,-86.36468,70.7586
