Frequency,Impedance,Phase Angle,Temperature (Dry Bath)
10.0,3432434.0,0.5991618,71.5273
21.544346900318832,3944836.0,-4.330399,71.5396
46.41588833612777,5085469.0,-11.07444,71.537
100.0,3246960.0,17.13356,71.5227
215.44346900318823,1340885.0,-33.49349,71.5209
464.15888336127773,5108670.0,24.99916,71.5395
1000.0,634407.5,-20.35903,71.5333
2154.4346900318824,497749.4,-57.71061,71.5347
4641.588833612777,276361.3,-72.00253,71.5357
10000.0,128951.0,-90.57472,71.55
