Frequency,Impedance,Phase Angle,Temperature (Dry Bath)
10.0,6348204.0,-12.20836,71.5458
21.544346900318832,5575689.0,8.201648,71.5278
46.41588833612777,4353032.0,-26.19463,71.5251
100.0,1038506.0,-16.10798,71.5303
215.44346900318823,447238.7,-154.4622,71.5329
464.15888336127773,2056611.0,-136.7572,71.5329
1000.0,722096.2,-113.3314,71.5349
2154.4346900318824,382325.3,-98.64316,71.5388
4641.588833612777,124452.6,-84.2263,71.5365
10000.0,62974.39,-90.33278,71.5315
