Frequency,Impedance,Phase Angle,Temperature (Dry Bath)
10.0,9918368.0,-6.973104,70.8067
21.544346900318832,2809399.0,-17.32183,70.7964
46.41588833612777,3983813.0,-34.52062,70.7904
100.0,466855.1,2.770244,70.7776
215.44346900318823,476630.2,-57.72769,70.7876
464.15888336127773,710969.6,-93.51542,70.7871
1000.0,424485.6,-104.881,70.781
2154.4346900318824,378505.0,-80.56381,70.7979
4641.588833612777,136864.4,-90.55294,70.7976
10000.0,67293.41,-86.84083,70.7848
