Frequency,Impedance,Phase Angle,Temperature (Dry Bath)
10.0,3926280.0,7.451648,71.3966
21.544346900318832,3777725.0,-4.258056,71.4032
46.41588833612777,5138254.0,-26.41626,71.3741
100.0,400081.5,-104.9586,71.4038
215.44346900318823,956022.7,-92.10052,71.3925
464.15888336127773,680942.0,-120.5664,71.4077
1000.0,1251068.0,62.42994,71.4038
2154.4346900318824,290308.3,-95.43251,71.4105
4641.588833612777,175717.2,-75.52792,71.3945
10000.0,96177.61,-84.17089,71.3997
