Frequency,Impedance,Phase Angle,Temperature (Dry Bath)
10.0,69850.16,-20.5358,71.5201
21.544346900318832,58671.32,-20.55527,71.5156
46.41588833612777,49293.37,-20.66485,71.5247
100.0,40120.27,-21.22719,71.526
215.44346900318823,35523.72,-19.2462,71.5219
464.15888336127773,29235.31,-17.93034,71.5126
1000.0,26937.0,-16.30948,71.5039
2154.4346900318824,22855.93,-15.13713,71.5139
4641.588833612777,21275.59,-14.83923,71.5108
10000.0,18738.11,-17.99523,71.5065
