Frequency,Impedance,Phase Angle,Temperature (Dry Bath)
10.0,6237166.0,-7.110199,70.9826
21.544346900318832,4035454.0,-16.55117,70.9721
46.41588833612777,6437148.0,-0.1534038,70.9866
100.0,3277486.0,53.82767,70.9832
215.44346900318823,1054291.0,75.88024,70.9902
464.15888336127773,973769.2,-42.48223,70.9802
1000.0,700591.0,128.2036,70.9815
2154.4346900318824,264764.8,-78.21245,70.9753
4641.588833612777,125682.0,-90.27441,70.9737
10000.0,61022.34,-86.07063,70.9751
