Frequency,Impedance,Phase Angle,Temperature (Dry Bath)
10.0,23816.52,-20.99945,71.1716
21.544346900318832,20218.83,-18.3797,71.1614
46.41588833612777,17515.95,-15.64647,71.1633
100.0,15998.85,-14.59101,71.1439
215.44346900318823,14075.5,-10.66253,71.1687
464.15888336127773,13019.22,-11.39972,71.1599
1000.0,11914.76,-8.083088,71.1569
2154.4346900318824,11537.19,-10.11968,71.1753
4641.588833612777,10891.46,-14.56892,71.1692
10000.0,9872.202,-21.8487,71.1855
