Frequency,Impedance,Phase Angle,Temperature (Dry Bath)
10.0,5004354.0,1.051576,71.3169
21.544346900318832,8395643.0,11.88974,71.316
46.41588833612777,2911296.0,-43.12017,71.3227
100.0,2384663.0,42.74381,71.3145
215.44346900318823,84332.81,141.2614,71.3239
464.15888336127773,430492.4,-131.909,71.3111
1000.0,1432526.0,-112.4998,71.3226
2154.4346900318824,250147.1,-84.45768,71.3211
4641.588833612777,132994.7,-86.65117,71.326
10000.0,68949.08,-84.53621,71.3089
