Frequency,Impedance,Phase Angle,Temperature (Dry Bath)
10.0,54285.97,-15.07873,70.9208
21.544346900318832,48604.33,-13.50862,70.9237
46.41588833612777,44008.31,-12.64832,70.9077
100.0,39689.6,-10.72695,70.9256
215.44346900318823,37580.33,-14.21174,70.9341
464.15888336127773,34347.97,-11.99175,70.9333
1000.0,28728.04,-17.16733,70.939
2154.4346900318824,27444.18,-19.74691,70.9225
4641.588833612777,22629.98,-23.9144,70.9305
10000.0,20224.67,-34.33665,70.9303
