Frequency,Impedance,Phase Angle,Temperature (Dry Bath)
10.0,156507.8,-14.28631,70.9839
21.544346900318832,138506.9,-12.326,70.9956
46.41588833612777,126798.1,-11.85958,71.0006
100.0,131519.9,-20.20441,70.9803
215.44346900318823,102911.0,-11.55361,70.9847
464.15888336127773,91427.11,-13.75636,70.9849
1000.0,75426.32,-17.55552,70.9897
2154.4346900318824,75048.38,-20.56425,70.9704
4641.588833612777,57472.06,-34.51314,70.9841
10000.0,42339.01,-51.40386,70.9695
