Frequency,Impedance,Phase Angle,Temperature (Dry Bath)
10.0,5438490.0,10.6482,71.2674
21.544346900318832,6009479.0,-10.48276,71.2727
46.41588833612777,5854304.0,-20.26163,71.2697
100.0,637689.2,-101.7334,71.2534
215.44346900318823,956656.1,157.5004,71.2515
464.15888336127773,937419.9,-38.26593,71.2546
1000.0,459216.3,-65.76103,71.2685
2154.4346900318824,252169.9,-79.05205,71.2842
4641.588833612777,144879.0,-80.7083,71.2498
10000.0,72875.5,-86.21604,71.2546
