Frequency,Impedance,Phase Angle,Temperature (Dry Bath)
10.0,7896417.0,49.59572,71.2407
21.544346900318832,4087298.0,-13.23651,71.2591
46.41588833612777,6473514.0,-14.79013,71.2644
100.0,685073.8,-59.54052,71.2473
215.44346900318823,559340.4,26.02134,71.2537
464.15888336127773,703641.1,-31.407,71.2742
1000.0,712758.2,-67.45352,71.2384
2154.4346900318824,211416.5,-86.4262,71.2724
4641.588833612777,128751.8,-82.32824,71.2445
10000.0,60685.86,-89.79272,71.2784
