Frequency,Impedance,Phase Angle,Temperature (Dry Bath)
10.0,23755.19,-21.03144,71.3085
21.544346900318832,20081.02,-18.36559,71.3028
46.41588833612777,17439.73,-15.58549,71.2934
100.0,15928.01,-14.61976,71.2923
215.44346900318823,8299.705,3.989741,71.2882
464.15888336127773,13039.69,-10.44835,71.2883
1000.0,12394.33,-9.293008,71.2965
2154.4346900318824,11572.05,-9.478742,71.2916
4641.588833612777,10903.59,-9.536874,71.3026
10000.0,10123.89,-15.81293,71.2942
