Frequency,Impedance,Phase Angle,Temperature (Dry Bath)
10.0,4021950.0,-20.06079,71.3576
21.544346900318832,3894637.0,-12.82129,71.3667
46.41588833612777,6604005.0,-8.382888,71.3438
100.0,955240.4,-117.2063,71.3491
215.44346900318823,597791.7,-7.812641,71.3587
464.15888336127773,654118.4,7.459272,71.3523
1000.0,220790.3,-110.0099,71.3761
2154.4346900318824,172231.6,-89.26477,71.3719
4641.588833612777,185986.6,-85.7089,71.3786
10000.0,58783.85,-86.75396,71.3715
