Frequency,Impedance,Phase Angle,Temperature (Dry Bath)
10.0,6543328.0,-5.888024,71.6184
21.544346900318832,4992511.0,17.00132,71.6432
46.41588833612777,4601575.0,-21.29352,71.6279
100.0,700119.6,86.676,71.6332
215.44346900318823,3070431.0,110.8598,71.6462
464.15888336127773,384287.6,-127.1808,71.6242
1000.0,959027.7,-101.7299,71.631
2154.4346900318824,265026.3,-39.14786,71.6365
4641.588833612777,235997.0,-52.78938,71.6391
10000.0,101525.0,-81.27037,71.647
