Frequency,Impedance,Phase Angle,Temperature (Dry Bath)
10.0,2008853.0,-27.09681,70.8907
21.544346900318832,1288105.0,-50.93831,70.8894
46.41588833612777,937074.4,-41.15353,70.8893
100.0,442085.4,-39.32683,70.889
215.44346900318823,373200.5,-38.26231,70.8959
464.15888336127773,388890.1,-48.57664,70.878
1000.0,126681.5,-32.83656,70.8835
2154.4346900318824,172384.5,-66.17426,70.8937
4641.588833612777,84133.63,-59.11145,70.8751
10000.0,41554.61,-72.5606,70.881
