Frequency,Impedance,Phase Angle,Temperature (Dry Bath)
10.0,4051633.0,-14.2241,70.5492
21.544346900318832,3470496.0,-22.69188,70.5647
46.41588833612777,4649082.0,-25.2558,70.5586
100.0,1965905.0,-39.153,70.5703
215.44346900318823,687815.0,-17.72476,70.5627
464.15888336127773,472795.4,-90.87917,70.5667
1000.0,221015.3,-45.24764,70.5756
2154.4346900318824,275256.4,-56.74986,70.5468
4641.588833612777,123366.5,-84.38585,70.5528
10000.0,51751.99,-81.83878,70.5637
