Frequency,Impedance,Phase Angle,Temperature (Dry Bath)
10.0,71927.46,-29.39448,71.157
21.544346900318832,56182.32,-27.34127,71.1668
46.41588833612777,45124.09,-25.38771,71.1752
100.0,37432.73,-24.48393,71.1581
215.44346900318823,30011.62,-22.86307,71.1745
464.15888336127773,26303.34,-18.87348,71.166
1000.0,22721.95,-19.11048,71.1604
2154.4346900318824,19845.13,-15.01364,71.169
4641.588833612777,17510.99,-12.77041,71.1649
10000.0,16520.61,-16.08936,71.1735
