Frequency,Impedance,Phase Angle,Temperature (Dry Bath)
10.0,42113.17,-11.08769,71.3103
21.544346900318832,39105.12,-9.59705,71.3171
46.41588833612777,36428.18,-8.542536,71.3215
100.0,33858.35,-7.380091,71.3019
215.44346900318823,32815.22,-4.803013,71.2874
464.15888336127773,30783.63,-8.383017,71.2865
1000.0,29946.92,-5.744718,71.2861
2154.4346900318824,27116.17,-9.116934,71.28
4641.588833612777,25760.71,-13.12799,71.2969
10000.0,24411.09,-20.7888,71.2663
