Frequency,Impedance,Phase Angle,Temperature (Dry Bath)
10.0,6433958.0,-23.04977,71.2264
21.544346900318832,5237015.0,0.9726425,71.2127
46.41588833612777,4881417.0,-1.060846,71.2331
100.0,361848.1,53.12612,71.213
215.44346900318823,1018932.0,177.0502,71.223
464.15888336127773,590931.3,-52.41567,71.2166
1000.0,378277.8,-84.14284,71.23
2154.4346900318824,248380.0,-88.12077,71.209
4641.588833612777,126479.4,-87.09251,71.2276
10000.0,69690.01,-87.86745,71.2214
