Frequency,Impedance,Phase Angle,Temperature (Dry Bath)
10.0,82075.21,-24.13102,70.9458
21.544346900318832,67838.58,-24.2497,70.9586
46.41588833612777,55351.8,-24.97713,70.9497
100.0,42531.43,-20.49696,70.9499
215.44346900318823,34378.89,-28.15646,70.9702
464.15888336127773,27322.72,-26.53706,70.9454
1000.0,23149.7,-30.85316,70.9526
2154.4346900318824,16286.48,-30.99646,70.9659
4641.588833612777,13714.43,-27.18778,70.9571
10000.0,10632.19,-23.76241,70.9494
