Frequency,Impedance,Phase Angle,Temperature (Dry Bath)
10.0,180259.4,-11.89125,71.2726
21.544346900318832,162570.7,-11.83668,71.2696
46.41588833612777,145786.1,-12.23423,71.2756
100.0,155217.3,-21.49816,71.2777
215.44346900318823,124076.3,-12.03091,71.2884
464.15888336127773,131728.4,-15.72926,71.2886
1000.0,106547.1,-11.83308,71.2886
2154.4346900318824,81244.52,-19.06813,71.2712
4641.588833612777,79443.24,-46.24492,71.2853
10000.0,53817.43,-59.88628,71.2754
