Frequency,Impedance,Phase Angle,Temperature (Dry Bath)
10.0,645290.8,-34.86659,70.8718
21.544346900318832,497564.9,-29.50796,70.8475
46.41588833612777,379056.9,-28.36495,70.8703
100.0,317948.3,-10.15732,70.8652
215.44346900318823,151113.0,-37.91253,70.8611
464.15888336127773,238001.1,-28.26937,70.8564
1000.0,164123.5,-21.17024,70.8421
2154.4346900318824,129452.0,-38.77748,70.872
4641.588833612777,78162.33,-47.67085,70.8736
10000.0,52751.37,-64.88773,70.8487
