Frequency,Impedance,Phase Angle,Temperature (Dry Bath)
10.0,176987.4,-13.85924,71.3463
21.544346900318832,160449.7,-11.9588,71.3585
46.41588833612777,149967.6,-11.00241,71.35
100.0,187683.9,-5.496663,71.3374
215.44346900318823,80350.58,133.6714,71.3508
464.15888336127773,109461.8,-23.43612,71.3615
1000.0,116802.0,-18.2485,71.3495
2154.4346900318824,85833.77,-21.68579,71.3455
4641.588833612777,65349.24,-36.66218,71.3607
10000.0,52988.13,-61.03466,71.3648
