Frequency,Impedance,Phase Angle,Temperature (Dry Bath)
10.0,274484.1,-14.80918,71.1159
21.544346900318832,240787.2,-15.59211,71.1404
46.41588833612777,217031.3,-15.28182,71.1317
100.0,161444.8,-10.53915,71.1339
215.44346900318823,126545.8,-22.99152,71.1384
464.15888336127773,106895.4,-28.41705,71.1299
1000.0,98126.33,-7.621414,71.1445
2154.4346900318824,151691.4,-13.03186,71.1271
4641.588833612777,102228.5,-45.89167,71.1271
10000.0,82744.15,-50.27561,71.1383
