Frequency,Impedance,Phase Angle,Temperature (Dry Bath)
10.0,86251.8,-13.52692,70.9236
21.544346900318832,77961.12,-11.96294,70.9095
46.41588833612777,70679.92,-11.37347,70.9108
100.0,66669.57,-12.38184,70.9203
215.44346900318823,64604.23,-9.761024,70.9196
464.15888336127773,57086.01,-11.32147,70.9222
1000.0,50700.2,-17.75579,70.9238
2154.4346900318824,42778.66,-19.71947,70.8996
4641.588833612777,39344.88,-24.44236,70.9154
10000.0,29781.71,-41.6212,70.9071
