Frequency,Impedance,Phase Angle,Temperature (Dry Bath)
10.0,7406.218,-35.72831,70.6378
21.544346900318832,5589.641,-31.10385,70.6128
46.41588833612777,4399.94,-26.63361,70.6273
100.0,3594.615,-22.3855,70.6184
215.44346900318823,3039.403,-18.34614,70.6417
464.15888336127773,2653.615,-15.29993,70.6248
1000.0,2373.084,-12.7881,70.6358
2154.4346900318824,2157.232,-10.92912,70.6178
4641.588833612777,1987.909,-9.556392,70.6241
10000.0,1867.449,-9.389771,70.6308
