Frequency,Impedance,Phase Angle,Temperature (Dry Bath)
10.0,81798.62,-36.77811,71.2671
21.544346900318832,60529.32,-32.65384,71.2792
46.41588833612777,46753.43,-27.76104,71.2711
100.0,31780.71,-24.44744,71.283
215.44346900318823,13223.1,-46.57327,71.2838
464.15888336127773,25901.9,-19.82193,71.2821
1000.0,25240.92,-16.0118,71.2773
2154.4346900318824,21269.8,-16.52927,71.2823
4641.588833612777,19012.12,-17.57535,71.2828
10000.0,16700.11,-23.46415,71.2978
