Frequency,Impedance,Phase Angle,Temperature (Dry Bath)
10.0,6549.53,-28.49872,70.9585
21.544346900318832,5179.271,-26.18507,70.9628
46.41588833612777,4187.24,-23.33433,70.96
100.0,3465.595,-20.3277,70.9456
215.44346900318823,2981.999,-17.09721,70.9612
464.15888336127773,2605.037,-14.7666,70.9441
1000.0,2340.32,-12.61869,70.9685
2154.4346900318824,2121.307,-11.61043,70.9494
4641.588833612777,1961.093,-10.29282,70.964
10000.0,1821.629,-10.2322,70.9685
