Frequency,Impedance,Phase Angle,Temperature (Dry Bath)
10.0,1125374.0,-7.987836,72.2024
21.544346900318832,1051420.0,-2.385495,72.1996
46.41588833612777,992825.8,-10.56345,72.1937
100.0,572681.0,23.58378,72.197
215.44346900318823,1401591.0,26.68162,72.1988
464.15888336127773,488348.3,-88.06913,72.1917
1000.0,404703.2,-43.28669,72.2004
2154.4346900318824,249847.2,-44.4472,72.212
4641.588833612777,359909.6,-68.79464,72.1971
10000.0,119376.9,-73.01009,72.201
