Frequency,Impedance,Phase Angle,Temperature (Dry Bath)
10.0,7840071.0,32.27607,71.527
21.544346900318832,3551507.0,-6.43082,71.5206
46.41588833612777,6291560.0,-26.06535,71.517
100.0,1596923.0,-38.88761,71.5284
215.44346900318823,1266217.0,-140.6164,71.5297
464.15888336127773,734791.0,-40.53339,71.515
1000.0,715855.9,51.29074,71.5173
2154.4346900318824,273582.4,-90.70013,71.5199
4641.588833612777,127805.1,-77.53047,71.5221
10000.0,52506.97,-89.25436,71.5388
