Frequency,Impedance,Phase Angle,Temperature (Dry Bath)
10.0,12253330.0,29.68365,28.9436
21.544346900318832,4266039.0,-7.978539,28.9439
46.41588833612777,4670656.0,-3.385274,28.906
100.0,1874972.0,-43.25713,28.8953
215.44346900318823,2121494.0,139.1502,28.9589
464.15888336127773,659360.3,-71.33584,28.9849
1000.0,336570.8,173.6318,28.7877
2154.4346900318824,730256.3,-86.12404,28.7143
4641.588833612777,414499.6,-72.66746,28.7973
10000.0,165551.3,-89.60122,28.9812
