Frequency,Impedance,Phase Angle,Temperature (Dry Bath)
10.0,164505.2,-13.25913,71.1366
21.544346900318832,148218.5,-11.49824,71.14
46.41588833612777,135459.4,-11.90251,71.133
100.0,91631.23,-17.84708,71.147
215.44346900318823,109120.7,-17.92115,71.1422
464.15888336127773,94529.75,-8.57017,71.1533
1000.0,88984.96,-23.56686,71.1354
2154.4346900318824,73479.59,-20.6458,71.1384
4641.588833612777,64481.99,-29.65474,71.1564
10000.0,45769.91,-57.3951,71.1344
