Frequency,Impedance,Phase Angle,Temperature (Dry Bath)
10.0,3882928.0,-13.52514,71.0471
21.544346900318832,3336474.0,-30.97379,71.0636
46.41588833612777,3749164.0,-53.77837,71.0412
100.0,522798.9,27.08994,71.0366
215.44346900318823,1066754.0,56.99646,71.0549
464.15888336127773,960783.7,-73.27761,71.0593
1000.0,381790.9,-109.6778,71.0603
2154.4346900318824,238565.6,-65.27853,71.0553
4641.588833612777,128997.5,-74.32456,71.0585
10000.0,59683.94,-82.0345,71.0389
