Frequency,Impedance,Phase Angle,Temperature (Dry Bath)
10.0,7807421.0,8.638128,71.3205
21.544346900318832,3664897.0,-3.012493,71.3325
46.41588833612777,4555623.0,-10.58498,71.316
100.0,396032.4,-6.373191,71.329
215.44346900318823,746728.7,-107.4338,71.3443
464.15888336127773,641063.5,-169.802,71.3174
1000.0,203976.6,-74.45588,71.3444
2154.4346900318824,383340.5,-84.01542,71.343
4641.588833612777,123140.0,-93.84047,71.3367
10000.0,56373.54,-92.51589,71.3497
