Frequency,Impedance,Phase Angle,Temperature (Dry Bath)
10.0,7492.945,-36.48461,71.1824
21.544346900318832,5616.008,-32.14118,71.181
46.41588833612777,4372.421,-27.89436,71.1945
100.0,3464.369,-23.5728,71.1905
215.44346900318823,2963.366,-19.7256,71.1902
464.15888336127773,2555.383,-15.9034,71.1791
1000.0,2263.543,-13.67246,71.1912
2154.4346900318824,2055.909,-11.56487,71.2096
4641.588833612777,1893.441,-9.677776,71.2002
10000.0,1775.961,-9.324279,71.2056
