Frequency,Impedance,Phase Angle,Temperature (Dry Bath)
10.0,38037.56,-22.26148,71.0797
21.544346900318832,31658.39,-21.82282,71.0813
46.41588833612777,26589.44,-21.8946,71.074
100.0,22901.78,-23.49405,71.0605
215.44346900318823,18451.94,-19.4718,71.0788
464.15888336127773,14876.82,-23.30271,71.0806
1000.0,11820.72,-25.4261,71.081
2154.4346900318824,10125.31,-23.66262,71.0894
4641.588833612777,7826.086,-23.84793,71.0809
10000.0,6774.152,-21.69594,71.0913
