Frequency,Impedance,Phase Angle,Temperature (Dry Bath)
10.0,5102347.0,0.868913,71.5113
21.544346900318832,5502442.0,-8.971741,71.5148
46.41588833612777,5304489.0,-11.21797,71.5047
100.0,1195850.0,56.4288,71.5171
215.44346900318823,2554584.0,77.91497,71.5143
464.15888336127773,826688.3,-35.90507,71.5099
1000.0,2566667.0,-33.09324,71.505
2154.4346900318824,503493.6,-101.8383,71.5174
4641.588833612777,265799.1,-76.37956,71.5158
10000.0,118148.0,-82.24449,71.5171
