Frequency,Impedance,Phase Angle,Temperature (Dry Bath)
10.0,5181156.0,-6.962217,71.005
21.544346900318832,3631106.0,-20.16147,71.0193
46.41588833612777,5198555.0,-8.198871,71.0264
100.0,13367690.0,84.20998,71.0072
215.44346900318823,32161390.0,21.64518,71.0178
464.15888336127773,371032.4,3.405727,71.0067
1000.0,235693.6,-86.38061,71.0258
2154.4346900318824,935549.4,-109.7334,71.0121
4641.588833612777,165500.8,-81.40622,71.0092
10000.0,193084.7,-87.37192,71.0173
