Frequency,Impedance,Phase Angle,Temperature (Dry Bath)
10.0,4542044.0,-0.1188971,70.3737
21.544346900318832,3988070.0,-28.58933,70.3453
46.41588833612777,3149053.0,-35.38657,70.3542
100.0,712646.4,-44.63839,70.348
215.44346900318823,3138976.0,-10.53781,70.3642
464.15888336127773,443897.3,25.51699,70.3511
1000.0,278941.8,-97.74894,70.3456
2154.4346900318824,209313.4,-75.11499,70.3642
4641.588833612777,96860.15,-80.30813,70.3756
10000.0,52773.11,-87.71667,70.3606
