Frequency,Impedance,Phase Angle,Temperature (Dry Bath)
10.0,2387351.0,-8.80641,71.2608
21.544346900318832,2554964.0,-16.05957,71.2643
46.41588833612777,1977153.0,-21.4919,71.2675
100.0,683156.1,-42.75644,71.2493
215.44346900318823,134244.8,-75.79676,71.2554
464.15888336127773,4405805.0,60.29302,71.2621
1000.0,493520.4,-122.8772,71.2627
2154.4346900318824,379064.1,-76.82372,71.2764
4641.588833612777,125173.1,-85.10642,71.262
10000.0,67723.51,-87.92943,71.265
