Frequency,Impedance,Phase Angle,Temperature (Dry Bath)
10.0,3144785.0,-3.919709,71.4713
21.544346900318832,5421334.0,-32.30082,71.4881
46.41588833612777,4643212.0,-27.94644,71.4733
100.0,5129585.0,113.5717,71.4737
215.44346900318823,358712.3,-80.40623,71.4909
464.15888336127773,741406.6,-134.7406,71.4612
1000.0,545823.3,-17.18246,71.4819
2154.4346900318824,199686.5,-86.6186,71.5015
4641.588833612777,96975.62,-82.0756,71.4895
10000.0,57003.22,-84.72043,71.4989
