Frequency,Impedance,Phase Angle,Temperature (Dry Bath)
10.0,470063.2,-13.10643,71.2906
21.544346900318832,435435.5,-15.31513,71.2954
46.41588833612777,383482.0,-16.93786,71.2903
100.0,462833.5,-14.91386,71.3067
215.44346900318823,1078787.0,-64.42952,71.2875
464.15888336127773,177244.6,-29.11443,71.3031
1000.0,191922.9,-28.6336,71.2925
2154.4346900318824,274731.5,-39.94525,71.2867
4641.588833612777,90283.12,-56.59137,71.2753
10000.0,47245.34,-71.15262,71.2994
