Frequency,Impedance,Phase Angle,Temperature (Dry Bath)
10.0,6672672.0,-33.74121,71.1297
21.544346900318832,4390322.0,-9.420767,71.1205
46.41588833612777,5804908.0,-27.07628,71.132
100.0,474586.4,-15.91681,71.1174
215.44346900318823,413444.3,-12.4081,71.1205
464.15888336127773,293007.2,-138.274,71.1325
1000.0,759357.8,103.568,71.1136
2154.4346900318824,472971.9,-91.42018,71.1361
4641.588833612777,353667.4,-135.5894,71.1211
10000.0,156238.7,-107.6516,71.1304
