Frequency,Impedance,Phase Angle,Temperature (Dry Bath)
10.0,7293771.0,-32.6951,71.0415
21.544346900318832,2978815.0,-42.83534,71.044
46.41588833612777,2554745.0,-30.41659,71.0499
100.0,701887.5,79.3664,71.0522
215.44346900318823,1315514.0,-45.46152,71.0635
464.15888336127773,657425.7,-84.23043,71.0555
1000.0,779510.9,-49.76675,71.0506
2154.4346900318824,271361.5,-97.5703,71.05
4641.588833612777,154427.6,-77.89328,71.0568
10000.0,63467.96,-80.65862,71.0526
