Frequency,Impedance,Phase Angle,Temperature (Dry Bath)
10.0,6878813.0,20.00116,70.5414
21.544346900318832,4128602.0,0.006392171,70.5373
46.41588833612777,3961371.0,-22.2677,70.5413
100.0,1182160.0,-24.31369,70.5386
215.44346900318823,952258.2,-7.159223,70.5335
464.15888336127773,689048.2,-138.6052,70.5377
1000.0,835817.4,-13.52022,70.531
2154.4346900318824,242189.3,-100.4875,70.5316
4641.588833612777,128550.2,-90.71532,70.5404
10000.0,69690.02,-90.58133,70.5342
