Frequency,Impedance,Phase Angle,Temperature (Dry Bath)
10.0,3579065.0,-28.00573,71.2504
21.544346900318832,3668725.0,-20.43513,71.2576
46.41588833612777,4065184.0,-21.54883,71.2639
100.0,695160.4,-24.43566,71.2473
215.44346900318823,55700.47,-156.3947,71.2497
464.15888336127773,785217.8,-3.659969,71.2491
1000.0,288787.9,13.65041,71.2541
2154.4346900318824,224539.3,-76.92436,71.2487
4641.588833612777,143080.7,-95.78032,71.2515
10000.0,66130.27,-80.29264,71.2602
