Frequency,Impedance,Phase Angle,Temperature (Dry Bath)
10.0,9847414.0,-2.005403,71.3805
21.544346900318832,4881749.0,-23.75696,71.3843
46.41588833612777,5538972.0,1.303804,71.3835
100.0,929780.0,100.6363,71.3765
215.44346900318823,11603650.0,-163.8278,71.3804
464.15888336127773,728471.4,-75.07442,71.3907
1000.0,1249940.0,-58.67728,71.38
2154.4346900318824,271343.2,-101.6141,71.3941
4641.588833612777,234532.2,-58.58712,71.3909
10000.0,124767.8,-88.30442,71.3836
