Frequency,Impedance,Phase Angle,Temperature (Dry Bath)
10.0,1771935.0,-24.44967,71.1512
21.544346900318832,1403157.0,-25.91345,71.1427
46.41588833612777,1304191.0,-24.07166,71.1499
100.0,980646.7,-48.10577,71.1474
215.44346900318823,467386.3,-52.09605,71.1505
464.15888336127773,362378.0,-34.75003,71.1463
1000.0,242927.9,-97.70751,71.1484
2154.4346900318824,337705.5,-78.78785,71.1372
4641.588833612777,107995.8,-73.13414,71.1515
10000.0,56237.64,-81.01162,71.1578
