Frequency,Impedance,Phase Angle,Temperature (Dry Bath)
10.0,3887333.0,-8.695203,71.3576
21.544346900318832,4143867.0,-33.35034,71.3694
46.41588833612777,2685043.0,8.409373,71.3675
100.0,592933.1,-36.03231,71.3771
215.44346900318823,94215.15,-30.78408,71.3711
464.15888336127773,446516.6,-38.83927,71.3681
1000.0,458892.8,-45.58961,71.371
2154.4346900318824,422723.6,-86.88443,71.351
4641.588833612777,135639.9,-78.1664,71.3656
10000.0,69679.1,-89.77052,71.3706
