Frequency,Impedance,Phase Angle,Temperature (Dry Bath)
10.0,1191639.0,-24.26677,71.2618
21.544346900318832,992297.1,-22.18667,71.269
46.41588833612777,972571.3,-19.0196,71.2958
100.0,612862.3,-37.728,71.258
215.44346900318823,387985.5,-19.49375,71.279
464.15888336127773,1241913.0,28.73888,71.2708
1000.0,316292.5,-63.55509,71.2611
2154.4346900318824,187847.6,-61.45819,71.2741
4641.588833612777,158772.9,-75.00102,71.2538
10000.0,58612.52,-79.25308,71.2631
