Frequency,Impedance,Phase Angle,Temperature (Dry Bath)
10.0,174943.1,-12.37818,71.3395
21.544346900318832,160430.0,-11.74823,71.343
46.41588833612777,145719.8,-11.71919,71.3425
100.0,144085.4,-13.60657,71.3315
215.44346900318823,145612.9,-11.0573,71.3365
464.15888336127773,103689.6,-17.44766,71.3372
1000.0,102735.7,-16.42882,71.346
2154.4346900318824,98350.4,-25.4341,71.3528
4641.588833612777,80595.11,-33.40322,71.3411
10000.0,47788.13,-45.31978,71.3418
