Frequency,Impedance,Phase Angle,Temperature (Dry Bath)
10.0,44837.75,-20.23137,71.2187
21.544346900318832,37943.87,-19.77157,71.2117
46.41588833612777,32259.09,-20.51201,71.2189
100.0,26597.32,-17.79544,71.2183
215.44346900318823,22163.17,-26.74164,71.2275
464.15888336127773,19825.71,-22.38711,71.2245
1000.0,15071.42,-27.46439,71.2207
2154.4346900318824,11763.79,-27.22044,71.2282
4641.588833612777,9648.072,-23.15105,71.2105
10000.0,8242.673,-21.52553,71.2185
