Frequency,Impedance,Phase Angle,Temperature (Dry Bath)
10.0,6939026.0,3.384609,71.125
21.544346900318832,4391568.0,-26.03997,71.1128
46.41588833612777,6155244.0,-27.07151,71.1343
100.0,1646762.0,106.6318,71.1251
215.44346900318823,593834.4,-71.88572,71.1108
464.15888336127773,769474.0,-38.63342,71.1206
1000.0,879187.8,145.4859,71.1197
2154.4346900318824,228142.7,-94.70808,71.1165
4641.588833612777,123648.6,-94.64691,71.1194
10000.0,64732.61,-91.42284,71.1233
