Frequency,Impedance,Phase Angle,Temperature (Dry Bath)
10.0,24703.12,-20.56107,71.2471
21.544346900318832,21017.19,-17.94363,71.255
46.41588833612777,18217.65,-15.76697,71.2647
100.0,15649.05,-14.80414,71.2581
215.44346900318823,18800.43,-67.74459,71.2622
464.15888336127773,13550.97,-10.27098,71.2701
1000.0,12484.36,-9.959117,71.2685
2154.4346900318824,11704.51,-8.729082,71.2641
4641.588833612777,11172.47,-11.54557,71.2437
10000.0,10473.47,-16.37371,71.2691
