Frequency,Impedance,Phase Angle,Temperature (Dry Bath)
10.0,5423939.0,4.318888,71.206
21.544346900318832,4743719.0,12.8359,71.2063
46.41588833612777,4501828.0,-8.158018,71.2208
100.0,957695.4,-92.74762,71.233
215.44346900318823,1046996.0,-112.7421,71.242
464.15888336127773,3776603.0,-162.1177,71.199
1000.0,707245.7,-61.63709,71.219
2154.4346900318824,1081262.0,137.4482,71.221
4641.588833612777,260238.9,-103.0587,71.2182
10000.0,148493.8,-93.02283,71.217
