Frequency,Impedance,Phase Angle,Temperature (Dry Bath)
10.0,10588.35,-29.72536,71.3981
21.544346900318832,8365.791,-28.70358,71.3977
46.41588833612777,6657.597,-26.84736,71.3934
100.0,5402.225,-23.19657,71.3967
215.44346900318823,4494.057,-20.81483,71.3959
464.15888336127773,3826.31,-17.72838,71.3957
1000.0,3338.137,-15.8486,71.4072
2154.4346900318824,2937.232,-13.87357,71.4111
4641.588833612777,2651.984,-12.51955,71.393
10000.0,2411.417,-10.93973,71.3881
