Frequency,Impedance,Phase Angle,Temperature (Dry Bath)
10.0,4528814.0,3.839395,71.5579
21.544346900318832,4567337.0,-23.1946,71.5615
46.41588833612777,5114841.0,4.808804,71.5592
100.0,1970963.0,32.54197,71.5554
215.44346900318823,1621234.0,11.86519,71.5579
464.15888336127773,971539.4,49.91128,71.559
1000.0,1296149.0,-106.4825,71.5607
2154.4346900318824,561388.7,-1.18572,71.5614
4641.588833612777,498647.0,-99.87844,71.5495
10000.0,158370.4,-80.68921,71.5579
