Frequency,Impedance,Phase Angle,Temperature (Dry Bath)
10.0,5542554.0,34.04683,71.1188
21.544346900318832,6117294.0,25.1808,71.123
46.41588833612777,5808229.0,-22.40999,71.1196
100.0,458134.4,25.1134,71.119
215.44346900318823,673506.1,177.4839,71.1381
464.15888336127773,517242.5,67.76844,71.1252
1000.0,1410256.0,148.8508,71.1147
2154.4346900318824,373269.6,-33.9493,71.1103
4641.588833612777,449184.6,130.8655,71.1214
10000.0,143227.3,-102.9288,71.1277
