Frequency,Impedance,Phase Angle,Temperature (Dry Bath)
10.0,2196858.0,-11.88257,72.2025
21.544346900318832,1671435.0,-0.5254528,72.2254
46.41588833612777,2080662.0,-15.82144,72.2233
100.0,443835.5,31.86342,72.2309
215.44346900318823,364884.6,128.9628,72.2236
464.15888336127773,530902.7,-112.0925,72.2232
1000.0,1108571.0,56.84131,72.2117
2154.4346900318824,190016.4,-136.2576,72.2253
4641.588833612777,141457.7,-90.1736,72.2162
10000.0,132831.7,-93.58188,72.2325
