Frequency,Impedance,Phase Angle,Temperature (Dry Bath)
10.0,156231.8,-10.27367,71.294
21.544346900318832,144050.5,-8.656547,71.2975
46.41588833612777,137883.4,-6.855093,71.2972
100.0,142540.3,-31.13744,71.312
215.44346900318823,60081.25,96.9529,71.3048
464.15888336127773,127858.9,-8.346769,71.2963
1000.0,79186.55,-12.93193,71.3013
2154.4346900318824,86692.03,-22.34034,71.3011
4641.588833612777,81365.41,-41.26055,71.3022
10000.0,43756.6,-48.27634,71.3154
