Frequency,Impedance,Phase Angle,Temperature (Dry Bath)
10.0,11320.18,-28.08346,71.3723
21.544346900318832,9018.787,-27.71973,71.3876
46.41588833612777,7206.242,-26.43279,71.3828
100.0,5782.819,-23.67551,71.387
215.44346900318823,4844.192,-21.05247,71.3964
464.15888336127773,4118.081,-18.21304,71.3908
1000.0,3568.676,-15.9677,71.3927
2154.4346900318824,3147.562,-14.47655,71.387
4641.588833612777,2830.813,-12.80457,71.4003
10000.0,2562.157,-11.2667,71.3847
