Frequency,Impedance,Phase Angle,Temperature (Dry Bath)
10.0,6700593.0,-6.095975,71.4723
21.544346900318832,6740275.0,-34.56974,71.4832
46.41588833612777,3590226.0,-12.39069,71.4874
100.0,838703.3,-26.26992,71.483
215.44346900318823,2114355.0,-83.84315,71.4855
464.15888336127773,673846.7,-122.3896,71.4745
1000.0,515140.8,-99.64985,71.479
2154.4346900318824,201292.5,-81.57735,71.4809
4641.588833612777,142259.7,-88.81303,71.4817
10000.0,59618.82,-82.94265,71.4848
