Frequency,Impedance,Phase Angle,Temperature (Dry Bath)
10.0,12653.99,-26.30254,71.4041
21.544346900318832,10230.38,-23.79386,71.391
46.41588833612777,8459.426,-21.2105,71.3657
100.0,7271.69,-19.09677,71.3843
215.44346900318823,6022.037,-16.60862,71.4008
464.15888336127773,5542.846,-14.26605,71.3968
1000.0,4903.159,-13.21837,71.3997
2154.4346900318824,4506.564,-11.47503,71.386
4641.588833612777,4123.175,-11.50438,71.402
10000.0,3802.553,-11.81276,71.3912
