Frequency,Impedance,Phase Angle,Temperature (Dry Bath)
10.0,6751056.0,17.54253,71.4495
21.544346900318832,6666080.0,-18.89481,71.4499
46.41588833612777,4907717.0,-6.718913,71.4421
100.0,2477905.0,-149.5599,71.4432
215.44346900318823,756329.2,-140.4135,71.436
464.15888336127773,1668985.0,-93.55588,71.4435
1000.0,791613.4,-26.20939,71.4309
2154.4346900318824,482340.4,-94.34725,71.4611
4641.588833612777,198619.1,-78.74613,71.4317
10000.0,128382.2,-90.57085,71.4308
