Frequency,Impedance,Phase Angle,Temperature (Dry Bath)
10.0,41435.57,-14.28864,70.6844
21.544346900318832,37524.68,-12.40266,70.6707
46.41588833612777,34493.53,-11.08722,70.697
100.0,31438.37,-11.26695,70.6887
215.44346900318823,28992.06,-8.559505,70.6889
464.15888336127773,27791.77,-12.45961,70.6727
1000.0,25666.06,-10.75249,70.6674
2154.4346900318824,24411.96,-8.59868,70.6779
4641.588833612777,20853.44,-16.66258,70.6804
10000.0,19022.76,-24.55093,70.6859
