Frequency,Impedance,Phase Angle,Temperature (Dry Bath)
10.0,5366364.0,7.116994,71.2683
21.544346900318832,6535034.0,-22.63757,71.2348
46.41588833612777,5300757.0,-1.856281,71.2743
100.0,312660.3,52.09443,71.2281
215.44346900318823,914258.4,-137.1998,71.2714
464.15888336127773,401306.6,22.72496,71.2559
1000.0,373556.9,-13.95862,71.2427
2154.4346900318824,415212.5,-107.6113,71.2749
4641.588833612777,1567070.0,-148.0461,71.2479
10000.0,193856.2,-63.62879,71.2476
