Frequency,Impedance,Phase Angle,Temperature (Dry Bath)
10.0,5325711.0,-9.399809,71.1912
21.544346900318832,5101306.0,-41.65051,71.1905
46.41588833612777,4706385.0,-4.302548,71.1898
100.0,595224.5,143.0649,71.1989
215.44346900318823,668362.7,-175.5303,71.1927
464.15888336127773,687648.7,-147.6008,71.1846
1000.0,671342.9,-51.11467,71.1953
2154.4346900318824,242751.4,-74.28378,71.2064
4641.588833612777,122247.6,-94.24732,71.1767
10000.0,59937.55,-81.99381,71.1798
