Frequency,Impedance,Phase Angle,Temperature (Dry Bath)
10.0,4378905.0,-34.22271,70.8574
21.544346900318832,4878160.0,-37.05967,70.8716
46.41588833612777,4067987.0,-41.76016,70.8551
100.0,490464.8,24.75752,70.8525
215.44346900318823,6030875.0,169.6524,70.866
464.15888336127773,1140607.0,-62.48359,70.8592
1000.0,250690.7,-71.40304,70.8501
2154.4346900318824,350361.9,-63.79313,70.8663
4641.588833612777,134829.5,-94.93842,70.8466
10000.0,63200.42,-89.6789,70.8503
