Frequency,Impedance,Phase Angle,Temperature (Dry Bath)
10.0,3600193.0,-4.260052,71.2485
21.544346900318832,4703978.0,11.31134,71.2475
46.41588833612777,6275946.0,5.637462,71.2397
100.0,555846.5,41.56111,71.2332
215.44346900318823,2200191.0,179.8817,71.247
464.15888336127773,1377071.0,-107.2848,71.2555
1000.0,873909.8,-55.20465,71.2545
2154.4346900318824,468103.0,-115.8532,71.2589
4641.588833612777,334066.8,-58.20961,71.2731
10000.0,169363.1,-78.81182,71.263
