Frequency,Impedance,Phase Angle,Temperature (Dry Bath)
10.0,6348918.0,8.679657,71.3727
21.544346900318832,3622907.0,-47.65989,71.3466
46.41588833612777,4568332.0,32.71622,71.3389
100.0,510286.5,-39.06784,71.3513
215.44346900318823,40300.26,-31.91686,71.3601
464.15888336127773,460999.2,-72.21789,71.3535
1000.0,435898.5,-102.9302,71.3503
2154.4346900318824,304318.7,-95.13464,71.3506
4641.588833612777,146032.4,-79.73013,71.3399
10000.0,55540.43,-88.37696,71.3489
