Frequency,Impedance,Phase Angle,Temperature (Dry Bath)
10.0,4721639.0,-2.155698,71.3112
21.544346900318832,8939652.0,16.06347,71.3067
46.41588833612777,4889111.0,-28.78037,71.2948
100.0,921073.1,24.35009,71.308
215.44346900318823,54526.11,23.33433,71.3118
464.15888336127773,1640718.0,-98.05701,71.2955
1000.0,891292.1,-15.15538,71.2999
2154.4346900318824,357328.8,-98.3773,71.301
4641.588833612777,209916.4,-81.79386,71.2995
10000.0,69702.41,-87.03967,71.3101
