Frequency,Impedance,Phase Angle,Temperature (Dry Bath)
10.0,3377902.0,12.27893,71.043
21.544346900318832,3653407.0,-1.558562,71.0456
46.41588833612777,5550998.0,-2.761003,71.0405
100.0,172307.2,25.85987,71.0497
215.44346900318823,365469.6,87.74553,71.0399
464.15888336127773,3493781.0,-20.40217,71.0441
1000.0,1445933.0,-127.1486,71.0444
2154.4346900318824,239092.5,-66.67681,71.0434
4641.588833612777,424276.3,-101.4535,71.0416
10000.0,152596.0,-97.84333,71.0353
