Frequency,Impedance,Phase Angle,Temperature (Dry Bath)
10.0,172498.5,-13.20625,71.3265
21.544346900318832,159466.0,-10.96673,71.3067
46.41588833612777,145574.2,-11.67448,71.3145
100.0,147697.0,-15.083,71.3035
215.44346900318823,134710.0,-19.58931,71.3047
464.15888336127773,111050.8,-17.15129,71.3171
1000.0,133587.2,-22.51264,71.3086
2154.4346900318824,97421.29,-19.62861,71.3288
4641.588833612777,69015.71,-36.39347,71.3129
10000.0,50929.38,-59.91349,71.3035
