Frequency,Impedance,Phase Angle,Temperature (Dry Bath)
10.0,10146.24,-28.5168,71.4047
21.544346900318832,7884.131,-29.02256,71.397
46.41588833612777,6110.072,-28.81485,71.4042
100.0,4739.089,-27.93601,71.4114
215.44346900318823,3768.793,-26.24522,71.4139
464.15888336127773,3022.694,-23.42719,71.3935
1000.0,2499.976,-20.74399,71.4006
2154.4346900318824,2115.728,-17.95766,71.4076
4641.588833612777,1848.486,-15.03963,71.4117
10000.0,1659.677,-13.33806,71.3975
