Frequency,Impedance,Phase Angle,Temperature (Dry Bath)
10.0,4470697.0,3.023852,70.7743
21.544346900318832,4256190.0,-9.720854,70.7781
46.41588833612777,4336912.0,-31.37667,70.7827
100.0,622184.5,-12.26894,70.7833
215.44346900318823,606043.4,-77.475,70.7734
464.15888336127773,1189562.0,10.8216,70.7798
1000.0,1680096.0,13.99891,70.7793
2154.4346900318824,231074.5,-70.50809,70.764
4641.588833612777,121716.7,-93.17922,70.7741
10000.0,57007.29,-84.92111,70.7677
