Frequency,Impedance,Phase Angle,Temperature (Dry Bath)
10.0,9103291.0,-23.06932,71.2207
21.544346900318832,4875611.0,-25.16548,71.2122
46.41588833612777,5087410.0,-17.58837,71.2124
100.0,602039.8,74.66533,71.2349
215.44346900318823,607312.8,-48.79766,71.2261
464.15888336127773,1381871.0,2.96091,71.2241
1000.0,564552.5,-24.49282,71.2459
2154.4346900318824,718312.6,-61.49404,71.2339
4641.588833612777,209184.3,-54.77248,71.2401
10000.0,136571.8,-94.00637,71.248
