Frequency,Impedance,Phase Angle,Temperature (Dry Bath)
10.0,4706905.0,-9.411885,71.4678
21.544346900318832,3912729.0,-12.49766,71.4582
46.41588833612777,4703563.0,-17.9181,71.4828
100.0,634285.7,-57.56341,71.4745
215.44346900318823,670260.4,-40.57841,71.4808
464.15888336127773,1445761.0,-51.70638,71.4718
1000.0,471585.7,-34.60268,71.4858
2154.4346900318824,545921.8,-45.869,71.474
4641.588833612777,174337.3,-81.97847,71.4903
10000.0,112195.4,-79.34289,71.4887
