Frequency,Impedance,Phase Angle,Temperature (Dry Bath)
10.0,5449539.0,11.53893,71.1848
21.544346900318832,4228880.0,-6.118566,71.2013
46.41588833612777,4443150.0,-37.36796,71.1674
100.0,3860367.0,145.0161,71.2041
215.44346900318823,801648.9,128.127,71.1736
464.15888336127773,709182.4,-40.97105,71.1715
1000.0,817366.7,-114.794,71.1827
2154.4346900318824,255664.8,-111.3596,71.175
4641.588833612777,135807.7,-87.21081,71.1928
10000.0,70195.13,-80.00629,71.1598
