Frequency,Impedance,Phase Angle,Temperature (Dry Bath)
10.0,160744.4,-18.52651,70.8454
21.544346900318832,136569.1,-18.68555,70.8476
46.41588833612777,119302.9,-19.24257,70.8416
100.0,95853.03,-16.65496,70.8383
215.44346900318823,93207.2,-18.82692,70.8412
464.15888336127773,69279.7,-22.28131,70.8475
1000.0,67759.95,-32.25564,70.8573
2154.4346900318824,54748.8,-35.38248,70.8566
4641.588833612777,44270.86,-38.29401,70.8522
10000.0,30856.4,-51.12153,70.8318
