Frequency,Impedance,Phase Angle,Temperature (Dry Bath)
10.0,7605583.0,-13.45146,71.1544
21.544346900318832,10897390.0,-13.21409,71.1532
46.41588833612777,5664373.0,-12.99832,71.1611
100.0,621345.8,-38.98627,71.148
215.44346900318823,188216.7,90.55086,71.1563
464.15888336127773,855312.0,-104.1365,71.156
1000.0,164642.7,-75.1826,71.1685
2154.4346900318824,194780.1,-108.7715,71.1457
4641.588833612777,101010.1,-88.9584,71.1404
10000.0,56701.18,-84.58613,71.1512
