Frequency,Impedance,Phase Angle,Temperature (Dry Bath)
10.0,155324.4,-10.79532,70.891
21.544346900318832,144814.7,-10.49638,70.889
46.41588833612777,132800.3,-9.771721,70.8846
100.0,100908.8,-23.17044,70.9038
215.44346900318823,150987.6,-17.2587,70.8931
464.15888336127773,93744.43,-4.880938,70.8904
1000.0,88598.52,-21.32837,70.8968
2154.4346900318824,85733.16,-31.17803,70.9023
4641.588833612777,68783.46,-49.94842,70.9061
10000.0,38200.68,-56.06377,70.8929
