Frequency,Impedance,Phase Angle,Temperature (Dry Bath)
10.0,55930.77,-14.62382,70.9547
21.544346900318832,49629.92,-13.19526,70.9641
46.41588833612777,45101.85,-12.18065,70.9572
100.0,41230.76,-17.55782,70.9629
215.44346900318823,35285.06,-11.58866,70.9604
464.15888336127773,36920.38,-15.68041,70.9782
1000.0,33191.72,-14.56666,70.9678
2154.4346900318824,25046.41,-9.673267,70.9664
4641.588833612777,23842.86,-23.88808,70.9817
10000.0,20191.5,-34.01516,70.964
