Frequency,Impedance,Phase Angle,Temperature (Dry Bath)
10.0,4293211.0,10.1561,29.1261
21.544346900318832,4992822.0,-6.70222,29.1176
46.41588833612777,4010606.0,-29.1795,29.2038
100.0,3082035.0,-22.30627,29.262
215.44346900318823,606002.4,-79.42225,29.1563
464.15888336127773,1835377.0,155.7492,29.1394
1000.0,280395.7,-54.2411,29.2986
2154.4346900318824,953240.8,-97.18526,29.2841
4641.588833612777,249626.8,-68.57377,29.2606
10000.0,140474.2,-87.3819,29.0435
