Frequency,Impedance,Phase Angle,Temperature (Dry Bath)
10.0,7083641.0,-28.94173,71.4125
21.544346900318832,7263672.0,-18.90131,71.4319
46.41588833612777,6431761.0,3.686081,71.4046
100.0,263422.2,172.8054,71.4024
215.44346900318823,14841.28,120.7125,71.407
464.15888336127773,1868671.0,-28.09863,71.4386
1000.0,378007.3,-102.2143,71.4166
2154.4346900318824,410298.2,-77.70855,71.434
4641.588833612777,165171.7,-97.67421,71.4221
10000.0,72682.25,-84.20335,71.4138
