Frequency,Impedance,Phase Angle,Temperature (Dry Bath)
10.0,3848609.0,-5.004367,71.1644
21.544346900318832,2914473.0,-27.62086,71.145
46.41588833612777,2559426.0,-27.91386,71.1491
100.0,1262474.0,-79.09389,71.1493
215.44346900318823,737404.7,-42.24109,71.1513
464.15888336127773,806033.4,-151.858,71.1429
1000.0,504399.3,-121.6102,71.131
2154.4346900318824,228987.2,-64.08179,71.1423
4641.588833612777,125076.6,-80.14513,71.147
10000.0,63654.5,-90.109,71.1486
