Frequency,Impedance,Phase Angle,Temperature (Dry Bath)
10.0,10239.7,-26.02849,71.4444
21.544346900318832,8327.186,-22.9669,71.4329
46.41588833612777,6958.714,-20.01824,71.4364
100.0,5981.401,-17.7795,71.431
215.44346900318823,5284.325,-15.23016,71.4323
464.15888336127773,4676.837,-12.7459,71.4375
1000.0,4221.615,-11.82981,71.4367
2154.4346900318824,3892.187,-9.581317,71.4235
4641.588833612777,3657.04,-9.842609,71.4317
10000.0,3458.862,-9.908714,71.4275
