Frequency,Impedance,Phase Angle,Temperature (Dry Bath)
10.0,8686616.0,-0.4289051,70.9295
21.544346900318832,5350861.0,-32.42721,70.9279
46.41588833612777,4514603.0,-28.24979,70.9227
100.0,484496.0,-47.75153,70.9341
215.44346900318823,775178.6,-141.7773,70.9343
464.15888336127773,526857.7,-17.12052,70.9277
1000.0,1982929.0,85.65916,70.9353
2154.4346900318824,310363.6,-61.47863,70.9344
4641.588833612777,114549.0,-90.96312,70.9233
10000.0,61425.07,-88.53638,70.9298
