Frequency,Impedance,Phase Angle,Temperature (Dry Bath)
10.0,7039924.0,14.15089,70.8986
21.544346900318832,4028909.0,-2.485132,70.8979
46.41588833612777,4096555.0,-37.05358,70.8938
100.0,482583.3,-57.07881,70.8929
215.44346900318823,954256.9,120.5237,70.8835
464.15888336127773,666049.1,-138.799,70.8904
1000.0,477606.2,-116.9218,70.8803
2154.4346900318824,264774.6,-88.20068,70.8936
4641.588833612777,122388.3,-78.88599,70.8759
10000.0,64845.25,-87.27128,70.8942
