Frequency,Impedance,Phase Angle,Temperature (Dry Bath)
10.0,8497848.0,15.49923,25.9662
21.544346900318832,5479924.0,29.45371,26.0899
46.41588833612777,4361043.0,-18.02429,26.0963
100.0,1202071.0,33.69446,26.112
215.44346900318823,1783534.0,23.57008,26.0092
464.15888336127773,1570270.0,-123.2459,26.2202
1000.0,868386.3,79.66906,26.1477
2154.4346900318824,411933.7,-67.68294,25.4864
4641.588833612777,312064.4,-89.76446,25.6005
10000.0,158981.6,-81.09698,25.579
