Frequency,Impedance,Phase Angle,Temperature (Dry Bath)
10.0,6131562.0,-14.35734,70.7753
21.544346900318832,4440184.0,5.265866,70.754
46.41588833612777,5087951.0,-22.68472,70.7692
100.0,799452.1,-47.06276,70.7738
215.44346900318823,579681.8,22.23281,70.7635
464.15888336127773,679988.9,-67.0825,70.7699
1000.0,1219461.0,-39.38101,70.7843
2154.4346900318824,283961.7,-80.79308,70.7552
4641.588833612777,141036.6,-83.03663,70.7703
10000.0,56972.67,-85.08247,70.7513
