Frequency,Impedance,Phase Angle,Temperature (Dry Bath)
10.0,902810.6,-32.99157,71.375
21.544346900318832,618080.5,-28.8724,71.3849
46.41588833612777,495023.5,-30.75025,71.3884
100.0,176692.2,-28.90275,71.3764
215.44346900318823,25972.98,-80.63459,71.3704
464.15888336127773,295405.2,-37.60609,71.3822
1000.0,235672.5,-17.54499,71.4002
2154.4346900318824,157232.3,-62.83283,71.3753
4641.588833612777,83302.04,-60.10169,71.3826
10000.0,53926.68,-72.45459,71.3798
