Frequency,Impedance,Phase Angle,Temperature (Dry Bath)
10.0,3489093.0,-10.95784,70.7624
21.544346900318832,4249914.0,-24.2599,70.783
46.41588833612777,7119081.0,-23.64461,70.7796
100.0,357939.7,-5.797376,70.7668
215.44346900318823,917653.1,172.3052,70.7562
464.15888336127773,614702.6,124.0291,70.7597
1000.0,453263.5,38.30951,70.7615
2154.4346900318824,354109.2,-83.82611,70.7807
4641.588833612777,121330.0,-88.01427,70.7581
10000.0,63687.73,-90.96826,70.7722
