Frequency,Impedance,Phase Angle,Temperature (Dry Bath)
10.0,4465889.0,7.700752,72.0086
21.544346900318832,3851138.0,34.45721,72.0074
46.41588833612777,5128545.0,-9.207756,71.9974
100.0,717614.4,-111.4614,71.9964
215.44346900318823,1207866.0,26.56324,72.0012
464.15888336127773,914214.0,-85.13047,72.0092
1000.0,337353.7,-146.1162,71.9946
2154.4346900318824,508955.0,-136.9707,72.0077
4641.588833612777,287906.5,-118.7415,72.0047
10000.0,267511.9,-79.24173,72.0014
