Frequency,Impedance,Phase Angle,Temperature (Dry Bath)
10.0,23656.66,-19.84543,71.2067
21.544346900318832,20272.09,-17.49069,71.198
46.41588833612777,17662.52,-15.63207,71.2045
100.0,15477.33,-15.81934,71.2067
215.44346900318823,14263.4,-11.62852,71.2058
464.15888336127773,12568.67,-10.95914,71.2234
1000.0,11734.06,-9.746695,71.23
2154.4346900318824,11128.43,-9.765087,71.2419
4641.588833612777,10217.26,-10.97332,71.2368
10000.0,9558.907,-15.30089,71.2384
