Frequency,Impedance,Phase Angle,Temperature (Dry Bath)
10.0,23619.93,-21.17894,71.4672
21.544346900318832,19980.19,-18.28072,71.4694
46.41588833612777,17304.57,-15.50305,71.4625
100.0,15742.47,-12.9675,71.4609
215.44346900318823,16478.05,43.85446,71.4618
464.15888336127773,12979.5,-7.884244,71.4517
1000.0,12360.25,-10.15679,71.458
2154.4346900318824,11459.02,-9.205684,71.4472
4641.588833612777,11191.02,-11.16597,71.4593
10000.0,10113.37,-14.31292,71.4549
