Frequency,Impedance,Phase Angle,Temperature (Dry Bath)
10.0,174043.7,-12.37651,71.4706
21.544346900318832,158767.4,-11.24205,71.4669
46.41588833612777,146877.8,-11.13246,71.4435
100.0,147319.6,-13.11563,71.4489
215.44346900318823,108818.2,-3.554964,71.4688
464.15888336127773,124701.0,-19.45552,71.4712
1000.0,100256.1,-39.34065,71.4597
2154.4346900318824,84866.4,-31.28589,71.4604
4641.588833612777,68665.83,-34.57237,71.4656
10000.0,51143.99,-49.95732,71.4684
