Frequency,Impedance,Phase Angle,Temperature (Dry Bath)
10.0,5526164.0,42.9978,71.091
21.544346900318832,5822524.0,20.04749,71.0778
46.41588833612777,5556826.0,-33.93644,71.0705
100.0,747320.3,-83.32769,71.0685
215.44346900318823,1244910.0,147.7709,71.0581
464.15888336127773,2634800.0,-93.47643,71.0817
1000.0,585456.6,-44.39795,71.0909
2154.4346900318824,352575.6,-58.35084,71.0629
4641.588833612777,155670.8,-80.19153,71.0729
10000.0,66574.02,-85.34025,71.0781
