Frequency,Impedance,Phase Angle,Temperature (Dry Bath)
10.0,4030863.0,23.6822,71.3365
21.544346900318832,8722107.0,-26.53011,71.3463
46.41588833612777,5678852.0,-28.90271,71.3329
100.0,7818845.0,-130.1313,71.3446
215.44346900318823,776991.3,8.765841,71.3244
464.15888336127773,1247117.0,-94.83708,71.3237
1000.0,370550.6,-98.90032,71.3233
2154.4346900318824,268348.5,-84.33857,71.3431
4641.588833612777,136940.7,-77.98118,71.3252
10000.0,71767.14,-81.20187,71.3457
