Frequency,Impedance,Phase Angle,Temperature (Dry Bath)
10.0,8973986.0,3.505161,71.2724
21.544346900318832,5594699.0,-18.52293,71.2888
46.41588833612777,4312595.0,-25.69557,71.2735
100.0,485736.0,-38.86949,71.2966
215.44346900318823,876164.6,165.0036,71.2796
464.15888336127773,735688.3,-122.8463,71.2858
1000.0,400412.7,-108.3057,71.2942
2154.4346900318824,362324.5,-98.02774,71.2894
4641.588833612777,247120.1,-77.9762,71.2938
10000.0,63408.64,-86.07831,71.2859
