Frequency,Impedance,Phase Angle,Temperature (Dry Bath)
10.0,5499322.0,13.73512,70.6096
21.544346900318832,5291277.0,-21.91144,70.5869
46.41588833612777,4184814.0,-29.78973,70.6034
100.0,694174.5,-165.0517,70.6112
215.44346900318823,672068.4,-43.08557,70.6042
464.15888336127773,1442875.0,-56.79869,70.6065
1000.0,377879.6,-146.0663,70.6096
2154.4346900318824,166558.8,-53.85005,70.5998
4641.588833612777,126324.4,-82.77586,70.6015
10000.0,60933.22,-82.1581,70.6106
