Frequency,Impedance,Phase Angle,Temperature (Dry Bath)
10.0,8770265.0,-29.67664,71.4197
21.544346900318832,5409658.0,-30.38001,71.4247
46.41588833612777,4558812.0,-34.89274,71.4433
100.0,1826046.0,-61.79245,71.4207
215.44346900318823,560907.1,64.42171,71.4281
464.15888336127773,1614090.0,57.85845,71.4261
1000.0,431938.8,-83.17761,71.4326
2154.4346900318824,222787.9,-89.21813,71.4252
4641.588833612777,130400.7,-78.74322,71.4276
10000.0,52854.77,-82.49566,71.4192
