Frequency,Impedance,Phase Angle,Temperature (Dry Bath)
10.0,4620295.0,-7.239639,71.2975
21.544346900318832,4541743.0,-5.608679,71.3036
46.41588833612777,6945848.0,-24.5628,71.2878
100.0,594025.4,37.02833,71.3028
215.44346900318823,719386.3,-73.20818,71.3017
464.15888336127773,1258097.0,-122.0877,71.2984
1000.0,183856.2,-45.93233,71.2931
2154.4346900318824,433947.2,-70.6691,71.2918
4641.588833612777,108269.0,-101.8523,71.2976
10000.0,60037.54,-88.95893,71.3044
