Frequency,Impedance,Phase Angle,Temperature (Dry Bath)
10.0,137076.0,-17.48208,71.2855
21.544346900318832,119769.2,-17.31723,71.3072
46.41588833612777,106188.2,-15.39604,71.2937
100.0,107173.0,-13.60358,71.291
215.44346900318823,35398.02,-53.56298,71.2978
464.15888336127773,68892.87,-17.54338,71.2905
1000.0,56831.28,-30.69719,71.3008
2154.4346900318824,52591.2,-24.90073,71.2903
4641.588833612777,39731.27,-31.98854,71.303
10000.0,31683.01,-48.51674,71.3102
