Frequency,Impedance,Phase Angle,Temperature (Dry Bath)
10.0,5244115.0,-18.27438,71.1254
21.544346900318832,4707092.0,-12.35988,71.1283
46.41588833612777,5254644.0,-30.54019,71.1312
100.0,654219.3,45.43016,71.1236
215.44346900318823,1564512.0,-98.51253,71.1288
464.15888336127773,2366707.0,-37.49551,71.1307
1000.0,455231.2,-70.76909,71.1277
2154.4346900318824,344873.3,-77.78,71.1196
4641.588833612777,185274.4,-92.45264,71.1193
10000.0,61218.86,-89.32461,71.1401
