Frequency,Impedance,Phase Angle,Temperature (Dry Bath)
10.0,563026.8,-24.16484,71.4191
21.544346900318832,444706.1,-25.17384,71.4038
46.41588833612777,365785.6,-23.5304,71.4185
100.0,253413.0,-3.538147,71.4131
215.44346900318823,19035.52,152.9955,71.4223
464.15888336127773,203139.3,-18.51372,71.418
1000.0,188159.0,-28.57809,71.421
2154.4346900318824,149724.2,-46.36993,71.4103
4641.588833612777,85200.31,-63.68213,71.4057
10000.0,50395.55,-64.96964,71.4172
