Frequency,Impedance,Phase Angle,Temperature (Dry Bath)
10.0,4719625.0,13.31225,71.3733
21.544346900318832,6738088.0,-31.00491,71.3807
46.41588833612777,5041908.0,-35.68828,71.3733
100.0,493518.2,-44.94918,71.3658
215.44346900318823,29496.31,175.9036,71.3753
464.15888336127773,2259035.0,-59.58442,71.3574
1000.0,975047.1,-42.95093,71.3616
2154.4346900318824,262248.6,-76.15388,71.3851
4641.588833612777,138442.4,-88.72996,71.3727
10000.0,68495.5,-81.23323,71.3869
