Frequency,Impedance,Phase Angle,Temperature (Dry Bath)
10.0,24697.9,-20.40357,71.299
21.544346900318832,21036.49,-17.88656,71.3208
46.41588833612777,18253.08,-15.95669,71.2913
100.0,16311.03,-14.18707,71.3091
215.44346900318823,14695.26,-5.188297,71.309
464.15888336127773,13504.72,-9.974286,71.306
1000.0,12219.93,-10.25518,71.296
2154.4346900318824,11557.32,-9.402493,71.3046
4641.588833612777,11030.49,-10.80425,71.3035
10000.0,9933.753,-15.19712,71.3086
