Frequency,Impedance,Phase Angle,Temperature (Dry Bath)
10.0,377749.7,-24.56142,70.895
21.544346900318832,307070.9,-22.68172,70.8974
46.41588833612777,251836.2,-20.65508,70.9036
100.0,150685.1,2.750575,70.8824
215.44346900318823,155015.4,-9.783809,70.8818
464.15888336127773,131571.7,-17.55768,70.8924
1000.0,136226.4,-33.79812,70.8901
2154.4346900318824,88112.38,-38.79341,70.8962
4641.588833612777,63820.54,-48.57194,70.8785
10000.0,40493.67,-62.87895,70.8849
