Frequency,Impedance,Phase Angle,Temperature (Dry Bath)
10.0,2082851.0,-18.55888,71.0878
21.544346900318832,1502046.0,-20.18865,71.0575
46.41588833612777,1352112.0,-21.07416,71.0785
100.0,1883787.0,46.29006,71.0846
215.44346900318823,1008010.0,-55.82852,71.0852
464.15888336127773,2118886.0,163.1505,71.0841
1000.0,466176.2,-77.41138,71.0971
2154.4346900318824,228695.9,-70.35945,71.0965
4641.588833612777,146097.2,-71.66514,71.0749
10000.0,68050.17,-83.25593,71.0748
