Frequency,Impedance,Phase Angle,Temperature (Dry Bath)
10.0,65596.25,-14.48021,70.8552
21.544346900318832,59254.86,-12.10156,70.87
46.41588833612777,54738.32,-11.02254,70.8779
100.0,50303.21,-5.395761,70.8503
215.44346900318823,47603.72,-6.686702,70.8583
464.15888336127773,43974.14,-13.06403,70.8404
1000.0,43463.51,-10.12589,70.8649
2154.4346900318824,38001.73,-13.87739,70.8706
4641.588833612777,34272.87,-20.78117,70.8535
10000.0,28955.84,-33.19053,70.8419
