Frequency,Impedance,Phase Angle,Temperature (Dry Bath)
10.0,266502.5,-12.87473,72.2235
21.544346900318832,246575.1,-14.40668,72.2345
46.41588833612777,217251.1,-14.03885,72.2279
100.0,120918.2,-9.055315,72.2172
215.44346900318823,160573.9,-20.44149,72.1926
464.15888336127773,175297.8,-6.736179,72.1903
1000.0,109360.1,-15.2833,72.2183
2154.4346900318824,146136.8,-30.80046,72.2148
4641.588833612777,140121.8,-35.66577,72.1919
10000.0,74081.69,-61.91452,72.1958
