Frequency,Impedance,Phase Angle,Temperature (Dry Bath)
10.0,14593.66,-20.56942,70.9151
21.544346900318832,12532.37,-17.58025,70.8987
46.41588833612777,10992.85,-15.24915,70.9223
100.0,9777.561,-12.61883,70.9014
215.44346900318823,8954.232,-12.43718,70.9235
464.15888336127773,7909.881,-11.56932,70.9209
1000.0,7393.952,-10.01274,70.9147
2154.4346900318824,6891.445,-9.026236,70.9253
4641.588833612777,6497.809,-9.653896,70.9281
10000.0,6127.493,-11.57705,70.9349
