Frequency,Impedance,Phase Angle,Temperature (Dry Bath)
10.0,5532846.0,-17.69001,70.8217
21.544346900318832,4385514.0,-9.154361,70.8285
46.41588833612777,5779181.0,3.184134,70.8405
100.0,582947.9,68.95595,70.8196
215.44346900318823,913857.6,0.20073,70.8303
464.15888336127773,1925399.0,-55.83716,70.8247
1000.0,550887.3,-54.34018,70.8353
2154.4346900318824,197195.9,-66.78065,70.8162
4641.588833612777,111753.0,-83.01302,70.8441
10000.0,55477.84,-83.45145,70.816
