Frequency,Impedance,Phase Angle,Temperature (Dry Bath)
10.0,6692162.0,13.79749,71.1146
21.544346900318832,13782540.0,-55.45228,71.132
46.41588833612777,6075175.0,-7.911204,71.1416
100.0,3013854.0,101.8946,71.119
215.44346900318823,599532.3,-102.2161,71.1305
464.15888336127773,475247.6,146.5222,71.1432
1000.0,699401.5,-59.5904,71.113
2154.4346900318824,468894.7,-49.17699,71.1334
4641.588833612777,178220.1,-72.76665,71.1208
10000.0,159022.8,-99.4371,71.1221
