Frequency,Impedance,Phase Angle,Temperature (Dry Bath)
10.0,139444.2,-13.47033,71.1065
21.544346900318832,127100.0,-12.65979,71.1211
46.41588833612777,115607.3,-11.62433,71.1084
100.0,96287.65,-16.13484,71.1304
215.44346900318823,97335.83,-12.9842,71.1217
464.15888336127773,78215.51,-12.28786,71.1292
1000.0,71310.27,-11.67472,71.1274
2154.4346900318824,64674.44,-20.16692,71.1142
4641.588833612777,60651.16,-33.92353,71.1388
10000.0,46697.24,-49.82782,71.114
