Frequency,Impedance,Phase Angle,Temperature (Dry Bath)
10.0,20975.47,-21.91125,29.1032
21.544346900318832,17293.04,-23.58215,29.0609
46.41588833612777,13967.71,-24.79845,29.0494
100.0,11273.9,-25.81554,29.1139
215.44346900318823,8919.485,-25.68078,29.1037
464.15888336127773,7240.829,-24.5535,28.9307
1000.0,5872.0,-23.12001,29.1245
2154.4346900318824,4805.397,-21.97086,29.098
4641.588833612777,3986.383,-20.27516,29.0574
10000.0,3435.824,-18.67291,29.1526
