Frequency,Impedance,Phase Angle,Temperature (Dry Bath)
10.0,1130387.0,-27.12573,71.3155
21.544346900318832,1034301.0,-16.38031,71.3251
46.41588833612777,838652.6,-20.66898,71.3408
100.0,385713.8,-46.96057,71.3337
215.44346900318823,539370.1,22.62577,71.3191
464.15888336127773,582058.6,-47.82019,71.3454
1000.0,276232.7,-35.01535,71.3348
2154.4346900318824,194097.5,-82.6443,71.3369
4641.588833612777,128453.6,-84.02553,71.3022
10000.0,58976.43,-77.73408,71.3293
