Frequency,Impedance,Phase Angle,Temperature (Dry Bath)
10.0,5570544.0,-14.34804,70.947
21.544346900318832,4003303.0,-19.73106,70.9161
46.41588833612777,5125720.0,-43.25038,70.9297
100.0,432391.7,20.65059,70.9175
215.44346900318823,1113028.0,133.3591,70.9088
464.15888336127773,259897.6,-120.7957,70.9401
1000.0,404020.0,-70.80721,70.9353
2154.4346900318824,306487.7,-107.0109,70.9187
4641.588833612777,176808.6,-78.36318,70.9314
10000.0,65020.73,-83.30932,70.9277
