Frequency,Impedance,Phase Angle,Temperature (Dry Bath)
10.0,6822760.0,15.57993,72.0831
21.544346900318832,4184626.0,4.526586,72.0689
46.41588833612777,5375327.0,-30.16231,72.0887
100.0,322652.8,-16.41392,72.0924
215.44346900318823,721603.9,-26.51168,72.0854
464.15888336127773,722514.2,-95.14925,72.0637
1000.0,460215.3,-64.9434,72.0911
2154.4346900318824,263691.8,-42.89585,72.0845
4641.588833612777,331981.6,-138.9804,72.0815
10000.0,110625.6,-59.80679,72.0814
