Frequency,Impedance,Phase Angle,Temperature (Dry Bath)
10.0,37023.09,-19.79156,71.2419
21.544346900318832,31598.66,-19.47886,71.2357
46.41588833612777,26920.08,-19.75626,71.2349
100.0,22081.77,-22.00309,71.2283
215.44346900318823,19739.36,-18.90154,71.2392
464.15888336127773,16167.61,-22.11293,71.2377
1000.0,13201.87,-22.25397,71.2333
2154.4346900318824,10518.25,-22.21937,71.2273
4641.588833612777,8494.869,-21.62592,71.2267
10000.0,7146.732,-19.14593,71.2247
