Frequency,Impedance,Phase Angle,Temperature (Dry Bath)
10.0,6877694.0,3.433576,71.4671
21.544346900318832,9089388.0,-12.59698,71.4749
46.41588833612777,4628982.0,-26.99073,71.4807
100.0,652337.4,-15.41768,71.4732
215.44346900318823,1005112.0,-57.37401,71.466
464.15888336127773,1390266.0,8.013775,71.473
1000.0,663543.2,-116.8752,71.4728
2154.4346900318824,553929.2,-54.50344,71.4881
4641.588833612777,303753.2,-92.77448,71.4754
10000.0,111706.9,-84.04532,71.4783
