Frequency,Impedance,Phase Angle,Temperature (Dry Bath)
10.0,12576.6,-23.55337,71.5441
21.544346900318832,10271.19,-24.02154,71.5588
46.41588833612777,8322.807,-23.69493,71.5249
100.0,6842.205,-22.32089,71.5341
215.44346900318823,5707.765,-19.61677,71.5445
464.15888336127773,4900.311,-17.82042,71.5371
1000.0,4247.328,-15.6868,71.5353
2154.4346900318824,3769.831,-14.36559,71.5384
4641.588833612777,3331.483,-13.38156,71.5379
10000.0,3009.082,-12.51194,71.5135
