Frequency,Impedance,Phase Angle,Temperature (Dry Bath)
10.0,10231.12,-41.34994,71.434
21.544346900318832,7279.981,-37.96956,71.4215
46.41588833612777,5326.75,-33.87743,71.4349
100.0,4082.859,-29.22567,71.4023
215.44346900318823,3233.771,-24.24899,71.422
464.15888336127773,2720.292,-19.79193,71.4233
1000.0,2341.216,-17.01852,71.4357
2154.4346900318824,2068.935,-14.65896,71.4206
4641.588833612777,1846.456,-12.65868,71.4294
10000.0,1681.574,-10.69837,71.4085
