Frequency,Impedance,Phase Angle,Temperature (Dry Bath)
10.0,5183160.0,3.979289,71.0078
21.544346900318832,5541565.0,-2.362141,71.0053
46.41588833612777,4306974.0,-34.62704,70.9956
100.0,1211262.0,-50.71829,71.0097
215.44346900318823,1101485.0,-80.4002,71.0031
464.15888336127773,4201603.0,-71.31179,71.0028
1000.0,743109.3,-61.26357,71.0002
2154.4346900318824,264710.8,-67.26778,71.007
4641.588833612777,137388.3,-74.26795,71.0072
10000.0,55033.33,-90.32312,71.0092
