Frequency,Impedance,Phase Angle,Temperature (Dry Bath)
10.0,3568805.0,-24.41066,71.513
21.544346900318832,5091708.0,-26.04362,71.525
46.41588833612777,5879990.0,-27.05235,71.5247
100.0,775742.6,-33.47822,71.5255
215.44346900318823,981934.1,12.59922,71.5206
464.15888336127773,1515199.0,-172.937,71.541
1000.0,406667.2,13.50472,71.5215
2154.4346900318824,201092.6,-75.34423,71.5238
4641.588833612777,108476.9,-77.44257,71.5245
10000.0,56033.44,-83.13582,71.5105
