Frequency,Impedance,Phase Angle,Temperature (Dry Bath)
10.0,5267851.0,14.21421,70.5865
21.544346900318832,4680300.0,-5.760969,70.5789
46.41588833612777,5335432.0,-21.82833,70.6002
100.0,569924.8,-30.13121,70.5863
215.44346900318823,494975.3,-171.169,70.5953
464.15888336127773,541456.1,2.656064,70.584
1000.0,320040.8,-119.4054,70.5901
2154.4346900318824,254623.9,-47.81931,70.5859
4641.588833612777,91157.27,-78.60323,70.5998
10000.0,55863.76,-83.5739,70.5865
