Frequency,Impedance,Phase Angle,Temperature (Dry Bath)
10.0,6401755.0,-1.404341,70.9187
21.544346900318832,7532707.0,9.657176,70.9111
46.41588833612777,4950788.0,-47.28793,70.9149
100.0,489705.3,2.686459,70.922
215.44346900318823,4015761.0,95.0872,70.9003
464.15888336127773,650438.5,-135.3883,70.9076
1000.0,251085.8,54.63912,70.9262
2154.4346900318824,328831.9,-82.00857,70.9262
4641.588833612777,129769.6,-83.51071,70.9255
10000.0,68715.42,-87.27842,70.8987
