Frequency,Impedance,Phase Angle,Temperature (Dry Bath)
10.0,11367000.0,-0.6319655,71.2895
21.544346900318832,4530954.0,-16.18144,71.2996
46.41588833612777,5313284.0,-15.1965,71.3043
100.0,747116.5,-66.04575,71.2868
215.44346900318823,1419357.0,56.02207,71.2968
464.15888336127773,694900.3,-81.64951,71.2997
1000.0,6638608.0,163.585,71.2912
2154.4346900318824,227689.7,-103.6438,71.2872
4641.588833612777,120668.5,-85.20691,71.2986
10000.0,76523.67,-80.13062,71.296
