Frequency,Impedance,Phase Angle,Temperature (Dry Bath)
10.0,254365.6,-25.07737,71.3978
21.544346900318832,211290.3,-21.63429,71.3956
46.41588833612777,186193.0,-19.06047,71.3866
100.0,149431.1,-14.14134,71.4082
215.44346900318823,108867.8,-101.4864,71.398
464.15888336127773,151031.8,-13.32054,71.3959
1000.0,103760.3,-16.5942,71.4042
2154.4346900318824,82423.88,-42.4629,71.3873
4641.588833612777,61986.12,-42.8605,71.4163
10000.0,43308.6,-60.93663,71.3914
