Frequency,Impedance,Phase Angle,Temperature (Dry Bath)
10.0,5337513.0,-17.94995,70.9858
21.544346900318832,7320386.0,-29.27124,70.996
46.41588833612777,4198475.0,0.8793772,70.9974
100.0,514639.2,76.73451,70.9931
215.44346900318823,636524.1,-99.217,70.9932
464.15888336127773,669925.7,164.583,70.9882
1000.0,537963.2,1.126266,71.0002
2154.4346900318824,621250.3,-92.307,70.9925
4641.588833612777,302039.4,-87.73861,70.9833
10000.0,130893.1,-91.09458,70.988
