Frequency,Impedance,Phase Angle,Temperature (Dry Bath)
10.0,3860353.0,4.630306,71.505
21.544346900318832,6880817.0,-23.85682,71.5228
46.41588833612777,5206025.0,-15.78188,71.5164
100.0,552234.7,-150.0058,71.5222
215.44346900318823,1094413.0,-51.11462,71.5288
464.15888336127773,1295131.0,46.89179,71.5123
1000.0,419198.9,-108.9426,71.505
2154.4346900318824,518144.1,-91.29845,71.5028
4641.588833612777,178569.8,-69.78759,71.5165
10000.0,143274.0,-88.10892,71.5075
