Frequency,Impedance,Phase Angle,Temperature (Dry Bath)
10.0,3957728.0,-28.68501,70.5044
21.544346900318832,4866035.0,1.627607,70.4635
46.41588833612777,3613340.0,-24.4182,70.4806
100.0,2028629.0,-111.0849,70.4913
215.44346900318823,411224.9,-93.07125,70.4743
464.15888336127773,1544584.0,-118.435,70.4658
1000.0,390126.3,-58.80855,70.4937
2154.4346900318824,176679.2,-83.4168,70.4737
4641.588833612777,135268.9,-100.5243,70.5002
10000.0,49999.46,-91.05937,70.4917
