Frequency,Impedance,Phase Angle,Temperature (Dry Bath)
10.0,1091346.0,-3.288294,71.7259
21.544346900318832,1025602.0,-4.927448,71.7271
46.41588833612777,1010317.0,-6.157329,71.7185
100.0,3462687.0,127.473,71.748
215.44346900318823,329128.0,-49.00055,71.7235
464.15888336127773,562928.6,-26.13865,71.7368
1000.0,385542.8,179.6338,71.7406
2154.4346900318824,132623.0,-51.98737,71.7449
4641.588833612777,274176.0,-40.91793,71.726
10000.0,172294.5,-102.6182,71.7359
