Frequency,Impedance,Phase Angle,Temperature (Dry Bath)
10.0,5788358.0,-16.8561,28.8807
21.544346900318832,4849838.0,-6.507953,28.8551
46.41588833612777,5214182.0,-26.21563,28.7748
100.0,839578.5,11.82236,28.8501
215.44346900318823,1814385.0,-110.9436,28.779
464.15888336127773,924332.4,-130.4367,28.6601
1000.0,669977.7,-158.7361,28.5783
2154.4346900318824,617358.0,-87.57956,28.8624
4641.588833612777,379534.2,-89.1027,28.9874
10000.0,130322.1,-90.47373,28.7875
