Frequency,Impedance,Phase Angle,Temperature (Dry Bath)
10.0,153382.4,-14.92837,71.1692
21.544346900318832,138834.6,-12.83494,71.1827
46.41588833612777,127813.1,-12.73091,71.1669
100.0,94638.4,-19.64225,71.1931
215.44346900318823,110356.2,-24.30564,71.1691
464.15888336127773,81671.5,-12.06964,71.1759
1000.0,80904.54,-14.69558,71.1656
2154.4346900318824,60394.3,-14.3661,71.1631
4641.588833612777,73335.54,-32.29195,71.1694
10000.0,67274.91,-31.713,71.1725
