Frequency,Impedance,Phase Angle,Temperature (Dry Bath)
10.0,137818.6,-16.04179,70.3907
21.544346900318832,120947.6,-15.82964,70.3733
46.41588833612777,107584.6,-14.17293,70.3865
100.0,91366.56,-17.33661,70.383
215.44346900318823,86565.81,-25.53043,70.3704
464.15888336127773,64269.41,-23.78458,70.3898
1000.0,67770.66,-17.31543,70.3692
2154.4346900318824,67236.82,-11.58906,70.3778
4641.588833612777,72329.0,-17.52626,70.378
10000.0,45196.81,-31.78141,70.3865
