Frequency,Impedance,Phase Angle,Temperature (Dry Bath)
10.0,7483.693,-35.702,70.6074
21.544346900318832,5653.919,-31.09633,70.6093
46.41588833612777,4447.33,-26.61804,70.6044
100.0,3638.176,-22.02385,70.6083
215.44346900318823,3070.584,-18.67285,70.6176
464.15888336127773,2683.865,-15.31978,70.6176
1000.0,2404.305,-12.85253,70.6153
2154.4346900318824,2178.101,-11.10347,70.6106
4641.588833612777,2002.139,-9.7893,70.6219
10000.0,1890.384,-9.126013,70.606
