Frequency,Impedance,Phase Angle,Temperature (Dry Bath)
10.0,20255.22,-12.2744,71.4139
21.544346900318832,18538.51,-10.93453,71.4031
46.41588833612777,17013.13,-10.08482,71.4029
100.0,15899.96,-10.05454,71.4168
215.44346900318823,14710.46,-8.560001,71.4244
464.15888336127773,13917.67,-7.965252,71.4212
1000.0,12852.97,-8.179372,71.409
2154.4346900318824,12202.92,-6.802051,71.3976
4641.588833612777,11333.56,-8.131767,71.4216
10000.0,11104.19,-8.847132,71.4114
