Frequency,Impedance,Phase Angle,Temperature (Dry Bath)
10.0,285100.8,-12.83052,71.8463
21.544346900318832,247945.3,-14.53884,71.8336
46.41588833612777,231296.5,-14.82169,71.8319
100.0,163533.4,-2.052397,71.8452
215.44346900318823,221708.5,-38.5971,71.8323
464.15888336127773,173528.9,-3.218743,71.8492
1000.0,107061.2,-19.33723,71.8447
2154.4346900318824,130999.0,-21.20678,71.8486
4641.588833612777,111579.5,-37.43351,71.8434
10000.0,68297.91,-41.618,71.8487
