Frequency,Impedance,Phase Angle,Temperature (Dry Bath)
10.0,5013784.0,-25.58421,70.9722
21.544346900318832,3946931.0,2.770831,70.9886
46.41588833612777,4917639.0,-26.67019,70.9759
100.0,1050676.0,1.131161,70.9613
215.44346900318823,560538.0,-66.3733,70.9714
464.15888336127773,604781.4,-46.1869,70.9746
1000.0,673034.9,-35.34118,70.9718
2154.4346900318824,358492.9,-86.85825,70.9769
4641.588833612777,132581.3,-81.02379,70.975
10000.0,68527.28,-86.82338,70.9676
