Frequency,Impedance,Phase Angle,Temperature (Dry Bath)
10.0,9169.954,-25.6589,70.8446
21.544346900318832,7496.425,-22.51141,70.8638
46.41588833612777,6291.802,-19.47391,70.8465
100.0,5475.42,-16.84509,70.8536
215.44346900318823,4818.04,-14.6793,70.8522
464.15888336127773,4285.429,-12.51315,70.8672
1000.0,3961.808,-11.31183,70.8562
2154.4346900318824,3629.729,-9.150637,70.8694
4641.588833612777,3386.609,-9.054356,70.8761
10000.0,3200.454,-9.168429,70.8492
