Frequency,Impedance,Phase Angle,Temperature (Dry Bath)
10.0,236819.1,-22.64831,71.2423
21.544346900318832,197749.7,-21.86876,71.2532
46.41588833612777,165704.7,-19.8601,71.246
100.0,106260.0,-27.53556,71.237
215.44346900318823,88001.9,-14.14827,71.2329
464.15888336127773,110053.3,-22.91228,71.2503
1000.0,88245.2,-22.67755,71.2373
2154.4346900318824,83651.12,-35.96568,71.2436
4641.588833612777,64762.77,-45.4167,71.2396
10000.0,38294.72,-57.56521,71.2346
