Frequency,Impedance,Phase Angle,Temperature (Dry Bath)
10.0,24476.64,-20.08056,71.2306
21.544346900318832,20935.2,-17.60603,71.2334
46.41588833612777,18160.85,-15.68878,71.236
100.0,15772.05,-15.44201,71.2403
215.44346900318823,14901.7,-11.5354,71.2401
464.15888336127773,13340.58,-10.32912,71.2349
1000.0,12232.64,-9.957485,71.245
2154.4346900318824,11561.47,-8.382152,71.2671
4641.588833612777,10857.62,-11.04285,71.2341
10000.0,10055.53,-14.80394,71.2539
