Frequency,Impedance,Phase Angle,Temperature (Dry Bath)
10.0,2771120.0,-16.37291,71.0324
21.544346900318832,2262671.0,-7.18726,71.04
46.41588833612777,2562789.0,-20.53537,71.0501
100.0,923931.8,28.22816,71.0593
215.44346900318823,435233.5,-3.838815,71.0653
464.15888336127773,629666.8,-177.697,71.049
1000.0,253356.0,22.43418,71.05
2154.4346900318824,391251.8,-25.2976,71.0616
4641.588833612777,215525.3,-76.53942,71.0498
10000.0,171068.3,-88.19801,71.058
