Frequency,Impedance,Phase Angle,Temperature (Dry Bath)
10.0,24098.02,-20.90436,71.4342
21.544346900318832,20398.87,-18.16827,71.4393
46.41588833612777,17700.63,-15.73001,71.4508
100.0,15540.2,-13.27682,71.4299
215.44346900318823,14760.91,-11.09488,71.4243
464.15888336127773,12909.54,-9.78136,71.433
1000.0,12167.95,-9.358348,71.4175
2154.4346900318824,11528.7,-8.664933,71.4281
4641.588833612777,10882.17,-11.40244,71.4336
10000.0,10334.08,-14.9002,71.4076
