Frequency,Impedance,Phase Angle,Temperature (Dry Bath)
10.0,167450.7,-13.86193,70.8975
21.544346900318832,152149.1,-12.26489,70.9018
46.41588833612777,137500.5,-12.1637,70.8898
100.0,113860.8,-20.70615,70.8949
215.44346900318823,129909.4,-11.57388,70.8993
464.15888336127773,102170.2,-13.70971,70.9006
1000.0,91938.74,-11.00054,70.8985
2154.4346900318824,79182.06,-22.59687,70.9005
4641.588833612777,77152.17,-38.93976,70.9049
10000.0,43751.53,-54.67119,70.908
