Frequency,Impedance,Phase Angle,Temperature (Dry Bath)
10.0,3150919.0,-17.22033,71.13
21.544346900318832,5451480.0,-16.24888,71.1442
46.41588833612777,4089340.0,-16.54351,71.1318
100.0,540722.1,96.26641,71.131
215.44346900318823,1202305.0,-9.307695,71.1252
464.15888336127773,2737013.0,-43.44422,71.1386
1000.0,249851.5,-86.7086,71.1373
2154.4346900318824,257241.1,-92.19843,71.1365
4641.588833612777,141250.7,-80.54075,71.1325
10000.0,61500.51,-89.50644,71.1221
