Frequency,Impedance,Phase Angle,Temperature (Dry Bath)
10.0,56376.42,-10.90715,29.0651
21.544346900318832,52002.97,-9.33558,29.0479
46.41588833612777,48906.54,-8.072174,28.9959
100.0,44845.83,-7.251891,28.9408
215.44346900318823,42466.63,-8.450258,29.0507
464.15888336127773,45317.53,-14.56175,29.1265
1000.0,40520.86,-8.262963,29.1474
2154.4346900318824,39227.88,-12.06961,29.17
4641.588833612777,35966.34,-13.10163,29.0115
10000.0,32402.04,-23.67123,29.1048
