Frequency,Impedance,Phase Angle,Temperature (Dry Bath)
10.0,4520283.0,-11.38961,70.9433
21.544346900318832,3968750.0,-18.67974,70.937
46.41588833612777,5273398.0,-26.79887,70.9317
100.0,1233622.0,70.30534,70.9408
215.44346900318823,822085.2,-19.64783,70.9426
464.15888336127773,458504.4,-75.58774,70.9287
1000.0,341781.3,-34.79891,70.9377
2154.4346900318824,207556.5,-91.65486,70.9337
4641.588833612777,120968.0,-89.95996,70.921
10000.0,57498.29,-86.04194,70.9364
