Frequency,Impedance,Phase Angle,Temperature (Dry Bath)
10.0,218020.0,-24.44829,71.2804
21.544346900318832,178027.8,-23.98313,71.2767
46.41588833612777,148676.0,-20.44634,71.2609
100.0,172475.1,-24.97702,71.2699
215.44346900318823,7818.323,-73.43837,71.2589
464.15888336127773,86436.58,-19.15028,71.2764
1000.0,77509.89,-14.92994,71.279
2154.4346900318824,71160.62,-27.67617,71.2798
4641.588833612777,63080.86,-48.80732,71.2805
10000.0,36769.54,-56.50127,71.2755
