Frequency,Impedance,Phase Angle,Temperature (Dry Bath)
10.0,4732684.0,-37.13298,72.2072
21.544346900318832,5174094.0,-4.759544,72.1992
46.41588833612777,4164665.0,-5.359457,72.1953
100.0,335226.0,21.99095,72.194
215.44346900318823,543079.7,-102.33,72.2085
464.15888336127773,443870.8,10.08965,72.2043
1000.0,279896.0,-106.7854,72.2222
2154.4346900318824,343142.8,-108.9853,72.2098
4641.588833612777,483738.4,-8.489168,72.2083
10000.0,151752.3,-92.81203,72.1911
