Frequency,Impedance,Phase Angle,Temperature (Dry Bath)
10.0,239635.7,-12.74792,71.3617
21.544346900318832,222414.1,-14.46432,71.3623
46.41588833612777,200777.4,-13.6487,71.3625
100.0,134476.5,-12.3226,71.3702
215.44346900318823,12187.55,-93.841,71.3742
464.15888336127773,142247.5,-29.29417,71.3807
1000.0,112591.5,-14.88412,71.366
2154.4346900318824,92333.76,-35.86965,71.3544
4641.588833612777,69134.82,-48.91283,71.3592
10000.0,45055.64,-61.83955,71.3734
