Frequency,Impedance,Phase Angle,Temperature (Dry Bath)
10.0,164542.9,-13.58544,71.0653
21.544346900318832,147026.8,-12.64257,71.0712
46.41588833612777,135534.8,-12.23439,71.0775
100.0,111092.1,-8.074736,71.0601
215.44346900318823,119008.3,-8.377173,71.0756
464.15888336127773,94520.15,-11.69599,71.0655
1000.0,93041.69,-15.74935,71.0815
2154.4346900318824,77598.0,-25.53373,71.0696
4641.588833612777,66101.07,-41.57831,71.0647
10000.0,49820.31,-57.6655,71.0786
