Frequency,Impedance,Phase Angle,Temperature (Dry Bath)
10.0,14659.78,-19.49302,70.8701
21.544346900318832,12640.84,-16.72909,70.8761
46.41588833612777,11155.16,-14.51156,70.8781
100.0,9944.107,-12.63232,70.8891
215.44346900318823,9044.346,-10.4557,70.8767
464.15888336127773,8389.72,-9.509232,70.8837
1000.0,7872.421,-9.760064,70.8808
2154.4346900318824,7285.475,-9.358953,70.8865
4641.588833612777,6856.11,-10.31506,70.8939
10000.0,6319.618,-13.15383,70.8824
