Frequency,Impedance,Phase Angle,Temperature (Dry Bath)
10.0,11006.14,-22.00515,70.7781
21.544346900318832,9377.909,-18.18169,70.7681
46.41588833612777,8216.705,-15.37547,70.7706
100.0,7360.519,-12.51061,70.7781
215.44346900318823,6665.527,-11.63365,70.7614
464.15888336127773,6077.171,-9.593811,70.7671
1000.0,5511.919,-8.871112,70.7699
2154.4346900318824,5369.959,-7.707069,70.7919
4641.588833612777,5097.949,-7.747167,70.7725
10000.0,4791.868,-9.86431,70.7732
