Frequency,Impedance,Phase Angle,Temperature (Dry Bath)
10.0,7057789.0,-19.23866,71.1929
21.544346900318832,6619910.0,-19.5413,71.1937
46.41588833612777,4134574.0,-29.42486,71.2046
100.0,934629.6,-107.3623,71.2065
215.44346900318823,1066380.0,-86.81617,71.1905
464.15888336127773,502832.2,-25.1637,71.1881
1000.0,428760.6,-51.11464,71.2119
2154.4346900318824,214138.6,-85.33687,71.2246
4641.588833612777,123834.4,-82.75162,71.2118
10000.0,60853.61,-84.08382,71.2142
