Frequency,Impedance,Phase Angle,Temperature (Dry Bath)
10.0,11200.35,-24.60966,70.961
21.544346900318832,9300.353,-20.76279,70.9527
46.41588833612777,7952.352,-17.37912,70.9603
100.0,6993.838,-14.45687,70.973
215.44346900318823,6334.698,-12.19079,70.9618
464.15888336127773,5768.428,-10.94219,70.9458
1000.0,5425.172,-9.580021,70.9704
2154.4346900318824,4968.392,-7.922181,70.9492
4641.588833612777,4709.231,-8.309271,70.9693
10000.0,4462.62,-9.689606,70.972
