Frequency,Impedance,Phase Angle,Temperature (Dry Bath)
10.0,219114.6,-25.67145,71.2921
21.544346900318832,172598.5,-24.9053,71.3015
46.41588833612777,143343.8,-20.53691,71.3083
100.0,98126.24,-14.704,71.2982
215.44346900318823,38712.5,-49.42615,71.3053
464.15888336127773,97356.69,-19.64286,71.296
1000.0,79167.7,-10.71851,71.2848
2154.4346900318824,64736.89,-24.87069,71.2975
4641.588833612777,58146.24,-41.18314,71.3013
10000.0,37147.73,-50.92753,71.2961
