Frequency,Impedance,Phase Angle,Temperature (Dry Bath)
10.0,11127520.0,-50.89087,71.3298
21.544346900318832,6720588.0,-1.897724,71.3367
46.41588833612777,5284273.0,-6.562136,71.3274
100.0,612779.9,-58.19534,71.3257
215.44346900318823,689498.7,38.33266,71.33
464.15888336127773,1410989.0,-152.3486,71.317
1000.0,1183603.0,30.47045,71.339
2154.4346900318824,539912.6,7.447555,71.3579
4641.588833612777,278852.3,-159.1092,71.3569
10000.0,154159.9,-89.27582,71.3573
