Frequency,Impedance,Phase Angle,Temperature (Dry Bath)
10.0,6869106.0,18.68914,71.3043
21.544346900318832,6728077.0,1.411633,71.3098
46.41588833612777,3343125.0,-15.08306,71.311
100.0,490312.3,-84.71489,71.3166
215.44346900318823,652199.2,73.18966,71.324
464.15888336127773,839889.4,-119.7112,71.2985
1000.0,212862.2,-134.1684,71.2991
2154.4346900318824,225128.2,-95.41308,71.3068
4641.588833612777,110647.6,-104.2991,71.306
10000.0,53962.84,-86.05041,71.3184
