Frequency,Impedance,Phase Angle,Temperature (Dry Bath)
10.0,4364724.0,5.155183,71.0118
21.544346900318832,9562634.0,-32.04746,71.0128
46.41588833612777,4563948.0,-38.21516,71.0078
100.0,462273.5,12.74835,71.0206
215.44346900318823,689768.1,-130.3146,71.0038
464.15888336127773,979287.6,-61.56193,70.9953
1000.0,478813.7,-101.8044,70.9982
2154.4346900318824,200198.6,-76.73972,71.0112
4641.588833612777,119787.8,-88.78715,71.0022
10000.0,58228.48,-82.85572,71.0058
