Frequency,Impedance,Phase Angle,Temperature (Dry Bath)
10.0,623245.4,-29.3204,71.2548
21.544346900318832,498608.9,-27.07894,71.2658
46.41588833612777,388966.3,-22.45843,71.271
100.0,165028.0,-20.22641,71.2738
215.44346900318823,17676.57,-43.32107,71.2725
464.15888336127773,220663.9,-31.62544,71.2715
1000.0,197038.3,-34.70664,71.2638
2154.4346900318824,184248.4,-38.8079,71.2742
4641.588833612777,97646.41,-52.42185,71.2564
10000.0,52736.64,-68.81716,71.2667
