Frequency,Impedance,Phase Angle,Temperature (Dry Bath)
10.0,155254.2,-9.302226,71.3475
21.544346900318832,146021.0,-7.934513,71.3727
46.41588833612777,138290.6,-7.430271,71.3556
100.0,102712.4,-18.67906,71.3705
215.44346900318823,180127.5,-21.93266,71.3631
464.15888336127773,114135.2,-15.12795,71.3605
1000.0,170695.1,-36.76087,71.342
2154.4346900318824,84874.04,-36.13957,71.3628
4641.588833612777,80510.36,-42.17939,71.3332
10000.0,42813.49,-58.08506,71.3694
