Frequency,Impedance,Phase Angle,Temperature (Dry Bath)
10.0,4896666.0,-2.908011,71.4019
21.544346900318832,4813013.0,-19.33044,71.4018
46.41588833612777,4269713.0,-15.95752,71.3901
100.0,830977.0,73.31935,71.3923
215.44346900318823,1035795.0,-61.15483,71.3981
464.15888336127773,1127506.0,-153.0557,71.4048
1000.0,1363663.0,-172.2339,71.3923
2154.4346900318824,318924.6,-91.15804,71.3946
4641.588833612777,266206.7,-68.28662,71.4048
10000.0,110556.8,-81.43148,71.393
