Frequency,Impedance,Phase Angle,Temperature (Dry Bath)
10.0,23064.56,-29.07005,70.6031
21.544346900318832,18196.68,-26.89045,70.5892
46.41588833612777,14537.43,-24.79638,70.6007
100.0,12042.68,-23.10403,70.6038
215.44346900318823,9972.673,-19.07524,70.5939
464.15888336127773,8695.642,-16.6362,70.5753
1000.0,7519.096,-15.3998,70.6007
2154.4346900318824,6878.538,-11.471,70.5794
4641.588833612777,6280.934,-11.08755,70.5876
10000.0,5893.803,-13.74613,70.5944
