Frequency,Impedance,Phase Angle,Temperature (Dry Bath)
10.0,5537070.0,-12.5902,71.378
21.544346900318832,4545970.0,19.78271,71.3731
46.41588833612777,5033533.0,-5.230482,71.3827
100.0,1181101.0,12.45468,71.3768
215.44346900318823,833605.7,-115.4838,71.381
464.15888336127773,2193891.0,-15.83929,71.3955
1000.0,260947.0,-71.39243,71.398
2154.4346900318824,268503.6,-63.78448,71.3843
4641.588833612777,123404.8,-89.28764,71.3735
10000.0,63391.99,-79.07946,71.3816
