Frequency,Impedance,Phase Angle,Temperature (Dry Bath)
10.0,30602.83,-22.92047,29.1704
21.544346900318832,25213.84,-22.50184,29.0657
46.41588833612777,21022.78,-22.33267,29.2177
100.0,17340.47,-22.50817,28.8147
215.44346900318823,14574.57,-22.88248,28.7096
464.15888336127773,12120.93,-22.84139,28.8851
1000.0,10032.34,-22.9488,28.7623
2154.4346900318824,8194.733,-22.79944,28.73
4641.588833612777,6666.952,-21.89101,28.6439
10000.0,5574.663,-20.6494,28.485
