Frequency,Impedance,Phase Angle,Temperature (Dry Bath)
10.0,9068083.0,-4.818231,71.3966
21.544346900318832,6166004.0,11.97447,71.4008
46.41588833612777,5551807.0,-3.392709,71.3987
100.0,572356.9,-16.08096,71.3979
215.44346900318823,2761542.0,-156.8418,71.4029
464.15888336127773,981883.3,6.845797,71.3911
1000.0,441050.0,-94.15328,71.4037
2154.4346900318824,227053.3,-69.89031,71.3876
4641.588833612777,177873.8,-84.74071,71.4048
10000.0,69526.39,-86.39347,71.392
