Frequency,Impedance,Phase Angle,Temperature (Dry Bath)
10.0,10393.58,-25.96121,71.4236
21.544346900318832,8456.319,-22.94548,71.4356
46.41588833612777,7062.989,-20.0679,71.4149
100.0,6076.215,-17.60687,71.4245
215.44346900318823,5276.492,-15.84298,71.4167
464.15888336127773,4762.759,-12.84762,71.4309
1000.0,4283.461,-11.57161,71.4191
2154.4346900318824,3956.271,-9.913427,71.4336
4641.588833612777,3692.21,-9.204814,71.4215
10000.0,3472.61,-10.40161,71.4253
