Frequency,Impedance,Phase Angle,Temperature (Dry Bath)
10.0,4781185.0,-3.916379,71.8462
21.544346900318832,3671105.0,-26.21253,71.8499
46.41588833612777,4623934.0,-14.07103,71.8534
100.0,1321691.0,-90.34523,71.8678
215.44346900318823,801918.3,-83.37063,71.8494
464.15888336127773,361790.6,-11.66393,71.8468
1000.0,1078091.0,-114.3093,71.8468
2154.4346900318824,320071.9,-119.2858,71.8541
4641.588833612777,501391.7,-101.4973,71.8529
10000.0,114266.8,-81.53546,71.8534
