Frequency,Impedance,Phase Angle,Temperature (Dry Bath)
10.0,575658.2,-5.197199,71.5143
21.544346900318832,563638.6,-3.412595,71.5196
46.41588833612777,547565.7,-5.188832,71.5375
100.0,334436.7,-11.34951,71.5258
215.44346900318823,318661.6,6.155585,71.5228
464.15888336127773,526392.1,-0.7125619,71.5128
1000.0,388659.7,-21.54754,71.5128
2154.4346900318824,318879.9,-50.83495,71.5368
4641.588833612777,142169.8,-71.8746,71.5197
10000.0,99515.39,-67.23364,71.5122
