Frequency,Impedance,Phase Angle,Temperature (Dry Bath)
10.0,5717793.0,13.0252,71.469
21.544346900318832,4243716.0,-1.226608,71.4678
46.41588833612777,4424009.0,-17.03496,71.4713
100.0,271440.0,-25.75696,71.4737
215.44346900318823,904647.2,21.30376,71.478
464.15888336127773,688303.5,-77.04904,71.4869
1000.0,427125.6,-0.6675937,71.4819
2154.4346900318824,239447.8,-93.08146,71.4688
4641.588833612777,160312.8,-80.98183,71.4794
10000.0,65513.98,-82.71092,71.4901
