Frequency,Impedance,Phase Angle,Temperature (Dry Bath)
10.0,16026.81,-23.7701,71.4946
21.544346900318832,13019.35,-24.01646,71.4768
46.41588833612777,10607.74,-23.50038,71.4681
100.0,8713.12,-22.49149,71.4757
215.44346900318823,7219.091,-20.23301,71.4727
464.15888336127773,6240.445,-18.34315,71.4752
1000.0,5365.142,-16.66848,71.47
2154.4346900318824,4684.55,-15.4962,71.482
4641.588833612777,4132.078,-14.79902,71.4831
10000.0,3702.974,-13.90598,71.4825
