Frequency,Impedance,Phase Angle,Temperature (Dry Bath)
10.0,31964.57,-14.96069,71.5232
21.544346900318832,28317.25,-13.40711,71.5307
46.41588833612777,25448.71,-12.43999,71.5337
100.0,23244.12,-12.13699,71.5392
215.44346900318823,21590.02,-10.10743,71.5211
464.15888336127773,19742.14,-11.07076,71.5501
1000.0,18245.05,-9.333276,71.5494
2154.4346900318824,16597.63,-10.67198,71.5503
4641.588833612777,15320.99,-12.85072,71.5538
10000.0,14053.62,-16.61454,71.5492
