Frequency,Impedance,Phase Angle,Temperature (Dry Bath)
10.0,5166067.0,-24.76161,71.3298
21.544346900318832,12321850.0,-14.94509,71.3301
46.41588833612777,4617405.0,-19.37565,71.3146
100.0,2477691.0,-8.019723,71.3167
215.44346900318823,1877414.0,-97.87381,71.3274
464.15888336127773,843445.0,-162.7772,71.3362
1000.0,488582.0,-43.98978,71.3447
2154.4346900318824,314384.0,-79.40269,71.3428
4641.588833612777,235120.6,-74.70699,71.3567
10000.0,115529.6,-76.98207,71.3513
