Frequency,Impedance,Phase Angle,Temperature (Dry Bath)
10.0,7979317.0,-26.44841,71.2161
21.544346900318832,6450486.0,-40.24771,71.2086
46.41588833612777,5061775.0,-39.81223,71.2144
100.0,815000.2,48.45231,71.2228
215.44346900318823,778484.3,-81.97721,71.2204
464.15888336127773,452822.1,2.434858,71.2271
1000.0,451183.1,-113.0866,71.2067
2154.4346900318824,285225.8,-70.006,71.2284
4641.588833612777,122948.4,-71.8367,71.2389
10000.0,62477.1,-85.94002,71.2265
