Frequency,Impedance,Phase Angle,Temperature (Dry Bath)
10.0,840834.0,-30.65622,71.2584
21.544346900318832,695745.5,-24.72057,71.2706
46.41588833612777,595323.6,-18.66945,71.2726
100.0,425573.9,12.57143,71.2718
215.44346900318823,27184.08,-27.95366,71.281
464.15888336127773,646861.8,-52.94905,71.2716
1000.0,255312.5,-46.25307,71.2869
2154.4346900318824,200008.8,-47.0951,71.2923
4641.588833612777,115537.5,-49.62065,71.2806
10000.0,60211.85,-71.36045,71.2645
