Frequency,Impedance,Phase Angle,Temperature (Dry Bath)
10.0,6085329.0,-3.827184,70.8017
21.544346900318832,4543860.0,4.862999,70.8143
46.41588833612777,5940738.0,-28.47149,70.8131
100.0,609653.5,-43.73876,70.8172
215.44346900318823,693278.4,-35.10013,70.7953
464.15888336127773,598938.7,-134.019,70.7951
1000.0,260249.6,-139.5571,70.8192
2154.4346900318824,179187.9,-66.18581,70.8134
4641.588833612777,163951.1,-78.49856,70.8013
10000.0,62352.05,-94.3824,70.8127
