Frequency,Impedance,Phase Angle,Temperature (Dry Bath)
10.0,140532.2,-12.09478,71.0406
21.544346900318832,129147.5,-11.72634,71.041
46.41588833612777,118164.2,-10.90987,71.0268
100.0,86379.29,-11.82949,71.0158
215.44346900318823,91403.31,-11.83285,71.0061
464.15888336127773,89026.85,-22.24699,71.0281
1000.0,76220.04,-12.31737,71.0343
2154.4346900318824,67446.92,-26.23985,71.0417
4641.588833612777,60048.15,-40.94888,71.0268
10000.0,37500.17,-54.98031,71.0415
