Frequency,Impedance,Phase Angle,Temperature (Dry Bath)
10.0,7678.142,-35.70856,71.4458
21.544346900318832,5802.63,-31.29783,71.4607
46.41588833612777,4552.065,-26.95415,71.4629
100.0,3710.277,-22.83529,71.4549
215.44346900318823,3126.32,-18.82185,71.4688
464.15888336127773,2720.328,-15.61714,71.4588
1000.0,2404.845,-13.33174,71.4597
2154.4346900318824,2189.918,-11.21144,71.4647
4641.588833612777,2020.226,-9.720386,71.4643
10000.0,1901.951,-9.043764,71.478
