Frequency,Impedance,Phase Angle,Temperature (Dry Bath)
10.0,13268480.0,-6.031273,71.5359
21.544346900318832,4272596.0,-13.62906,71.5428
46.41588833612777,7092424.0,-2.218092,71.5489
100.0,1145875.0,-2.769038,71.5317
215.44346900318823,3436650.0,-19.95839,71.5446
464.15888336127773,826972.4,-91.1308,71.546
1000.0,838654.3,-79.58647,71.5261
2154.4346900318824,621182.4,-40.50615,71.5349
4641.588833612777,234581.9,-83.15929,71.5399
10000.0,138234.6,-93.79782,71.5351
