Frequency,Impedance,Phase Angle,Temperature (Dry Bath)
10.0,210952.9,-16.48689,71.0888
21.544346900318832,185887.8,-12.9155,71.0777
46.41588833612777,166796.8,-14.43271,71.0915
100.0,123420.6,-6.202287,71.0733
215.44346900318823,223061.6,-25.8812,71.0747
464.15888336127773,94754.75,-15.19684,71.0927
1000.0,107357.9,-45.18705,71.0809
2154.4346900318824,74619.43,-11.44074,71.0951
4641.588833612777,78985.04,-31.18905,71.086
10000.0,56090.6,-58.26351,71.0994
