Frequency,Impedance,Phase Angle,Temperature (Dry Bath)
10.0,202143.7,-19.57397,71.3277
21.544346900318832,174533.5,-19.11267,71.3181
46.41588833612777,149823.9,-16.64939,71.3189
100.0,154764.3,-2.778071,71.3211
215.44346900318823,33843.68,-17.73976,71.3227
464.15888336127773,93674.61,-18.26099,71.3203
1000.0,72033.68,-18.2416,71.3121
2154.4346900318824,72285.02,-33.13757,71.3248
4641.588833612777,54742.99,-41.57667,71.3044
10000.0,37767.67,-51.85061,71.3227
