Frequency,Impedance,Phase Angle,Temperature (Dry Bath)
10.0,11599070.0,-13.37924,71.4851
21.544346900318832,3962685.0,-27.34049,71.495
46.41588833612777,6535001.0,-42.08369,71.4924
100.0,594574.3,-114.9767,71.4799
215.44346900318823,1983995.0,-123.6516,71.4785
464.15888336127773,2142325.0,-37.70993,71.4765
1000.0,247876.7,-135.0263,71.4875
2154.4346900318824,209697.3,-122.5071,71.4886
4641.588833612777,167692.0,-80.77234,71.4775
10000.0,64898.69,-87.72084,71.4799
