Frequency,Impedance,Phase Angle,Temperature (Dry Bath)
10.0,5219951.0,-15.53694,71.1352
21.544346900318832,8662453.0,-24.02436,71.137
46.41588833612777,5845883.0,-27.63036,71.1334
100.0,584906.3,57.57933,71.1378
215.44346900318823,4532597.0,112.9475,71.125
464.15888336127773,1233443.0,-142.5883,71.1284
1000.0,641169.4,-126.4322,71.1467
2154.4346900318824,718295.7,-140.2029,71.1453
4641.588833612777,151355.5,-82.27682,71.1468
10000.0,56604.68,-89.39786,71.1339
