Frequency,Impedance,Phase Angle,Temperature (Dry Bath)
10.0,4389674.0,-9.730008,70.8354
21.544346900318832,4663549.0,-16.87972,70.849
46.41588833612777,5291960.0,-49.86068,70.8356
100.0,2513730.0,-100.7973,70.8648
215.44346900318823,1543913.0,-178.3021,70.8588
464.15888336127773,1037468.0,-80.75523,70.859
1000.0,1040933.0,-110.0944,70.8447
2154.4346900318824,238144.7,-97.27187,70.8515
4641.588833612777,147282.9,-63.7548,70.8528
10000.0,64055.78,-74.69689,70.8548
