Frequency,Impedance,Phase Angle,Temperature (Dry Bath)
10.0,4864642.0,9.286357,70.8806
21.544346900318832,5362509.0,1.075228,70.8859
46.41588833612777,3948032.0,-14.59704,70.8901
100.0,3529048.0,-48.11574,70.8791
215.44346900318823,529453.0,-87.23786,70.8962
464.15888336127773,1004634.0,-53.61683,70.8743
1000.0,437109.9,-81.5711,70.8833
2154.4346900318824,215590.0,-89.79159,70.8798
4641.588833612777,130556.4,-85.03362,70.8917
10000.0,58535.64,-85.96937,70.8772
