Frequency,Impedance,Phase Angle,Temperature (Dry Bath)
10.0,2664081.0,-9.785926,71.3095
21.544346900318832,2925026.0,-26.97925,71.3092
46.41588833612777,2144863.0,-30.98968,71.3031
100.0,135888.1,-47.59325,71.3152
215.44346900318823,629217.1,-89.78665,71.3112
464.15888336127773,955053.9,-41.22847,71.2994
1000.0,384220.2,-40.41315,71.3169
2154.4346900318824,282108.4,-97.04107,71.3093
4641.588833612777,142120.0,-71.19547,71.2993
10000.0,62229.27,-84.03968,71.3105
