Frequency,Impedance,Phase Angle,Temperature (Dry Bath)
10.0,6163374.0,3.566347,70.8059
21.544346900318832,6037511.0,-25.94415,70.8123
46.41588833612777,5623265.0,-19.52682,70.8009
100.0,512930.7,13.28098,70.7959
215.44346900318823,2069081.0,-38.983,70.8097
464.15888336127773,495877.7,-81.13749,70.8088
1000.0,537258.9,-79.42839,70.8156
2154.4346900318824,499756.3,-85.04312,70.8126
4641.588833612777,146977.0,-90.08518,70.7819
10000.0,62440.33,-92.05468,70.7955
