Frequency,Impedance,Phase Angle,Temperature (Dry Bath)
10.0,23647.43,-19.83172,71.3758
21.544346900318832,20241.53,-17.60836,71.3746
46.41588833612777,17630.61,-15.67555,71.3835
100.0,15009.5,-12.55981,71.3704
215.44346900318823,14211.35,-12.89253,71.3653
464.15888336127773,12717.42,-11.75057,71.3684
1000.0,11610.51,-9.349274,71.3649
2154.4346900318824,11241.68,-8.7571,71.3747
4641.588833612777,10526.6,-11.41697,71.3673
10000.0,9736.406,-15.00937,71.3815
