Frequency,Impedance,Phase Angle,Temperature (Dry Bath)
10.0,36074.98,-30.17892,71.3191
21.544346900318832,28007.53,-28.6425,71.3033
46.41588833612777,21996.96,-26.80036,71.314
100.0,17117.36,-22.63887,71.2986
215.44346900318823,14527.3,-21.98977,71.304
464.15888336127773,12317.38,-19.65895,71.3056
1000.0,10694.18,-13.95123,71.3056
2154.4346900318824,9470.544,-15.26736,71.3141
4641.588833612777,8513.366,-14.84206,71.3368
10000.0,7974.556,-16.21751,71.3326
