Frequency,Impedance,Phase Angle,Temperature (Dry Bath)
10.0,3718008.0,-13.28218,70.9088
21.544346900318832,8090203.0,-17.98292,70.9252
46.41588833612777,4060024.0,-22.06944,70.9098
100.0,2372509.0,151.2839,70.9105
215.44346900318823,713121.6,-63.10118,70.9173
464.15888336127773,2348387.0,-111.0865,70.9208
1000.0,374285.0,-142.8696,70.9179
2154.4346900318824,314110.9,-81.79295,70.909
4641.588833612777,132017.1,-88.19824,70.9114
10000.0,60944.41,-86.62485,70.917
