Frequency,Impedance,Phase Angle,Temperature (Dry Bath)
10.0,5726630.0,-19.5252,71.1913
21.544346900318832,4349810.0,-6.563943,71.198
46.41588833612777,4535329.0,-39.293,71.1838
100.0,390839.7,3.787728,71.186
215.44346900318823,695668.6,-75.9277,71.1794
464.15888336127773,641996.6,-117.5168,71.1817
1000.0,398324.7,-106.8799,71.1764
2154.4346900318824,302375.0,-73.35075,71.1807
4641.588833612777,125141.9,-78.70906,71.1739
10000.0,67142.41,-77.59905,71.1825
