Frequency,Impedance,Phase Angle,Temperature (Dry Bath)
10.0,5164101.0,2.512354,71.0998
21.544346900318832,3994285.0,-2.333579,71.0866
46.41588833612777,7070074.0,-20.4441,71.0854
100.0,348486.3,54.38752,71.0887
215.44346900318823,818568.4,-58.39609,71.0929
464.15888336127773,721341.5,-51.95969,71.0934
1000.0,559280.4,-108.8519,71.106
2154.4346900318824,288935.4,-114.1564,71.0975
4641.588833612777,151274.8,-100.6779,71.1017
10000.0,67829.95,-83.71404,71.0988
