Frequency,Impedance,Phase Angle,Temperature (Dry Bath)
10.0,3544252.0,0.2988377,71.1362
21.544346900318832,2940094.0,-25.42747,71.137
46.41588833612777,2648609.0,-33.58482,71.1341
100.0,429882.2,3.074949,71.1265
215.44346900318823,611697.3,22.46957,71.1225
464.15888336127773,479399.7,-54.80061,71.1211
1000.0,673981.8,7.340387,71.1291
2154.4346900318824,178152.0,-56.88496,71.1215
4641.588833612777,120586.8,-82.80599,71.1362
10000.0,57826.13,-86.05379,71.1188
