Frequency,Impedance,Phase Angle,Temperature (Dry Bath)
10.0,9715512.0,-17.96048,71.2858
21.544346900318832,4767123.0,-23.192,71.2972
46.41588833612777,8606701.0,-95.50561,71.2897
100.0,2228845.0,53.472,71.2828
215.44346900318823,17310.42,22.99615,71.2902
464.15888336127773,659132.5,-23.19812,71.2886
1000.0,1163460.0,-77.40643,71.2805
2154.4346900318824,379702.6,-81.94981,71.2701
4641.588833612777,145573.9,-88.41863,71.2828
10000.0,61505.01,-79.48963,71.2916
