Frequency,Impedance,Phase Angle,Temperature (Dry Bath)
10.0,4678374.0,4.490035,70.9467
21.544346900318832,4622483.0,-14.95684,70.9598
46.41588833612777,3375899.0,-42.27898,70.9412
100.0,1063754.0,32.60924,70.9523
215.44346900318823,419109.8,25.59649,70.951
464.15888336127773,938046.9,-43.10323,70.9554
1000.0,1106553.0,-102.686,70.9615
2154.4346900318824,298925.5,-89.89712,70.934
4641.588833612777,178642.5,-81.15308,70.9523
10000.0,72559.88,-90.37541,70.9488
