Frequency,Impedance,Phase Angle,Temperature (Dry Bath)
10.0,40926.78,-16.38313,70.6967
21.544346900318832,35857.73,-15.00479,70.7029
46.41588833612777,31759.69,-13.64963,70.7045
100.0,29786.78,-15.70429,70.6934
215.44346900318823,27188.0,-10.12284,70.6978
464.15888336127773,24200.89,-10.93901,70.7063
1000.0,22110.81,-11.70518,70.7149
2154.4346900318824,20756.42,-12.78513,70.6987
4641.588833612777,18466.0,-16.06327,70.7073
10000.0,16886.22,-23.44079,70.7111
