Frequency,Impedance,Phase Angle,Temperature (Dry Bath)
10.0,55155.04,-15.32565,71.2829
21.544346900318832,49360.17,-13.89587,71.3023
46.41588833612777,44584.63,-12.63107,71.3204
100.0,42768.91,-10.53411,71.295
215.44346900318823,35876.15,-12.24714,71.2773
464.15888336127773,34301.59,-8.981638,71.2831
1000.0,31900.14,-10.42975,71.2784
2154.4346900318824,29728.04,-10.43403,71.2833
4641.588833612777,26996.13,-13.64037,71.3044
10000.0,23515.71,-19.17914,71.2808
