Frequency,Impedance,Phase Angle,Temperature (Dry Bath)
10.0,102033.2,-14.52058,71.3084
21.544346900318832,91672.25,-13.26294,71.3076
46.41588833612777,82572.33,-12.11915,71.3205
100.0,71354.11,-9.239208,71.3044
215.44346900318823,79807.4,-1.850225,71.3167
464.15888336127773,62606.1,-7.327342,71.3135
1000.0,58183.42,-12.72012,71.317
2154.4346900318824,52774.75,-20.59124,71.3063
4641.588833612777,45947.52,-21.587,71.3135
10000.0,36813.26,-44.12215,71.329
