Frequency,Impedance,Phase Angle,Temperature (Dry Bath)
10.0,4090218.0,-3.092437,70.912
21.544346900318832,3589233.0,-9.851258,70.9172
46.41588833612777,4230163.0,-41.91927,70.8909
100.0,445804.9,-42.34268,70.9142
215.44346900318823,1496548.0,164.3596,70.9119
464.15888336127773,442685.6,-77.42025,70.9039
1000.0,646498.6,-173.3318,70.9093
2154.4346900318824,234539.0,-69.3011,70.9026
4641.588833612777,127346.5,-83.76165,70.8934
10000.0,65998.12,-91.33096,70.9127
