Frequency,Impedance,Phase Angle,Temperature (Dry Bath)
10.0,5003992.0,-28.47116,71.307
21.544346900318832,4897061.0,-5.643563,71.2917
46.41588833612777,4118207.0,-27.03396,71.2947
100.0,262269.5,-75.7154,71.3022
215.44346900318823,559373.0,-81.8138,71.3064
464.15888336127773,635972.3,-58.20764,71.2973
1000.0,408037.1,-118.6071,71.2943
2154.4346900318824,224812.0,-71.2398,71.298
4641.588833612777,173487.6,-83.81001,71.2933
10000.0,62912.99,-82.42326,71.29
