Frequency,Impedance,Phase Angle,Temperature (Dry Bath)
10.0,219063.7,-26.69897,71.3303
21.544346900318832,180205.7,-23.41776,71.3168
46.41588833612777,145283.8,-22.21187,71.3284
100.0,85381.97,-17.79659,71.332
215.44346900318823,90321.37,-21.53782,71.3195
464.15888336127773,86404.26,-17.01691,71.3153
1000.0,79048.35,-18.77032,71.3127
2154.4346900318824,67624.01,-29.58339,71.3166
4641.588833612777,50439.67,-34.31698,71.3105
10000.0,35595.18,-57.42538,71.3142
