Frequency,Impedance,Phase Angle,Temperature (Dry Bath)
10.0,4495672.0,16.94905,70.9974
21.544346900318832,5079009.0,-8.877777,70.9877
46.41588833612777,4390509.0,-40.16237,71.0125
100.0,314483.1,127.1931,70.9973
215.44346900318823,2125963.0,-171.2955,70.9943
464.15888336127773,572518.3,-92.31553,70.9937
1000.0,300380.3,-60.3104,70.9881
2154.4346900318824,321148.5,-110.3845,71.0019
4641.588833612777,123221.1,-82.81009,70.9992
10000.0,69546.87,-93.1754,70.98
