Frequency,Impedance,Phase Angle,Temperature (Dry Bath)
10.0,3578227.0,-3.227532,71.8605
21.544346900318832,2936897.0,-3.969434,71.8679
46.41588833612777,5401951.0,-17.47724,71.8577
100.0,679710.2,94.31636,71.8524
215.44346900318823,691718.4,102.895,71.8566
464.15888336127773,675180.4,161.9651,71.8709
1000.0,886486.1,-59.39328,71.8463
2154.4346900318824,272503.4,-120.4306,71.8625
4641.588833612777,172807.8,-80.70939,71.8599
10000.0,175373.9,-74.83877,71.85
