Frequency,Impedance,Phase Angle,Temperature (Dry Bath)
10.0,3367797.0,-6.105889,70.8964
21.544346900318832,4191584.0,-6.06682,70.8883
46.41588833612777,4875459.0,-11.98509,70.8802
100.0,552024.8,-127.1861,70.9035
215.44346900318823,968353.4,-29.66934,70.9009
464.15888336127773,1795307.0,-27.11573,70.8899
1000.0,313242.8,-61.49113,70.8771
2154.4346900318824,309294.5,-101.9883,70.8812
4641.588833612777,119576.5,-101.4287,70.8938
10000.0,65286.67,-91.87832,70.898
