Frequency,Impedance,Phase Angle,Temperature (Dry Bath)
10.0,23149.48,-14.31125,70.9554
21.544346900318832,20984.28,-11.46633,70.9534
46.41588833612777,19411.6,-9.088604,70.9356
100.0,18819.61,-3.746103,70.9417
215.44346900318823,17121.56,-7.267976,70.9603
464.15888336127773,16602.25,-5.176273,70.9417
1000.0,16210.06,-5.523817,70.9496
2154.4346900318824,15737.89,-8.60671,70.9577
4641.588833612777,14540.19,-11.52462,70.9495
10000.0,13939.92,-17.25632,70.9458
