Frequency,Impedance,Phase Angle,Temperature (Dry Bath)
10.0,576595.2,-3.801664,71.3551
21.544346900318832,578545.1,-0.4214595,71.353
46.41588833612777,553796.8,-5.877961,71.3602
100.0,351769.5,-45.57661,71.3566
215.44346900318823,447496.9,1.634987,71.3492
464.15888336127773,357777.7,-12.03768,71.3386
1000.0,1046386.0,-23.58461,71.3567
2154.4346900318824,232987.9,-57.65352,71.3486
4641.588833612777,150558.1,-59.0715,71.3294
10000.0,99715.99,-73.05989,71.3542
