Frequency,Impedance,Phase Angle,Temperature (Dry Bath)
10.0,91155.32,-15.16797,71.3578
21.544346900318832,81738.43,-13.25222,71.3642
46.41588833612777,73334.95,-12.43099,71.3639
100.0,71646.26,-12.17554,71.3752
215.44346900318823,62661.18,-6.187942,71.356
464.15888336127773,64051.67,-13.17933,71.3539
1000.0,53803.67,-11.732,71.3664
2154.4346900318824,50222.12,-9.498146,71.3552
4641.588833612777,46604.38,-17.48473,71.3471
10000.0,39561.51,-27.20084,71.3538
