Frequency,Impedance,Phase Angle,Temperature (Dry Bath)
10.0,7267550.0,-5.103724,71.6209
21.544346900318832,6025724.0,9.896218,71.6249
46.41588833612777,4645879.0,-12.21,71.6333
100.0,466863.8,-56.45666,71.6346
215.44346900318823,1057472.0,0.6619011,71.6298
464.15888336127773,1114049.0,1.724587,71.6297
1000.0,2152069.0,76.38834,71.6238
2154.4346900318824,637012.8,-94.77826,71.6139
4641.588833612777,288739.1,-86.93232,71.619
10000.0,154124.9,-90.79651,71.6261
