Frequency,Impedance,Phase Angle,Temperature (Dry Bath)
10.0,650301.2,-28.25745,71.4538
21.544346900318832,490695.8,-27.07755,71.4566
46.41588833612777,410021.9,-25.12674,71.4669
100.0,257615.2,-14.22146,71.4285
215.44346900318823,314272.1,-58.89989,71.4351
464.15888336127773,398441.6,-30.10991,71.4456
1000.0,133402.9,-48.1066,71.4265
2154.4346900318824,151881.3,-59.00118,71.4171
4641.588833612777,95289.16,-62.38092,71.4226
10000.0,52527.64,-71.73521,71.424
