Frequency,Impedance,Phase Angle,Temperature (Dry Bath)
10.0,851348.7,-4.567076,27.8065
21.544346900318832,829083.8,-5.429176,27.9977
46.41588833612777,778113.1,-4.467955,27.912
100.0,1392287.0,25.33125,27.7597
215.44346900318823,5850225.0,102.8191,28.1113
464.15888336127773,933299.8,-21.96497,27.8915
1000.0,808098.3,-37.84044,28.1667
2154.4346900318824,263903.7,-66.6568,28.1302
4641.588833612777,213672.1,-64.10219,28.145
10000.0,110192.2,-68.9783,28.0367
