Frequency,Impedance,Phase Angle,Temperature (Dry Bath)
10.0,10817.8,-25.02385,70.9401
21.544346900318832,8937.144,-20.99921,70.923
46.41588833612777,7642.758,-17.53142,70.918
100.0,6806.986,-14.67607,70.918
215.44346900318823,6104.965,-12.21405,70.908
464.15888336127773,5495.616,-10.13354,70.9164
1000.0,5078.433,-8.049822,70.9238
2154.4346900318824,4791.294,-7.648835,70.8987
4641.588833612777,4570.841,-8.441532,70.9122
10000.0,4361.332,-9.311291,70.9243
