Frequency,Impedance,Phase Angle,Temperature (Dry Bath)
10.0,4989649.0,5.753764,70.9273
21.544346900318832,6370074.0,33.61174,70.9166
46.41588833612777,4421933.0,-1.977548,70.9267
100.0,2013221.0,-140.6674,70.9193
215.44346900318823,851623.8,-74.59435,70.9199
464.15888336127773,4933092.0,-7.957877,70.9297
1000.0,504882.6,-78.19725,70.9295
2154.4346900318824,351562.5,-92.10411,70.9184
4641.588833612777,160213.1,-73.17786,70.9179
10000.0,67669.77,-87.59256,70.9255
