Frequency,Impedance,Phase Angle,Temperature (Dry Bath)
10.0,5966177.0,-12.89956,71.1944
21.544346900318832,5633321.0,-30.31058,71.1849
46.41588833612777,4241748.0,-24.56023,71.1713
100.0,942506.9,-48.47768,71.1772
215.44346900318823,1529632.0,162.6981,71.1884
464.15888336127773,630460.8,-60.15338,71.1815
1000.0,715850.9,-33.62215,71.1845
2154.4346900318824,521436.1,-83.99566,71.1961
4641.588833612777,142613.8,-79.96464,71.1974
10000.0,63781.53,-85.15349,71.1937
