Frequency,Impedance,Phase Angle,Temperature (Dry Bath)
10.0,3748778.0,-29.51929,71.2558
21.544346900318832,9239301.0,-48.5013,71.2509
46.41588833612777,4347960.0,-9.558686,71.2655
100.0,465371.9,27.75961,71.2622
215.44346900318823,889490.4,-24.86643,71.2511
464.15888336127773,942674.4,-111.0556,71.2681
1000.0,682755.7,-87.27964,71.2494
2154.4346900318824,281415.6,-79.26381,71.2532
4641.588833612777,137487.2,-82.09464,71.271
10000.0,63063.67,-90.38726,71.2502
