Frequency,Impedance,Phase Angle,Temperature (Dry Bath)
10.0,5662443.0,-33.03761,71.4888
21.544346900318832,6489097.0,-23.4176,71.4926
46.41588833612777,4949933.0,-8.000118,71.4961
100.0,514962.3,-178.8971,71.4857
215.44346900318823,2676833.0,154.0215,71.4957
464.15888336127773,529683.7,-65.0237,71.4886
1000.0,511423.1,-83.74717,71.4848
2154.4346900318824,606015.7,-91.36437,71.4883
4641.588833612777,267721.5,-83.7575,71.4927
10000.0,133494.3,-81.01503,71.4928
