Frequency,Impedance,Phase Angle,Temperature (Dry Bath)
10.0,4728249.0,11.33917,70.5752
21.544346900318832,10792820.0,-22.07058,70.5881
46.41588833612777,3537721.0,-27.52908,70.5694
100.0,932731.3,-131.4035,70.5652
215.44346900318823,874953.3,-25.33891,70.5603
464.15888336127773,417587.6,43.33109,70.5603
1000.0,314389.2,-20.73848,70.5783
2154.4346900318824,284137.7,-122.952,70.5743
4641.588833612777,123247.7,-90.86899,70.594
10000.0,67451.13,-89.84816,70.5729
