Frequency,Impedance,Phase Angle,Temperature (Dry Bath)
10.0,5689067.0,17.0375,26.1083
21.544346900318832,5400743.0,13.87944,26.2456
46.41588833612777,6974329.0,0.567832,25.6348
100.0,1430992.0,38.29764,25.6655
215.44346900318823,961814.9,-48.88404,25.7384
464.15888336127773,4752034.0,-39.368,25.2733
1000.0,471609.6,-118.0258,25.5612
2154.4346900318824,742254.2,-82.31377,25.7346
4641.588833612777,443231.6,-76.64813,25.6582
10000.0,189014.9,-95.63275,25.7119
