Frequency,Impedance,Phase Angle,Temperature (Dry Bath)
10.0,3975455.0,-2.610208,71.1372
21.544346900318832,3085810.0,-32.96082,71.1441
46.41588833612777,2353799.0,-16.83623,71.1404
100.0,529783.0,52.55414,71.1344
215.44346900318823,703143.8,-42.22173,71.1324
464.15888336127773,887491.5,-87.64526,71.1533
1000.0,306138.9,-55.03618,71.1524
2154.4346900318824,283089.4,-81.95496,71.1413
4641.588833612777,130145.9,-75.10861,71.135
10000.0,72359.65,-84.62622,71.1413
