Frequency,Impedance,Phase Angle,Temperature (Dry Bath)
10.0,5144507.0,-9.94709,71.4338
21.544346900318832,4282920.0,6.948105,71.4494
46.41588833612777,6262708.0,-18.29948,71.4576
100.0,1497849.0,130.6912,71.4588
215.44346900318823,1360859.0,-4.692827,71.4687
464.15888336127773,475311.0,-17.81883,71.4637
1000.0,616738.6,-75.16475,71.4399
2154.4346900318824,528389.1,-73.41908,71.4408
4641.588833612777,200187.3,-80.00899,71.4413
10000.0,113300.7,-77.09076,71.4596
