Frequency,Impedance,Phase Angle,Temperature (Dry Bath)
10.0,152838.6,-16.44186,29.7898
21.544346900318832,134220.0,-15.18663,29.7981
46.41588833612777,120668.2,-14.3363,29.6681
100.0,103299.7,-10.01673,29.7157
215.44346900318823,92213.86,-9.899859,29.8465
464.15888336127773,92610.3,-13.85867,29.8151
1000.0,82508.83,-14.91911,29.6692
2154.4346900318824,72775.51,-15.80579,29.3259
4641.588833612777,67545.8,-21.53043,29.9211
10000.0,55317.24,-32.11367,29.6699
