Frequency,Impedance,Phase Angle,Temperature (Dry Bath)
10.0,617014.3,-2.293352,71.4864
21.544346900318832,578243.8,-6.741562,71.4782
46.41588833612777,551523.9,-5.864163,71.4875
100.0,1380839.0,-43.58873,71.4782
215.44346900318823,496619.9,-3.809662,71.4733
464.15888336127773,1641212.0,22.92127,71.4722
1000.0,395259.9,-11.87552,71.4814
2154.4346900318824,298716.4,-60.08616,71.4824
4641.588833612777,188146.9,-53.57059,71.4739
10000.0,97425.82,-83.07894,71.4829
