Frequency,Impedance,Phase Angle,Temperature (Dry Bath)
10.0,13252.54,-28.4319,71.1016
21.544346900318832,10517.51,-25.70277,71.1075
46.41588833612777,8550.064,-22.92598,71.0969
100.0,7220.301,-20.46918,71.1052
215.44346900318823,6129.099,-16.99373,71.1083
464.15888336127773,5393.64,-15.4872,71.113
1000.0,4787.178,-13.8657,71.1314
2154.4346900318824,4314.63,-12.36086,71.1292
4641.588833612777,3955.865,-11.85451,71.1125
10000.0,3635.865,-12.60912,71.1347
