Frequency,Impedance,Phase Angle,Temperature (Dry Bath)
10.0,161944.5,-9.579749,71.2936
21.544346900318832,151569.1,-8.815945,71.28
46.41588833612777,144406.2,-8.764864,71.2943
100.0,156953.9,7.932604,71.2835
215.44346900318823,128025.1,-2.544311,71.2795
464.15888336127773,108637.1,-20.80215,71.3018
1000.0,105551.2,-5.291794,71.2825
2154.4346900318824,99458.76,-26.89308,71.279
4641.588833612777,74846.75,-51.93672,71.2739
10000.0,41579.0,-64.66139,71.2821
