Frequency,Impedance,Phase Angle,Temperature (Dry Bath)
10.0,7384417.0,-10.50382,70.9309
21.544346900318832,3977831.0,-25.48089,70.9204
46.41588833612777,3468333.0,-16.49379,70.9145
100.0,729763.1,72.74131,70.9227
215.44346900318823,2118146.0,141.0469,70.9324
464.15888336127773,3403033.0,113.5844,70.9419
1000.0,364393.1,-71.63308,70.9345
2154.4346900318824,294329.3,-86.85775,70.9235
4641.588833612777,155769.5,-79.70439,70.935
10000.0,59378.25,-84.04784,70.921
