Frequency,Impedance,Phase Angle,Temperature (Dry Bath)
10.0,6003219.0,8.452926,70.5433
21.544346900318832,5985829.0,-16.04105,70.5288
46.41588833612777,4099757.0,-21.77664,70.5412
100.0,631655.9,173.4478,70.531
215.44346900318823,1072403.0,167.0492,70.5403
464.15888336127773,1407411.0,74.88044,70.5399
1000.0,712708.2,-147.5314,70.5426
2154.4346900318824,328274.5,-58.21296,70.5342
4641.588833612777,106615.2,-96.93682,70.546
10000.0,61546.93,-82.21276,70.5548
