Frequency,Impedance,Phase Angle,Temperature (Dry Bath)
10.0,152669.7,-10.66918,71.0681
21.544346900318832,138818.2,-9.81703,71.079
46.41588833612777,130434.7,-9.625866,71.0759
100.0,116122.7,-6.052063,71.0778
215.44346900318823,122907.9,-6.962208,71.0743
464.15888336127773,103650.5,-13.45137,71.079
1000.0,105168.0,-18.04803,71.0621
2154.4346900318824,97671.73,-31.61001,71.0596
4641.588833612777,59514.25,-49.48291,71.0613
10000.0,43191.01,-55.97959,71.0718
