Frequency,Impedance,Phase Angle,Temperature (Dry Bath)
10.0,9459.695,-27.39596,70.6332
21.544346900318832,7492.355,-26.53416,70.619
46.41588833612777,5991.156,-25.15777,70.6228
100.0,4820.189,-23.52503,70.615
215.44346900318823,4000.405,-20.4012,70.6244
464.15888336127773,3445.155,-17.52606,70.6212
1000.0,3005.215,-15.05418,70.636
2154.4346900318824,2674.993,-13.18492,70.6184
4641.588833612777,2429.726,-12.11164,70.6329
10000.0,2241.251,-12.37447,70.6222
