Frequency,Impedance,Phase Angle,Temperature (Dry Bath)
10.0,6421.963,-25.20506,70.9333
21.544346900318832,5276.032,-22.17047,70.9558
46.41588833612777,4452.061,-19.3493,70.9628
100.0,3823.823,-16.85287,70.9422
215.44346900318823,3387.748,-14.13871,70.9446
464.15888336127773,3028.746,-12.46566,70.9468
1000.0,2766.216,-11.41048,70.9383
2154.4346900318824,2559.326,-9.004169,70.9535
4641.588833612777,2392.485,-7.989389,70.9393
10000.0,2275.397,-8.683897,70.9506
