Frequency,Impedance,Phase Angle,Temperature (Dry Bath)
10.0,13402.31,-27.88726,71.1597
21.544346900318832,10695.71,-25.28323,71.1558
46.41588833612777,8729.204,-22.6141,71.1537
100.0,7295.751,-19.55591,71.1413
215.44346900318823,6264.268,-17.28061,71.1653
464.15888336127773,5559.869,-14.98222,71.1503
1000.0,4881.513,-13.99577,71.1444
2154.4346900318824,4363.967,-12.20371,71.1544
4641.588833612777,3988.911,-12.12207,71.145
10000.0,3660.514,-12.91761,71.1554
