Frequency,Impedance,Phase Angle,Temperature (Dry Bath)
10.0,8556286.0,-31.92192,71.0678
21.544346900318832,3671243.0,-5.626771,71.0785
46.41588833612777,4274052.0,8.67023,71.0759
100.0,915634.7,121.6766,71.0835
215.44346900318823,997503.0,30.134,71.0834
464.15888336127773,785251.5,168.6544,71.089
1000.0,400945.9,-107.1594,71.0773
2154.4346900318824,473817.7,-62.56278,71.0842
4641.588833612777,758569.2,-117.3323,71.0917
10000.0,167293.3,-95.46597,71.0872
