Frequency,Impedance,Phase Angle,Temperature (Dry Bath)
10.0,158455.2,-8.997693,71.4002
21.544346900318832,145148.7,-8.804903,71.4156
46.41588833612777,139030.0,-8.982846,71.3983
100.0,100664.3,-1.729377,71.3981
215.44346900318823,26109.18,22.8115,71.3979
464.15888336127773,165071.0,-7.366259,71.3878
1000.0,115822.8,-20.6806,71.4118
2154.4346900318824,85389.83,-27.94189,71.4058
4641.588833612777,68610.01,-47.98869,71.4135
10000.0,45833.93,-62.07865,71.4119
