Frequency,Impedance,Phase Angle,Temperature (Dry Bath)
10.0,166125.5,-13.18519,71.1506
21.544346900318832,150669.5,-12.12828,71.1576
46.41588833612777,137419.3,-12.22898,71.1368
100.0,113017.0,-9.678259,71.1431
215.44346900318823,134884.0,-17.8691,71.1514
464.15888336127773,107989.6,-14.03033,71.1278
1000.0,101836.3,-18.59985,71.1441
2154.4346900318824,80088.28,-19.75669,71.1479
4641.588833612777,69500.33,-34.52186,71.144
10000.0,46583.18,-55.19323,71.1486
