Frequency,Impedance,Phase Angle,Temperature (Dry Bath)
10.0,4405868.0,-41.57226,71.0785
21.544346900318832,3817168.0,-20.1234,71.0805
46.41588833612777,2529631.0,-26.97106,71.079
100.0,281197.0,-54.71207,71.079
215.44346900318823,765893.8,-42.35696,71.0686
464.15888336127773,664389.6,-69.47097,71.0699
1000.0,267293.4,-72.75389,71.0738
2154.4346900318824,344032.7,-84.62746,71.0741
4641.588833612777,114756.9,-76.69465,71.0706
10000.0,62039.2,-79.05675,71.0676
