Frequency,Impedance,Phase Angle,Temperature (Dry Bath)
10.0,5287595.0,-0.1793533,70.6689
21.544346900318832,9626960.0,-44.13697,70.6797
46.41588833612777,4928164.0,-17.35098,70.686
100.0,1047176.0,-155.1887,70.6764
215.44346900318823,1544250.0,-10.40546,70.6777
464.15888336127773,413654.2,-6.132401,70.6866
1000.0,484381.8,-64.77365,70.6977
2154.4346900318824,304607.0,-83.7619,70.6814
4641.588833612777,106481.1,-105.5374,70.6856
10000.0,65531.19,-100.3624,70.6819
