Frequency,Impedance,Phase Angle,Temperature (Dry Bath)
10.0,5015988.0,-24.81755,70.9679
21.544346900318832,4579352.0,-9.378445,70.9609
46.41588833612777,4666740.0,-25.40378,70.9558
100.0,893767.8,-113.7741,70.959
215.44346900318823,520824.8,-60.25809,70.9563
464.15888336127773,376186.3,-11.79966,70.9767
1000.0,670723.9,-53.97896,70.9682
2154.4346900318824,365807.9,-58.08842,70.9707
4641.588833612777,127518.3,-89.45756,70.975
10000.0,65622.88,-86.52697,70.9761
