Frequency,Impedance,Phase Angle,Temperature (Dry Bath)
10.0,6083310.0,31.17894,71.0843
21.544346900318832,5258191.0,-24.06664,71.0535
46.41588833612777,5554745.0,-28.34193,71.0767
100.0,519470.7,-79.6941,71.0621
215.44346900318823,703297.2,-67.64522,71.064
464.15888336127773,627992.0,-76.74901,71.0787
1000.0,378247.9,-107.513,71.0678
2154.4346900318824,353183.4,-93.41239,71.0661
4641.588833612777,180255.5,-85.64468,71.0791
10000.0,58234.21,-88.8497,71.0824
