Frequency,Impedance,Phase Angle,Temperature (Dry Bath)
10.0,5474973.0,-20.56486,71.2096
21.544346900318832,6462665.0,7.401254,71.2146
46.41588833612777,5015863.0,-36.88676,71.2052
100.0,507617.7,-15.99724,71.2151
215.44346900318823,1117636.0,-85.61315,71.2198
464.15888336127773,1134507.0,153.5123,71.2255
1000.0,635760.9,-70.30561,71.2243
2154.4346900318824,184522.9,-82.69958,71.2264
4641.588833612777,197675.4,-78.36047,71.2195
10000.0,68438.96,-88.02593,71.2112
