Frequency,Impedance,Phase Angle,Temperature (Dry Bath)
10.0,17214.39,-29.43796,70.6842
21.544346900318832,13592.17,-26.97096,70.6855
46.41588833612777,10959.69,-24.59134,70.6751
100.0,9046.845,-21.58157,70.675
215.44346900318823,7613.211,-19.96959,70.6928
464.15888336127773,6596.949,-16.24503,70.6754
1000.0,5877.509,-13.61764,70.6987
2154.4346900318824,5256.681,-11.78208,70.6993
4641.588833612777,4884.446,-10.53118,70.6847
10000.0,4600.702,-11.61831,70.6768
