Frequency,Impedance,Phase Angle,Temperature (Dry Bath)
10.0,12109.44,-27.35899,70.941
21.544346900318832,9749.769,-24.23894,70.9325
46.41588833612777,8049.547,-21.16296,70.9463
100.0,6905.514,-18.22769,70.9341
215.44346900318823,5989.509,-15.59595,70.9167
464.15888336127773,5356.2,-13.04386,70.9209
1000.0,4844.109,-10.95465,70.939
2154.4346900318824,4436.381,-10.2423,70.9311
4641.588833612777,4100.804,-11.0437,70.9318
10000.0,3849.084,-11.68327,70.933
