Frequency,Impedance,Phase Angle,Temperature (Dry Bath)
10.0,8328870.0,-13.52876,71.0789
21.544346900318832,3833981.0,-31.6705,71.058
46.41588833612777,3994381.0,-32.00312,71.0506
100.0,1045601.0,-92.39786,71.0755
215.44346900318823,1714697.0,-118.5667,71.0592
464.15888336127773,198399.2,-45.56013,71.0612
1000.0,844476.5,-36.48292,71.0863
2154.4346900318824,261700.4,-74.65844,71.0723
4641.588833612777,150745.8,-78.93145,71.0725
10000.0,66287.62,-88.43838,71.0565
