Frequency,Impedance,Phase Angle,Temperature (Dry Bath)
10.0,562263.2,-2.47411,71.5547
21.544346900318832,554829.1,-7.685513,71.5633
46.41588833612777,516727.7,-5.15993,71.5564
100.0,744605.2,-16.65663,71.5465
215.44346900318823,724093.7,-51.48967,71.5379
464.15888336127773,1235172.0,8.713751,71.5515
1000.0,393267.2,-25.6969,71.5589
2154.4346900318824,633178.9,-65.31533,71.5656
4641.588833612777,230258.3,-68.09143,71.5508
10000.0,89762.84,-62.05551,71.5407
