Frequency,Impedance,Phase Angle,Temperature (Dry Bath)
10.0,115234.9,-14.48374,71.5475
21.544346900318832,101932.8,-13.05067,71.5632
46.41588833612777,93185.94,-11.97721,71.5575
100.0,80890.36,-13.18514,71.5474
215.44346900318823,78792.29,-10.60102,71.5529
464.15888336127773,66229.52,-10.65254,71.5501
1000.0,59111.49,-14.54153,71.5487
2154.4346900318824,57526.23,-15.25774,71.5433
4641.588833612777,52341.1,-20.60303,71.5443
10000.0,45637.44,-35.97885,71.5306
