Frequency,Impedance,Phase Angle,Temperature (Dry Bath)
10.0,6191288.0,11.13259,70.9973
21.544346900318832,6845015.0,17.16589,70.9802
46.41588833612777,6181646.0,-23.82771,70.9906
100.0,1666426.0,89.91048,70.9612
215.44346900318823,466010.7,-16.72066,70.9647
464.15888336127773,724591.4,-114.8019,70.9707
1000.0,415920.2,45.75068,70.9671
2154.4346900318824,345134.9,8.468418,70.9653
4641.588833612777,429305.8,-96.21055,70.9573
10000.0,131399.0,-69.45974,70.9467
