Frequency,Impedance,Phase Angle,Temperature (Dry Bath)
10.0,7016.721,-28.28637,70.2941
21.544346900318832,5549.481,-26.20776,70.294
46.41588833612777,4492.252,-23.64234,70.282
100.0,3713.579,-20.66462,70.2809
215.44346900318823,3183.561,-18.02159,70.2908
464.15888336127773,2766.071,-15.17026,70.3026
1000.0,2451.556,-13.09917,70.2981
2154.4346900318824,2238.106,-10.8983,70.2819
4641.588833612777,2059.256,-10.19042,70.2713
10000.0,1927.444,-10.64746,70.2786
