Frequency,Impedance,Phase Angle,Temperature (Dry Bath)
10.0,13751.15,-28.16491,71.0594
21.544346900318832,10935.5,-25.62471,71.0531
46.41588833612777,8896.205,-22.91412,71.0569
100.0,7440.485,-19.35124,71.0615
215.44346900318823,6419.949,-17.19707,71.0744
464.15888336127773,5583.748,-15.91306,71.0388
1000.0,4975.594,-13.86621,71.0507
2154.4346900318824,4456.595,-12.65303,71.0459
4641.588833612777,4069.964,-12.70233,71.0703
10000.0,3715.439,-13.46515,71.0552
