Frequency,Impedance,Phase Angle,Temperature (Dry Bath)
10.0,13174.43,-20.82223,71.4092
21.544346900318832,11240.77,-18.03476,71.3966
46.41588833612777,9788.303,-15.45755,71.4074
100.0,8953.776,-14.86001,71.4429
215.44346900318823,8104.868,-11.06783,71.4396
464.15888336127773,7242.304,-9.370811,71.4271
1000.0,6663.807,-8.701678,71.4156
2154.4346900318824,6331.871,-8.174932,71.4199
4641.588833612777,6034.858,-9.348795,71.4033
10000.0,5696.866,-10.22448,71.3967
