Frequency,Impedance,Phase Angle,Temperature (Dry Bath)
10.0,5928482.0,-24.80066,71.5132
21.544346900318832,7485663.0,-8.606869,71.52
46.41588833612777,6331359.0,1.168555,71.5206
100.0,1213877.0,110.4795,71.5095
215.44346900318823,998859.2,118.298,71.536
464.15888336127773,1189845.0,115.0206,71.5395
1000.0,1280096.0,-134.2515,71.5347
2154.4346900318824,345638.0,-78.6974,71.5263
4641.588833612777,223304.5,-96.76378,71.5371
10000.0,134236.8,-82.39372,71.5266
