Frequency,Impedance,Phase Angle,Temperature (Dry Bath)
10.0,41790.95,-30.20204,71.1332
21.544346900318832,32436.61,-29.01762,71.1494
46.41588833612777,25420.65,-27.35566,71.1325
100.0,19251.62,-23.00416,71.1324
215.44346900318823,16391.18,-22.26258,71.123
464.15888336127773,13949.62,-19.8265,71.1297
1000.0,11914.71,-17.80193,71.132
2154.4346900318824,10345.12,-16.23382,71.1284
4641.588833612777,9051.023,-15.66511,71.1324
10000.0,8446.157,-16.06939,71.1337
