Frequency,Impedance,Phase Angle,Temperature (Dry Bath)
10.0,5288040.0,-23.95067,71.5072
21.544346900318832,7781763.0,0.6955171,71.5181
46.41588833612777,4646303.0,-8.019016,71.5167
100.0,520722.8,18.47461,71.5239
215.44346900318823,700374.9,-129.2397,71.5435
464.15888336127773,1328343.0,146.3665,71.5198
1000.0,2457939.0,32.28978,71.5275
2154.4346900318824,316129.8,-90.35845,71.5111
4641.588833612777,191390.8,-71.79446,71.5347
10000.0,158422.5,-80.4251,71.5295
