Frequency,Impedance,Phase Angle,Temperature (Dry Bath)
10.0,3665303.0,-6.642409,71.3896
21.544346900318832,4188969.0,17.60733,71.4173
46.41588833612777,3774184.0,-11.22007,71.3904
100.0,1291450.0,-131.787,71.4089
215.44346900318823,2761200.0,41.47248,71.3945
464.15888336127773,2265236.0,-1.735015,71.4144
1000.0,765050.3,-70.69589,71.4253
2154.4346900318824,968882.8,-111.7864,71.4139
4641.588833612777,328214.6,-85.93212,71.386
10000.0,154198.8,-78.44905,71.3994
