Frequency,Impedance,Phase Angle,Temperature (Dry Bath)
10.0,6538092.0,10.91386,69.6026
21.544346900318832,5074874.0,-10.29371,69.5989
46.41588833612777,5406429.0,-21.62674,69.6067
100.0,1031476.0,-6.926302,69.623
215.44346900318823,1420750.0,-13.79124,69.6088
464.15888336127773,573002.5,-104.092,69.6091
1000.0,559923.7,-74.8059,69.6163
2154.4346900318824,262910.9,-94.23014,69.6306
4641.588833612777,105941.0,-71.3583,69.6062
10000.0,61729.66,-80.57143,69.6269
