Frequency,Impedance,Phase Angle,Temperature (Dry Bath)
10.0,4065937.0,-28.74813,28.6663
21.544346900318832,3666109.0,-24.61826,28.982
46.41588833612777,6244212.0,-17.19404,29.0177
100.0,1240821.0,-78.90487,28.988
215.44346900318823,1947334.0,-21.09759,28.7227
464.15888336127773,6994272.0,4.745274,28.9862
1000.0,1525255.0,-86.6345,29.022
2154.4346900318824,675460.3,-84.80068,28.945
4641.588833612777,209479.5,-84.22888,28.9572
10000.0,146944.9,-79.16924,29.0647
