Frequency,Impedance,Phase Angle,Temperature (Dry Bath)
10.0,16143.75,-25.50693,71.2205
21.544346900318832,13079.63,-23.70889,71.2184
46.41588833612777,10752.96,-21.77391,71.2368
100.0,9124.626,-18.92655,71.233
215.44346900318823,7673.375,-17.04033,71.227
464.15888336127773,6813.116,-14.92297,71.2314
1000.0,6100.594,-12.51267,71.2257
2154.4346900318824,5607.094,-9.426281,71.2439
4641.588833612777,5209.173,-9.068071,71.2492
10000.0,4899.863,-9.078196,71.2549
