Frequency,Impedance,Phase Angle,Temperature (Dry Bath)
10.0,4525240.0,-3.427122,71.138
21.544346900318832,5642019.0,3.937623,71.1395
46.41588833612777,4182554.0,-34.74136,71.1567
100.0,293998.8,-85.67801,71.1492
215.44346900318823,1207780.0,-166.1425,71.1579
464.15888336127773,568806.2,-23.51644,71.1472
1000.0,763294.7,-113.6326,71.1501
2154.4346900318824,229811.0,-85.16475,71.1455
4641.588833612777,144191.4,-98.79129,71.1404
10000.0,73897.22,-94.14509,71.1497
