Frequency,Impedance,Phase Angle,Temperature (Dry Bath)
10.0,3891709.0,16.00021,71.4878
21.544346900318832,10427470.0,18.61867,71.5037
46.41588833612777,4768230.0,3.151023,71.5011
100.0,940058.5,127.5457,71.5117
215.44346900318823,656563.3,-2.937404,71.5118
464.15888336127773,1335272.0,-88.51434,71.5027
1000.0,401419.5,-9.280206,71.5031
2154.4346900318824,561194.3,-77.61954,71.5098
4641.588833612777,269752.3,-61.81916,71.5082
10000.0,111539.5,-80.80676,71.5167
