Frequency,Impedance,Phase Angle,Temperature (Dry Bath)
10.0,3276732.0,-16.74036,70.9509
21.544346900318832,3193836.0,-15.81526,70.9739
46.41588833612777,3000941.0,-35.55077,70.9767
100.0,1004524.0,-82.96195,70.9458
215.44346900318823,756457.2,35.66201,70.9575
464.15888336127773,1150994.0,29.65791,70.9501
1000.0,422304.7,-65.26436,70.9534
2154.4346900318824,258105.9,-95.1838,70.97
4641.588833612777,159189.3,-79.95663,70.9786
10000.0,61426.46,-89.78934,70.958
