Frequency,Impedance,Phase Angle,Temperature (Dry Bath)
10.0,3875247.0,-27.01958,70.7411
21.544346900318832,8132905.0,-44.11546,70.744
46.41588833612777,4752275.0,-35.99565,70.7351
100.0,434723.4,39.7083,70.7381
215.44346900318823,714558.0,-77.64966,70.7445
464.15888336127773,755227.3,53.7876,70.724
1000.0,404373.0,-94.43704,70.715
2154.4346900318824,225953.3,-80.71382,70.7504
4641.588833612777,131755.5,-104.8409,70.7494
10000.0,54621.1,-90.44939,70.7561
