Frequency,Impedance,Phase Angle,Temperature (Dry Bath)
10.0,10680.65,-23.16809,71.3878
21.544346900318832,8722.075,-23.70821,71.3871
46.41588833612777,7072.164,-23.67286,71.3835
100.0,5734.499,-22.68681,71.3578
215.44346900318823,4719.149,-21.07786,71.3826
464.15888336127773,3994.265,-18.96574,71.3724
1000.0,3404.451,-17.01546,71.389
2154.4346900318824,2970.533,-14.88444,71.3812
4641.588833612777,2666.793,-13.56356,71.3746
10000.0,2411.165,-12.26732,71.3858
