Frequency,Impedance,Phase Angle,Temperature (Dry Bath)
10.0,78626.86,-14.33864,71.6388
21.544346900318832,70701.49,-13.65864,71.6372
46.41588833612777,63047.56,-12.81398,71.6533
100.0,55599.56,-9.099718,71.6522
215.44346900318823,55214.85,-15.50744,71.6456
464.15888336127773,49410.72,-7.067102,71.6383
1000.0,47077.49,-6.275245,71.6397
2154.4346900318824,41006.98,-2.267011,71.659
4641.588833612777,38792.59,-16.92914,71.642
10000.0,37123.35,-18.01701,71.6453
