Frequency,Impedance,Phase Angle,Temperature (Dry Bath)
10.0,3657406.0,16.50304,71.0246
21.544346900318832,6481606.0,-35.2017,71.0346
46.41588833612777,7758537.0,19.38369,71.0205
100.0,241538.9,-45.64811,71.0355
215.44346900318823,914033.9,134.3973,71.0299
464.15888336127773,1214746.0,-156.9057,71.024
1000.0,3450924.0,-143.9277,71.0329
2154.4346900318824,234735.8,-112.5844,71.0276
4641.588833612777,297975.3,-91.56968,71.0287
10000.0,198582.6,-91.69619,71.0255
