Frequency,Impedance,Phase Angle,Temperature (Dry Bath)
10.0,63227.95,-14.10556,71.4318
21.544346900318832,57079.16,-12.56896,71.4472
46.41588833612777,51751.55,-10.99976,71.4537
100.0,48397.07,-6.299571,71.4499
215.44346900318823,51769.6,-7.443852,71.4392
464.15888336127773,38070.35,-7.574329,71.45
1000.0,38426.47,-10.45163,71.4399
2154.4346900318824,38014.57,-8.585698,71.4489
4641.588833612777,36457.13,-13.71376,71.4558
10000.0,30631.5,-14.26375,71.4592
