Frequency,Impedance,Phase Angle,Temperature (Dry Bath)
10.0,7159.375,-37.21443,71.1549
21.544346900318832,5321.936,-33.4136,71.1579
46.41588833612777,4084.208,-29.59292,71.1553
100.0,3260.205,-25.45051,71.1633
215.44346900318823,2669.804,-21.5766,71.1533
464.15888336127773,2261.989,-16.95715,71.1699
1000.0,1994.319,-14.28587,71.1737
2154.4346900318824,1809.285,-11.9876,71.1656
4641.588833612777,1660.425,-10.13496,71.1745
10000.0,1552.441,-9.416744,71.1764
