Frequency,Impedance,Phase Angle,Temperature (Dry Bath)
10.0,5040.202,-34.56644,70.9599
21.544346900318832,3838.793,-29.03815,70.9652
46.41588833612777,3096.069,-23.69535,70.9767
100.0,2630.697,-19.2731,70.9523
215.44346900318823,2280.562,-15.8169,70.9467
464.15888336127773,2033.011,-13.21401,70.9545
1000.0,1856.909,-10.93367,70.9607
2154.4346900318824,1689.06,-9.54007,70.9539
4641.588833612777,1580.763,-8.440244,70.953
10000.0,1491.664,-7.707497,70.9556
