Frequency,Impedance,Phase Angle,Temperature (Dry Bath)
10.0,5982381.0,-2.045714,70.9791
21.544346900318832,5031443.0,-12.86063,70.9771
46.41588833612777,7051885.0,-0.4892905,70.9828
100.0,689949.1,-42.00444,70.9888
215.44346900318823,1472425.0,80.20186,70.9741
464.15888336127773,370591.4,-62.57179,70.9796
1000.0,447857.5,-76.17966,70.9879
2154.4346900318824,236419.0,-84.42867,70.9879
4641.588833612777,123301.4,-92.37615,70.9796
10000.0,52161.08,-84.2788,70.9811
