Frequency,Impedance,Phase Angle,Temperature (Dry Bath)
10.0,1974259.0,-2.513731,71.6436
21.544346900318832,1764695.0,-7.121635,71.6251
46.41588833612777,1945935.0,-13.08668,71.6319
100.0,400871.2,-35.07188,71.6343
215.44346900318823,521722.0,-28.97855,71.6397
464.15888336127773,359739.5,-14.0282,71.6339
1000.0,832213.6,59.42336,71.6218
2154.4346900318824,519531.3,17.49486,71.6446
4641.588833612777,234426.4,-56.07495,71.6236
10000.0,92427.35,-96.78344,71.6252
