Frequency,Impedance,Phase Angle,Temperature (Dry Bath)
10.0,288813.6,-6.261778,70.8785
21.544346900318832,282804.8,-7.230308,70.8728
46.41588833612777,264922.0,-7.844808,70.8809
100.0,202344.3,-25.92736,70.8752
215.44346900318823,219473.5,-12.96881,70.8714
464.15888336127773,235913.0,-12.08262,70.8799
1000.0,181944.1,-26.15493,70.8617
2154.4346900318824,161033.2,-52.59671,70.885
4641.588833612777,90686.85,-48.26625,70.8799
10000.0,56912.62,-69.23554,70.8755
