Frequency,Impedance,Phase Angle,Temperature (Dry Bath)
10.0,29800.97,-23.00799,28.5243
21.544346900318832,24679.09,-22.6264,28.712
46.41588833612777,20542.06,-22.2653,28.5955
100.0,17277.01,-21.8603,28.9788
215.44346900318823,14153.5,-21.87784,28.9831
464.15888336127773,11776.26,-22.1586,28.9675
1000.0,9908.491,-22.79753,28.9842
2154.4346900318824,8111.685,-22.65718,29.0073
4641.588833612777,6598.404,-22.22019,28.3889
10000.0,5497.536,-20.5466,28.5624
