Frequency,Impedance,Phase Angle,Temperature (Dry Bath)
10.0,5553566.0,-7.710523,71.3406
21.544346900318832,3325253.0,-4.093078,71.3317
46.41588833612777,4439809.0,-46.56063,71.3304
100.0,655494.7,30.52848,71.3296
215.44346900318823,359238.9,-17.69901,71.3426
464.15888336127773,894753.0,-66.56317,71.3382
1000.0,771288.4,-70.39147,71.3256
2154.4346900318824,247094.0,-76.32341,71.3335
4641.588833612777,148732.0,-90.23804,71.3449
10000.0,61194.06,-85.92373,71.3612
