Frequency,Impedance,Phase Angle,Temperature (Dry Bath)
10.0,7676.957,-35.91775,71.4162
21.544346900318832,5784.01,-31.52487,71.4131
46.41588833612777,4529.851,-27.2204,71.4245
100.0,3681.494,-23.01534,71.4202
215.44346900318823,3083.501,-19.00678,71.4132
464.15888336127773,2674.428,-15.80117,71.4388
1000.0,2382.767,-13.59039,71.4286
2154.4346900318824,2168.273,-11.29201,71.4285
4641.588833612777,2004.605,-9.987828,71.4422
10000.0,1874.069,-9.149564,71.4297
