Frequency,Impedance,Phase Angle,Temperature (Dry Bath)
10.0,3706990.0,20.96848,71.5355
21.544346900318832,3294433.0,12.17167,71.5433
46.41588833612777,4375099.0,-19.94228,71.5416
100.0,15960170.0,24.8538,71.5242
215.44346900318823,592346.4,-102.0885,71.5266
464.15888336127773,2428129.0,14.79931,71.5427
1000.0,656036.1,-76.22482,71.5379
2154.4346900318824,397617.5,-105.3581,71.5311
4641.588833612777,189567.9,-78.17741,71.5405
10000.0,131082.9,-84.66159,71.5411
