Frequency,Impedance,Phase Angle,Temperature (Dry Bath)
10.0,2945535.0,-23.20112,71.3765
21.544346900318832,3307927.0,-18.3435,71.3644
46.41588833612777,1834070.0,-21.35827,71.3628
100.0,448084.7,-48.88978,71.3634
215.44346900318823,383961.4,73.67466,71.366
464.15888336127773,429048.5,-0.8143477,71.3664
1000.0,494221.9,-35.11711,71.3684
2154.4346900318824,234466.4,-68.13316,71.3777
4641.588833612777,207978.1,-73.68094,71.3798
10000.0,70386.16,-88.30566,71.375
