Frequency,Impedance,Phase Angle,Temperature (Dry Bath)
10.0,5530641.0,-12.96014,70.7577
21.544346900318832,9443025.0,-10.70986,70.7585
46.41588833612777,4371127.0,-33.72618,70.7723
100.0,1918116.0,-114.7464,70.7805
215.44346900318823,715016.9,102.3232,70.7636
464.15888336127773,724393.9,-44.45161,70.7747
1000.0,326954.6,-125.2792,70.755
2154.4346900318824,209549.8,-79.99224,70.7701
4641.588833612777,143718.2,-73.43967,70.7587
10000.0,72787.92,-92.69605,70.7579
