Frequency,Impedance,Phase Angle,Temperature (Dry Bath)
10.0,72169.48,-14.923,71.4559
21.544346900318832,64925.29,-12.90339,71.4667
46.41588833612777,58589.32,-12.12099,71.4613
100.0,52210.26,-11.03747,71.4761
215.44346900318823,47667.27,-13.46014,71.4634
464.15888336127773,43016.81,-10.85505,71.4552
1000.0,42692.15,-10.19794,71.4692
2154.4346900318824,39295.13,-14.1879,71.4781
4641.588833612777,35746.44,-13.9438,71.4668
10000.0,32736.43,-25.07035,71.4698
