Frequency,Impedance,Phase Angle,Temperature (Dry Bath)
10.0,238553.4,-16.94001,71.858
21.544346900318832,201940.9,-17.28707,71.8505
46.41588833612777,176169.5,-17.9503,71.8605
100.0,126819.9,-5.57108,71.853
215.44346900318823,91309.66,-12.07347,71.8604
464.15888336127773,112868.6,-3.559302,71.8616
1000.0,71716.55,-12.13254,71.8678
2154.4346900318824,101247.5,-11.5841,71.849
4641.588833612777,65671.69,-24.07277,71.8523
10000.0,58476.24,-28.82106,71.8541
