Frequency,Impedance,Phase Angle,Temperature (Dry Bath)
10.0,20932.08,-24.06539,71.3801
21.544346900318832,17105.91,-23.843,71.3821
46.41588833612777,13984.17,-23.37171,71.3781
100.0,11769.23,-23.27962,71.3833
215.44346900318823,9573.497,-21.58543,71.3819
464.15888336127773,8198.95,-20.57901,71.3765
1000.0,6852.181,-19.63276,71.3801
2154.4346900318824,5867.392,-19.60341,71.3735
4641.588833612777,5018.751,-17.9668,71.3683
10000.0,4263.007,-17.18453,71.3867
