Frequency,Impedance,Phase Angle,Temperature (Dry Bath)
10.0,4519200.0,-13.40113,71.3322
21.544346900318832,5279696.0,12.76071,71.3209
46.41588833612777,7416120.0,-9.543551,71.3211
100.0,600150.1,-97.98943,71.3194
215.44346900318823,732942.6,39.11994,71.3198
464.15888336127773,664454.9,30.67447,71.3249
1000.0,528629.3,-128.3257,71.3293
2154.4346900318824,1418979.0,94.28554,71.3135
4641.588833612777,352426.3,-106.1205,71.3273
10000.0,128735.1,-89.57275,71.3178
