Frequency,Impedance,Phase Angle,Temperature (Dry Bath)
10.0,4196212.0,-18.5914,71.0955
21.544346900318832,4657316.0,-5.627922,71.0871
46.41588833612777,3742575.0,-31.14097,71.0953
100.0,398925.6,30.74372,71.082
215.44346900318823,775851.5,-137.9135,71.0875
464.15888336127773,613620.3,-68.05237,71.0757
1000.0,346886.8,-92.27188,71.0968
2154.4346900318824,220902.9,-84.58594,71.0832
4641.588833612777,140209.8,-93.11232,71.072
10000.0,62370.72,-82.03578,71.0639
