Frequency,Impedance,Phase Angle,Temperature (Dry Bath)
10.0,6878605.0,24.95727,71.2567
21.544346900318832,9222265.0,-24.93083,71.2563
46.41588833612777,3709326.0,-24.88318,71.2475
100.0,6024608.0,35.07465,71.2571
215.44346900318823,828523.3,26.83761,71.2616
464.15888336127773,1084175.0,-24.83714,71.253
1000.0,453019.5,33.53079,71.2583
2154.4346900318824,280966.4,-58.58545,71.2774
4641.588833612777,121129.0,-80.52649,71.251
10000.0,70015.91,-88.55721,71.2431
