Frequency,Impedance,Phase Angle,Temperature (Dry Bath)
10.0,5868005.0,-2.727751,70.9144
21.544346900318832,4406816.0,17.3105,70.9161
46.41588833612777,4870436.0,-14.68043,70.9153
100.0,459458.2,12.06685,70.9147
215.44346900318823,1592796.0,-86.32357,70.928
464.15888336127773,4502131.0,-22.79921,70.907
1000.0,345439.7,-54.60572,70.9163
2154.4346900318824,733020.3,-86.20974,70.9157
4641.588833612777,138577.6,-89.41813,70.9093
10000.0,68203.83,-92.23292,70.9059
