Frequency,Impedance,Phase Angle,Temperature (Dry Bath)
10.0,342265.0,-2.73883,71.3558
21.544346900318832,336931.8,-2.576684,71.3562
46.41588833612777,323665.3,-2.11324,71.3618
100.0,492914.8,-28.38815,71.3595
215.44346900318823,332686.0,16.88107,71.3588
464.15888336127773,400928.9,-3.583135,71.3735
1000.0,356093.4,-18.56629,71.3662
2154.4346900318824,290396.8,-4.884311,71.3665
4641.588833612777,157710.4,-67.65492,71.3549
10000.0,94473.19,-63.80801,71.3677
