Frequency,Impedance,Phase Angle,Temperature (Dry Bath)
10.0,4775889.0,-8.07122,71.112
21.544346900318832,8358160.0,19.93445,71.1112
46.41588833612777,5325103.0,-11.65076,71.1107
100.0,1962238.0,178.568,71.1105
215.44346900318823,325622.5,94.8068,71.1119
464.15888336127773,353109.5,72.26198,71.1163
1000.0,670052.6,-150.0339,71.1197
2154.4346900318824,825229.0,-1.692203,71.1106
4641.588833612777,260510.1,-36.36074,71.1128
10000.0,147368.8,-79.35987,71.1142
