Frequency,Impedance,Phase Angle,Temperature (Dry Bath)
10.0,40740.87,-14.2237,71.4675
21.544346900318832,36900.46,-12.68682,71.4685
46.41588833612777,33849.85,-11.40642,71.4729
100.0,31868.56,-9.214325,71.4777
215.44346900318823,28604.95,-11.01067,71.4792
464.15888336127773,26217.73,-10.76757,71.4791
1000.0,24712.72,-12.85873,71.4836
2154.4346900318824,22639.69,-13.37781,71.4782
4641.588833612777,21717.38,-14.47216,71.4892
10000.0,18450.38,-23.18524,71.4804
