Frequency,Impedance,Phase Angle,Temperature (Dry Bath)
10.0,5176989.0,-14.55566,70.6402
21.544346900318832,4393644.0,-22.90999,70.6416
46.41588833612777,4962804.0,-35.48072,70.6501
100.0,1321790.0,80.95565,70.6518
215.44346900318823,758953.2,7.222135,70.6381
464.15888336127773,470838.9,-72.30729,70.6477
1000.0,328706.1,-79.21637,70.6477
2154.4346900318824,283405.2,-81.44965,70.664
4641.588833612777,110322.5,-71.62716,70.6566
10000.0,59034.38,-81.45566,70.6553
