Frequency,Impedance,Phase Angle,Temperature (Dry Bath)
10.0,6370.29,-28.48885,70.9084
21.544346900318832,5032.94,-26.12999,70.9077
46.41588833612777,4071.357,-23.27042,70.9009
100.0,3410.218,-20.63164,70.9152
215.44346900318823,2904.379,-17.49468,70.9134
464.15888336127773,2526.712,-14.83362,70.8997
1000.0,2271.151,-12.75129,70.8953
2154.4346900318824,2072.197,-10.88474,70.907
4641.588833612777,1913.51,-10.06328,70.8933
10000.0,1777.927,-10.02634,70.9179
