Frequency,Impedance,Phase Angle,Temperature (Dry Bath)
10.0,5910179.0,6.135817,71.2747
21.544346900318832,5400730.0,-13.85429,71.2463
46.41588833612777,5725685.0,-17.9065,71.2758
100.0,483539.1,-53.97374,71.2399
215.44346900318823,2157099.0,134.4928,71.2481
464.15888336127773,980383.2,-70.99079,71.2449
1000.0,593155.1,-48.51708,71.2503
2154.4346900318824,258156.9,-93.41416,71.2634
4641.588833612777,118140.4,-75.09417,71.2338
10000.0,58348.87,-81.44368,71.2637
