Frequency,Impedance,Phase Angle,Temperature (Dry Bath)
10.0,172420.3,-12.93419,71.3583
21.544346900318832,155213.6,-11.84695,71.3602
46.41588833612777,140132.6,-12.04744,71.3664
100.0,107142.8,1.415312,71.3628
215.44346900318823,120234.4,-1.251469,71.3694
464.15888336127773,115716.3,-19.2485,71.3737
1000.0,92764.96,-13.74071,71.3686
2154.4346900318824,87299.08,-25.21098,71.3763
4641.588833612777,69193.65,-36.85075,71.3735
10000.0,51103.21,-54.59364,71.354
