Frequency,Impedance,Phase Angle,Temperature (Dry Bath)
10.0,34421.01,-13.82442,70.9019
21.544346900318832,31435.02,-11.60138,70.9056
46.41588833612777,29065.97,-10.57687,70.9158
100.0,26603.07,-8.359742,70.8805
215.44346900318823,25032.6,-8.176953,70.8988
464.15888336127773,23032.63,-8.255904,70.9157
1000.0,21313.26,-9.955982,70.8954
2154.4346900318824,19624.38,-11.26654,70.8953
4641.588833612777,18425.16,-15.26519,70.9231
10000.0,17734.12,-22.51374,70.9012
