Frequency,Impedance,Phase Angle,Temperature (Dry Bath)
10.0,14470.03,-19.53332,71.0866
21.544346900318832,12475.12,-16.85716,71.0931
46.41588833612777,10976.77,-14.76253,71.0877
100.0,9963.284,-13.23743,71.0846
215.44346900318823,8966.709,-11.43756,71.0739
464.15888336127773,8319.912,-11.39469,71.0744
1000.0,7560.889,-8.818967,71.0766
2154.4346900318824,7045.95,-9.750242,71.0916
4641.588833612777,6635.586,-10.0026,71.089
10000.0,6145.408,-13.17551,71.0833
