Frequency,Impedance,Phase Angle,Temperature (Dry Bath)
10.0,8786.898,-25.78354,70.762
21.544346900318832,7166.987,-22.57385,70.7522
46.41588833612777,6019.552,-19.51308,70.7619
100.0,5202.682,-16.90585,70.748
215.44346900318823,4583.42,-13.95987,70.7587
464.15888336127773,4110.864,-12.42575,70.7578
1000.0,3768.265,-10.56787,70.7763
2154.4346900318824,3472.603,-9.443209,70.7624
4641.588833612777,3233.182,-9.380131,70.7563
10000.0,3070.614,-9.45534,70.7696
