Frequency,Impedance,Phase Angle,Temperature (Dry Bath)
10.0,5919847.0,-12.58078,71.5416
21.544346900318832,3384319.0,-17.8373,71.5267
46.41588833612777,5026921.0,-14.82635,71.5451
100.0,827722.4,24.20263,71.5415
215.44346900318823,4873503.0,158.1893,71.5523
464.15888336127773,6759649.0,63.19341,71.5298
1000.0,1152891.0,-178.8677,71.5423
2154.4346900318824,396193.2,-60.48554,71.5341
4641.588833612777,196224.0,-95.01147,71.5369
10000.0,118068.3,-85.49438,71.54
