Frequency,Impedance,Phase Angle,Temperature (Dry Bath)
10.0,81236.7,-14.64687,71.462
21.544346900318832,72598.62,-13.00209,71.4731
46.41588833612777,65980.36,-11.89191,71.4765
100.0,60862.55,-12.05793,71.4762
215.44346900318823,54777.07,-15.37906,71.4795
464.15888336127773,52968.52,-11.81378,71.4807
1000.0,49252.1,-9.986232,71.481
2154.4346900318824,48482.15,-15.34082,71.4915
4641.588833612777,39448.01,-17.28475,71.4813
10000.0,36418.45,-22.30599,71.4807
