Frequency,Impedance,Phase Angle,Temperature (Dry Bath)
10.0,698308.4,-25.28296,70.9597
21.544346900318832,568545.8,-22.12094,70.9627
46.41588833612777,478179.2,-22.1552,70.9576
100.0,322242.0,1.617812,70.9376
215.44346900318823,242981.6,-32.99687,70.9455
464.15888336127773,203392.6,-29.83273,70.9472
1000.0,212140.2,-32.77932,70.9467
2154.4346900318824,143906.5,-63.59705,70.9574
4641.588833612777,87310.42,-61.94136,70.9466
10000.0,49646.93,-74.44512,70.9495
