Frequency,Impedance,Phase Angle,Temperature (Dry Bath)
10.0,101576.5,-14.3542,71.1935
21.544346900318832,91975.62,-12.96986,71.2016
46.41588833612777,83388.5,-11.80669,71.2076
100.0,79339.15,-9.178174,71.1856
215.44346900318823,63524.1,-17.80997,71.2039
464.15888336127773,67913.53,-16.14396,71.1731
1000.0,63786.69,-5.296154,71.1991
2154.4346900318824,57783.61,-19.92812,71.1915
4641.588833612777,46444.77,-27.82133,71.1844
10000.0,37755.89,-40.69981,71.1935
