Frequency,Impedance,Phase Angle,Temperature (Dry Bath)
10.0,14793.08,-19.42264,71.0168
21.544346900318832,12781.23,-16.75346,70.9967
46.41588833612777,11281.65,-14.47691,71.003
100.0,10104.42,-12.36896,70.9941
215.44346900318823,9190.096,-11.82678,71.0054
464.15888336127773,8534.639,-10.76908,70.997
1000.0,7774.604,-9.107957,71.0198
2154.4346900318824,7283.83,-9.062768,71.0068
4641.588833612777,6875.582,-10.42819,71.0136
10000.0,6319.33,-13.10573,70.984
