Frequency,Impedance,Phase Angle,Temperature (Dry Bath)
10.0,6135434.0,19.7789,70.9824
21.544346900318832,6109379.0,-7.362607,70.9898
46.41588833612777,4267415.0,-26.44109,70.9915
100.0,656935.5,-151.3617,70.982
215.44346900318823,832679.4,-155.8131,70.9849
464.15888336127773,918356.8,-51.88069,71.0001
1000.0,338732.3,-111.6909,70.9729
2154.4346900318824,211746.4,-92.67525,70.9837
4641.588833612777,121103.5,-95.60961,70.9793
10000.0,63496.91,-88.13645,70.9742
