Frequency,Impedance,Phase Angle,Temperature (Dry Bath)
10.0,4677722.0,12.51149,71.2319
21.544346900318832,3612032.0,-8.310016,71.2509
46.41588833612777,6067284.0,-11.21733,71.2556
100.0,1138705.0,51.07031,71.2403
215.44346900318823,2663965.0,-43.54934,71.2372
464.15888336127773,452746.8,-108.1198,71.2535
1000.0,552185.1,-51.32549,71.2467
2154.4346900318824,369156.7,-28.55036,71.2687
4641.588833612777,264094.0,-83.56199,71.2559
10000.0,123560.1,-62.08738,71.2512
