Frequency,Impedance,Phase Angle,Temperature (Dry Bath)
10.0,10667600.0,6.793715,31.2079
21.544346900318832,4773768.0,-14.3343,31.194
46.41588833612777,5758211.0,-0.6338826,31.1781
100.0,1955033.0,110.6136,31.1996
215.44346900318823,1186497.0,-8.926949,31.2139
464.15888336127773,1653711.0,45.70921,31.2154
1000.0,648838.9,-24.524,31.1998
2154.4346900318824,984630.9,-49.70495,31.2185
4641.588833612777,322548.3,-112.0947,31.208
10000.0,135383.0,-68.29645,31.2052
