Frequency,Impedance,Phase Angle,Temperature (Dry Bath)
10.0,6610095.0,32.25439,71.316
21.544346900318832,3636663.0,-5.677204,71.3097
46.41588833612777,4651469.0,-23.11118,71.3095
100.0,1339623.0,-72.19111,71.3009
215.44346900318823,803287.2,-124.2778,71.3139
464.15888336127773,565688.9,29.88693,71.3087
1000.0,140187.9,-122.1939,71.294
2154.4346900318824,513110.6,-135.2362,71.3152
4641.588833612777,159850.8,-80.61506,71.3168
10000.0,125640.1,-60.33575,71.3119
