Frequency,Impedance,Phase Angle,Temperature (Dry Bath)
10.0,3764763.0,-25.81287,71.3281
21.544346900318832,5563483.0,-17.95713,71.3242
46.41588833612777,5036699.0,-30.80926,71.3248
100.0,454740.5,33.13548,71.3147
215.44346900318823,1107661.0,-148.9952,71.3186
464.15888336127773,687318.9,1.957894,71.3015
1000.0,1535987.0,132.7985,71.302
2154.4346900318824,379546.1,-92.89199,71.3005
4641.588833612777,134818.7,-74.53358,71.3183
10000.0,66565.9,-82.43842,71.3063
