Frequency,Impedance,Phase Angle,Temperature (Dry Bath)
10.0,6835754.0,-25.66677,71.0182
21.544346900318832,4289519.0,-35.93426,71.0177
46.41588833612777,4218287.0,-10.89469,71.0123
100.0,1292218.0,-123.3359,71.0163
215.44346900318823,662705.4,118.3009,71.017
464.15888336127773,1302450.0,118.0995,71.0204
1000.0,188568.2,-72.67422,70.9987
2154.4346900318824,402825.2,169.9275,71.0116
4641.588833612777,565642.2,-81.20511,71.021
10000.0,156482.1,-93.49657,71.0264
