Frequency,Impedance,Phase Angle,Temperature (Dry Bath)
10.0,11792890.0,-32.48117,71.0279
21.544346900318832,3755980.0,-19.85713,71.0482
46.41588833612777,5297483.0,-30.45377,71.0305
100.0,983341.4,-19.37759,71.0264
215.44346900318823,1354856.0,-167.415,71.0326
464.15888336127773,842358.3,-74.98208,71.0146
1000.0,1037544.0,-125.2136,71.0408
2154.4346900318824,329045.8,-80.41461,71.0326
4641.588833612777,161106.9,-97.78609,71.0262
10000.0,64215.63,-83.42095,71.0243
