Frequency,Impedance,Phase Angle,Temperature (Dry Bath)
10.0,33855.22,-30.25436,71.3067
21.544346900318832,26363.23,-28.60055,71.2959
46.41588833612777,20715.53,-26.63895,71.3053
100.0,16249.91,-24.40599,71.3079
215.44346900318823,13518.25,-21.26941,71.3066
464.15888336127773,11863.52,-18.48667,71.2989
1000.0,9790.878,-13.34551,71.3052
2154.4346900318824,9081.224,-13.51239,71.2973
4641.588833612777,8183.687,-13.17102,71.2955
10000.0,7458.52,-16.56486,71.3077
