Frequency,Impedance,Phase Angle,Temperature (Dry Bath)
10.0,14482.75,-24.03921,71.3678
21.544346900318832,11800.81,-24.20473,71.3754
46.41588833612777,9570.876,-23.72936,71.3698
100.0,7847.82,-22.70358,71.3717
215.44346900318823,6595.927,-20.33232,71.3744
464.15888336127773,5596.453,-18.45391,71.3558
1000.0,4836.092,-17.02708,71.3713
2154.4346900318824,4262.4,-15.84704,71.3691
4641.588833612777,3739.685,-14.44024,71.3619
10000.0,3351.831,-13.37967,71.3854
