Frequency,Impedance,Phase Angle,Temperature (Dry Bath)
10.0,4546681.0,-14.38046,71.4764
21.544346900318832,4394749.0,-7.948458,71.4674
46.41588833612777,4339970.0,-14.66569,71.4603
100.0,1857050.0,44.33646,71.4724
215.44346900318823,1202196.0,-133.9971,71.4668
464.15888336127773,293082.1,-127.5133,71.4522
1000.0,319175.7,-74.70901,71.4648
2154.4346900318824,313268.1,-87.54073,71.4542
4641.588833612777,145034.3,-79.89629,71.4516
10000.0,51183.96,-87.11039,71.4793
