Frequency,Impedance,Phase Angle,Temperature (Dry Bath)
10.0,8343485.0,-27.75534,70.3845
21.544346900318832,4263655.0,-8.429466,70.3733
46.41588833612777,5005780.0,-15.42276,70.3973
100.0,492147.5,79.63359,70.377
215.44346900318823,12090690.0,-87.5557,70.3761
464.15888336127773,882893.6,-168.2273,70.3952
1000.0,242007.6,-33.43386,70.3904
2154.4346900318824,349641.5,-65.00699,70.3886
4641.588833612777,116872.8,-91.40933,70.3803
10000.0,67737.92,-90.9027,70.3795
