Frequency,Impedance,Phase Angle,Temperature (Dry Bath)
10.0,5097395.0,-13.29655,70.9844
21.544346900318832,5765295.0,-20.59781,70.9818
46.41588833612777,3850759.0,-28.09695,70.9795
100.0,824657.6,50.20104,70.9685
215.44346900318823,1094416.0,-43.77963,70.992
464.15888336127773,467543.6,-39.02482,70.9959
1000.0,1092596.0,-55.31885,70.9873
2154.4346900318824,311388.8,-62.42335,70.9603
4641.588833612777,158288.0,-99.53077,70.9791
10000.0,71204.7,-90.84011,70.9849
