Frequency,Impedance,Phase Angle,Temperature (Dry Bath)
10.0,6221855.0,-12.93801,71.4574
21.544346900318832,8660764.0,0.1434808,71.4302
46.41588833612777,5380377.0,-29.16614,71.4468
100.0,443240.1,-144.4488,71.4346
215.44346900318823,437575.7,-144.5227,71.4495
464.15888336127773,760728.0,-146.6848,71.4451
1000.0,256420.1,-86.19033,71.4523
2154.4346900318824,963121.2,-166.4603,71.446
4641.588833612777,415259.7,172.6676,71.4355
10000.0,390423.1,-106.7157,71.4392
