Frequency,Impedance,Phase Angle,Temperature (Dry Bath)
10.0,3916032.0,-5.448288,70.6009
21.544346900318832,5899730.0,-30.73795,70.6145
46.41588833612777,5487566.0,-24.29826,70.6
100.0,960461.2,-89.13355,70.6051
215.44346900318823,569256.6,-57.55376,70.6012
464.15888336127773,448308.6,-46.66003,70.5963
1000.0,271572.3,-67.9833,70.5927
2154.4346900318824,139488.6,-91.51941,70.6004
4641.588833612777,135156.6,-86.38109,70.6049
10000.0,53380.54,-95.10315,70.605
