Frequency,Impedance,Phase Angle,Temperature (Dry Bath)
10.0,4904763.0,-31.46008,71.1802
21.544346900318832,6202725.0,-42.94738,71.1858
46.41588833612777,4957268.0,-43.56257,71.1949
100.0,426561.0,-9.628072,71.1801
215.44346900318823,903769.6,143.802,71.1944
464.15888336127773,1549593.0,-68.72388,71.1924
1000.0,295211.1,-148.9894,71.1776
2154.4346900318824,397733.2,-92.68415,71.1945
4641.588833612777,121492.3,-87.06695,71.1913
10000.0,60116.02,-84.30915,71.1868
