Frequency,Impedance,Phase Angle,Temperature (Dry Bath)
10.0,43369.91,-15.09427,71.4465
21.544346900318832,38870.06,-13.258,71.4358
46.41588833612777,35371.83,-12.39123,71.4536
100.0,30354.32,-9.239349,71.4577
215.44346900318823,28427.05,-8.253597,71.454
464.15888336127773,27975.44,-11.30336,71.4431
1000.0,25663.51,-9.005608,71.4496
2154.4346900318824,22194.06,-16.00845,71.4422
4641.588833612777,21422.09,-17.20517,71.4503
10000.0,19221.18,-23.77203,71.4474
