Frequency,Impedance,Phase Angle,Temperature (Dry Bath)
10.0,2444645.0,-6.466244,71.3893
21.544346900318832,3294380.0,-4.35983,71.3861
46.41588833612777,2173799.0,-22.62195,71.3925
100.0,701640.6,-60.70894,71.407
215.44346900318823,359678.5,-46.59869,71.4017
464.15888336127773,446063.6,-18.08843,71.4075
1000.0,505651.5,53.95161,71.4034
2154.4346900318824,213803.4,-61.70848,71.4076
4641.588833612777,142756.8,-92.99085,71.4235
10000.0,57488.28,-82.10545,71.4212
