Frequency,Impedance,Phase Angle,Temperature (Dry Bath)
10.0,3636914.0,-0.3053191,71.3821
21.544346900318832,5895167.0,-16.8615,71.3738
46.41588833612777,4087266.0,-27.9884,71.3736
100.0,986639.5,-83.04483,71.387
215.44346900318823,2844731.0,73.75618,71.3649
464.15888336127773,397182.7,-26.68172,71.3727
1000.0,300847.3,-89.76341,71.3593
2154.4346900318824,223224.1,-63.82386,71.3464
4641.588833612777,118425.6,-87.66036,71.3395
10000.0,64960.5,-86.38303,71.3526
