Frequency,Impedance,Phase Angle,Temperature (Dry Bath)
10.0,3556197.0,-5.117443,71.2235
21.544346900318832,3484303.0,-31.02917,71.2143
46.41588833612777,3774092.0,-35.84449,71.2102
100.0,477506.5,-135.8337,71.2016
215.44346900318823,623695.1,-5.150241,71.1947
464.15888336127773,824746.8,39.7849,71.2219
1000.0,286262.4,-70.26843,71.2261
2154.4346900318824,254017.2,-63.94631,71.1974
4641.588833612777,88230.59,-85.37213,71.2311
10000.0,49698.36,-82.99516,71.228
