Frequency,Impedance,Phase Angle,Temperature (Dry Bath)
10.0,6116412.0,-16.65511,71.2603
21.544346900318832,6847569.0,-20.36022,71.2758
46.41588833612777,5266987.0,-30.30009,71.2675
100.0,1361940.0,-13.72293,71.2737
215.44346900318823,7093608.0,43.39075,71.2605
464.15888336127773,873760.7,-114.1141,71.2511
1000.0,695278.7,-69.87014,71.2392
2154.4346900318824,418129.6,-89.26355,71.2687
4641.588833612777,245078.0,-79.81469,71.2602
10000.0,111529.4,-86.28386,71.2448
