Frequency,Impedance,Phase Angle,Temperature (Dry Bath)
10.0,3801891.0,5.745382,71.3947
21.544346900318832,5931241.0,0.5584009,71.3946
46.41588833612777,4287828.0,-5.066525,71.409
100.0,245993.7,-145.1368,71.4237
215.44346900318823,426244.1,-139.0545,71.3962
464.15888336127773,380591.4,21.94655,71.4034
1000.0,194560.1,-78.833,71.3967
2154.4346900318824,544438.8,-39.63566,71.4112
4641.588833612777,221038.1,-33.31951,71.4158
10000.0,190171.4,-80.24477,71.4054
