Frequency,Impedance,Phase Angle,Temperature (Dry Bath)
10.0,176974.5,-12.34722,71.2475
21.544346900318832,162164.4,-11.59888,71.2486
46.41588833612777,148002.5,-11.09346,71.247
100.0,132552.5,-9.571763,71.2576
215.44346900318823,24216.25,32.22799,71.2459
464.15888336127773,82518.06,-25.3493,71.248
1000.0,114634.8,-19.58857,71.2479
2154.4346900318824,98202.39,-22.30458,71.2583
4641.588833612777,67418.22,-35.62316,71.256
10000.0,52073.11,-53.33355,71.2535
