Frequency,Impedance,Phase Angle,Temperature (Dry Bath)
10.0,9345.242,-27.07584,71.3937
21.544346900318832,7387.582,-27.51472,71.3976
46.41588833612777,5810.4,-27.26439,71.4027
100.0,4628.38,-26.13849,71.3933
215.44346900318823,3680.99,-24.7282,71.3792
464.15888336127773,3018.928,-22.5664,71.3927
1000.0,2490.145,-19.86787,71.3893
2154.4346900318824,2131.575,-17.25804,71.3877
4641.588833612777,1863.508,-14.93502,71.4063
10000.0,1668.685,-13.02982,71.3965
