Frequency,Impedance,Phase Angle,Temperature (Dry Bath)
10.0,34338.14,-12.12558,70.29
21.544346900318832,31744.28,-10.71836,70.2778
46.41588833612777,29465.88,-9.961847,70.2831
100.0,27852.94,-7.672727,70.2731
215.44346900318823,26111.61,-8.162557,70.2693
464.15888336127773,25023.7,-4.863132,70.2733
1000.0,22763.9,-9.678096,70.2678
2154.4346900318824,21032.35,-9.904596,70.2797
4641.588833612777,20292.46,-12.43896,70.2709
10000.0,16948.27,-23.00706,70.2811
