Frequency,Impedance,Phase Angle,Temperature (Dry Bath)
10.0,8192201.0,0.890339,71.3981
21.544346900318832,3590240.0,-12.50763,71.3815
46.41588833612777,3779641.0,-14.51373,71.4001
100.0,687654.0,43.90422,71.3824
215.44346900318823,1895153.0,-87.25153,71.3972
464.15888336127773,4017579.0,-89.3738,71.3812
1000.0,590823.4,17.01917,71.3906
2154.4346900318824,468905.6,-60.91456,71.3921
4641.588833612777,265306.8,-81.72166,71.3922
10000.0,125759.9,-73.3926,71.4065
