Frequency,Impedance,Phase Angle,Temperature (Dry Bath)
10.0,1336778.0,-20.38093,71.1152
21.544346900318832,1217667.0,-23.31685,71.1071
46.41588833612777,948982.1,-15.23328,71.1071
100.0,488860.8,-48.5085,71.1177
215.44346900318823,731654.1,-0.5001822,71.1058
464.15888336127773,307724.8,-29.00163,71.0838
1000.0,627859.4,-59.51178,71.1029
2154.4346900318824,269799.7,-58.08525,71.1053
4641.588833612777,112249.6,-76.16811,71.1048
10000.0,53847.59,-83.52595,71.1034
