Frequency,Impedance,Phase Angle,Temperature (Dry Bath)
10.0,5736394.0,-19.53324,70.9157
21.544346900318832,9628337.0,-53.34658,70.9302
46.41588833612777,5119786.0,-33.56355,70.9313
100.0,729074.6,-58.49033,70.9451
215.44346900318823,826958.3,-45.21755,70.9247
464.15888336127773,672550.2,-90.71769,70.9278
1000.0,453188.2,-35.975,70.9371
2154.4346900318824,374789.5,-88.0931,70.9454
4641.588833612777,174984.2,-107.1365,70.9423
10000.0,73521.68,-88.70542,70.9187
