Frequency,Impedance,Phase Angle,Temperature (Dry Bath)
10.0,4917474.0,11.55249,71.3568
21.544346900318832,6416061.0,-11.41361,71.3491
46.41588833612777,4845135.0,-4.01133,71.3595
100.0,808174.9,-22.44731,71.3623
215.44346900318823,810964.8,-47.544,71.3665
464.15888336127773,525521.9,-75.89831,71.3911
1000.0,957034.7,169.3068,71.3718
2154.4346900318824,694861.2,-109.9363,71.3667
4641.588833612777,206790.7,-82.62389,71.3773
10000.0,118946.5,-91.11065,71.3722
