Frequency,Impedance,Phase Angle,Temperature (Dry Bath)
10.0,6489797.0,27.11921,71.1438
21.544346900318832,5028410.0,-25.03822,71.1501
46.41588833612777,4322960.0,-21.08869,71.1526
100.0,431081.6,-126.8985,71.1612
215.44346900318823,919772.6,-54.35243,71.1586
464.15888336127773,845593.5,1.510438,71.1661
1000.0,641353.4,-98.4713,71.1682
2154.4346900318824,352540.7,-85.94622,71.165
4641.588833612777,164580.1,-83.01121,71.1524
10000.0,64334.15,-85.41607,71.1558
