Frequency,Impedance,Phase Angle,Temperature (Dry Bath)
10.0,9864195.0,1.098496,70.9467
21.544346900318832,3921835.0,2.960023,70.9297
46.41588833612777,5255613.0,-21.80924,70.9329
100.0,300261.8,-47.88642,70.9309
215.44346900318823,949382.2,39.81338,70.9217
464.15888336127773,609440.0,-105.1001,70.9387
1000.0,888648.0,-44.18259,70.9304
2154.4346900318824,608660.2,-81.00361,70.9416
4641.588833612777,139094.2,-80.44721,70.9425
10000.0,57692.8,-84.32328,70.9371
