Frequency,Impedance,Phase Angle,Temperature (Dry Bath)
10.0,326879.4,-25.76027,71.2565
21.544346900318832,275463.8,-23.32045,71.2287
46.41588833612777,230103.5,-20.59069,71.22
100.0,209523.4,-41.53212,71.2242
215.44346900318823,187884.2,-20.85559,71.2361
464.15888336127773,158963.7,-26.43586,71.225
1000.0,91804.3,-19.45182,71.2276
2154.4346900318824,108507.1,-37.14701,71.209
4641.588833612777,84405.1,-50.07252,71.217
10000.0,42567.26,-65.41095,71.2045
