Frequency,Impedance,Phase Angle,Temperature (Dry Bath)
10.0,9345.174,-27.57915,70.6215
21.544346900318832,7385.448,-26.67253,70.6112
46.41588833612777,5892.638,-25.23092,70.6198
100.0,4793.882,-22.69066,70.628
215.44346900318823,3981.113,-20.59061,70.6241
464.15888336127773,3373.887,-17.72887,70.6247
1000.0,2954.56,-15.77363,70.6075
2154.4346900318824,2630.36,-13.28708,70.6264
4641.588833612777,2391.882,-12.11906,70.6213
10000.0,2208.0,-11.90606,70.627
