Frequency,Impedance,Phase Angle,Temperature (Dry Bath)
10.0,1995285.0,-11.37533,70.9251
21.544346900318832,2640002.0,-17.3568,70.91
46.41588833612777,1893585.0,-10.07719,70.9256
100.0,321095.5,-99.4452,70.9048
215.44346900318823,438853.3,74.57194,70.9268
464.15888336127773,596077.6,-112.0111,70.9291
1000.0,1512542.0,110.1796,70.9265
2154.4346900318824,192275.7,-62.05694,70.9355
4641.588833612777,359907.6,-51.79941,70.9171
10000.0,119425.1,-87.41122,70.9127
