Frequency,Impedance,Phase Angle,Temperature (Dry Bath)
10.0,9584235.0,1.495153,28.9682
21.544346900318832,4705145.0,-6.256236,28.8534
46.41588833612777,6144468.0,-25.09813,29.0414
100.0,521943.3,6.07807,29.0562
215.44346900318823,811987.1,79.80485,29.0308
464.15888336127773,662487.9,-95.60443,28.9251
1000.0,2682612.0,-139.0487,28.565
2154.4346900318824,864709.4,-110.4213,28.4222
4641.588833612777,247386.9,-81.05302,28.5123
10000.0,148210.7,-80.82341,28.4491
