Frequency,Impedance,Phase Angle,Temperature (Dry Bath)
10.0,4760035.0,-14.84832,71.1682
21.544346900318832,2740597.0,-19.59837,71.1671
46.41588833612777,2481628.0,-34.41519,71.1504
100.0,581319.5,-45.4256,71.1617
215.44346900318823,764366.2,-105.9574,71.1428
464.15888336127773,768029.6,-127.6434,71.1468
1000.0,245725.7,-23.51583,71.1591
2154.4346900318824,242949.4,-72.28937,71.1517
4641.588833612777,116403.0,-73.03936,71.1475
10000.0,61093.01,-86.8395,71.1555
