Frequency,Impedance,Phase Angle,Temperature (Dry Bath)
10.0,4265692.0,-19.08319,71.1231
21.544346900318832,5107948.0,-5.864212,71.123
46.41588833612777,4126501.0,-31.01496,71.1421
100.0,381292.9,-35.85733,71.129
215.44346900318823,1138392.0,-32.29477,71.1355
464.15888336127773,1059427.0,-125.014,71.1327
1000.0,236189.4,-57.54067,71.1318
2154.4346900318824,347727.6,-52.7802,71.1352
4641.588833612777,139919.8,-87.03509,71.141
10000.0,61680.6,-86.29894,71.1235
