Frequency,Impedance,Phase Angle,Temperature (Dry Bath)
10.0,3936603.0,-4.945732,71.2702
21.544346900318832,8859824.0,-4.098392,71.2703
46.41588833612777,5027189.0,-1.430564,71.2852
100.0,879554.4,46.72271,71.2747
215.44346900318823,854294.3,0.4405216,71.2781
464.15888336127773,512614.1,-61.62311,71.2802
1000.0,1805233.0,-175.5871,71.2877
2154.4346900318824,422999.0,-34.26197,71.2759
4641.588833612777,184812.8,-81.8757,71.294
10000.0,129178.1,-87.84885,71.2918
