Frequency,Impedance,Phase Angle,Temperature (Dry Bath)
10.0,39792.49,-13.99055,70.7516
21.544346900318832,36185.5,-12.08582,70.7491
46.41588833612777,33315.45,-11.02028,70.7556
100.0,30834.57,-13.37446,70.7633
215.44346900318823,28338.83,-9.073494,70.7656
464.15888336127773,26974.58,-11.25296,70.7522
1000.0,24014.49,-12.28062,70.7624
2154.4346900318824,22640.49,-11.07637,70.7538
4641.588833612777,20526.12,-13.33764,70.7561
10000.0,18842.14,-22.79613,70.7644
