Frequency,Impedance,Phase Angle,Temperature (Dry Bath)
10.0,6337890.0,-9.79407,71.3519
21.544346900318832,4693878.0,-30.08924,71.3572
46.41588833612777,7459571.0,-108.3075,71.3383
100.0,7151520.0,-169.0199,71.3542
215.44346900318823,34132.38,-131.5065,71.3551
464.15888336127773,972197.8,-56.29835,71.3572
1000.0,633633.2,-67.69256,71.3514
2154.4346900318824,282126.7,-100.0826,71.3533
4641.588833612777,170458.6,-71.46825,71.352
10000.0,69030.64,-90.74314,71.3645
