Frequency,Impedance,Phase Angle,Temperature (Dry Bath)
10.0,565076.2,-8.490194,71.4961
21.544346900318832,518440.5,-6.054442,71.4885
46.41588833612777,524532.7,-5.196626,71.4959
100.0,418769.4,12.23594,71.5132
215.44346900318823,359470.6,8.350989,71.5059
464.15888336127773,231340.3,-2.19926,71.497
1000.0,418339.7,-48.77577,71.5025
2154.4346900318824,278506.9,-58.36103,71.5074
4641.588833612777,143988.2,-55.42815,71.4875
10000.0,103569.1,-59.7629,71.4976
