Frequency,Impedance,Phase Angle,Temperature (Dry Bath)
10.0,9372069.0,-18.92171,27.903
21.544346900318832,4635070.0,-11.53948,27.9896
46.41588833612777,4848453.0,-16.27947,27.8493
100.0,1275219.0,32.39062,27.9865
215.44346900318823,2530608.0,-32.11637,27.9885
464.15888336127773,853028.8,22.43057,27.7544
1000.0,394750.0,-71.82662,27.4552
2154.4346900318824,812034.7,-147.4081,27.9788
4641.588833612777,277054.8,-79.74308,27.9159
10000.0,136046.2,-79.45712,28.1171
