Frequency,Impedance,Phase Angle,Temperature (Dry Bath)
10.0,3588829.0,16.36552,71.3623
21.544346900318832,4193040.0,-24.04883,71.3495
46.41588833612777,4873040.0,-9.608525,71.3625
100.0,452618.3,9.29992,71.3529
215.44346900318823,704688.4,-42.48034,71.3664
464.15888336127773,894289.2,114.8417,71.3557
1000.0,328122.5,-155.3686,71.3659
2154.4346900318824,290198.8,-99.25187,71.3571
4641.588833612777,143374.2,-78.56573,71.3734
10000.0,69735.22,-85.27355,71.3567
