Frequency,Impedance,Phase Angle,Temperature (Dry Bath)
10.0,4533898.0,-16.18531,71.3137
21.544346900318832,4973175.0,-26.5579,71.3058
46.41588833612777,6767466.0,-18.49868,71.3152
100.0,3050848.0,37.09412,71.311
215.44346900318823,935275.2,-129.0064,71.3036
464.15888336127773,510448.3,-129.0139,71.3133
1000.0,423297.7,-69.837,71.2937
2154.4346900318824,276234.4,-83.27177,71.3202
4641.588833612777,136759.4,-96.19177,71.3277
10000.0,69820.66,-88.16035,71.3122
