Frequency,Impedance,Phase Angle,Temperature (Dry Bath)
10.0,45049.08,-16.38227,70.6854
21.544346900318832,39483.71,-15.31761,70.6947
46.41588833612777,34972.39,-13.90457,70.6885
100.0,30788.01,-13.03875,70.6826
215.44346900318823,27859.06,-9.336594,70.7052
464.15888336127773,25989.28,-12.78193,70.7028
1000.0,25860.89,-10.86322,70.6923
2154.4346900318824,22549.09,-11.42849,70.6784
4641.588833612777,19941.22,-16.14153,70.6736
10000.0,17956.97,-24.1096,70.686
