Frequency,Impedance,Phase Angle,Temperature (Dry Bath)
10.0,4964870.0,1.297729,70.9601
21.544346900318832,4534306.0,-20.42786,70.97
46.41588833612777,4979807.0,-41.0087,70.9306
100.0,690851.7,80.76297,70.9392
215.44346900318823,1178699.0,28.95633,70.9347
464.15888336127773,3631902.0,103.199,70.9556
1000.0,621024.8,-92.60685,70.9518
2154.4346900318824,327606.8,-85.53616,70.9544
4641.588833612777,115154.8,-82.77567,70.9613
10000.0,57159.05,-96.8159,70.9377
