Frequency,Impedance,Phase Angle,Temperature (Dry Bath)
10.0,10930820.0,-9.755583,71.2218
21.544346900318832,5827019.0,-16.15018,71.2237
46.41588833612777,4064407.0,-31.12437,71.2096
100.0,555344.5,-101.49,71.2188
215.44346900318823,754030.5,-61.35101,71.1956
464.15888336127773,1067919.0,-84.05583,71.2267
1000.0,449718.6,-65.90129,71.2125
2154.4346900318824,269318.0,-90.22899,71.2018
4641.588833612777,118966.0,-68.44572,71.2098
10000.0,69357.63,-90.27304,71.2104
