Frequency,Impedance,Phase Angle,Temperature (Dry Bath)
10.0,16706.19,-29.38165,70.6056
21.544346900318832,13214.37,-26.92924,70.6074
46.41588833612777,10665.4,-24.52505,70.6185
100.0,8852.629,-21.97117,70.6159
215.44346900318823,7424.031,-19.42229,70.6186
464.15888336127773,6423.284,-16.25979,70.6102
1000.0,5715.842,-13.78678,70.5962
2154.4346900318824,5138.968,-11.83388,70.6162
4641.588833612777,4729.93,-10.01788,70.616
10000.0,4509.938,-11.6059,70.6092
