Frequency,Impedance,Phase Angle,Temperature (Dry Bath)
10.0,151087.7,-13.37677,71.0305
21.544346900318832,134586.9,-12.54537,71.0254
46.41588833612777,123628.3,-12.13485,71.0261
100.0,118539.3,-21.08245,71.0274
215.44346900318823,111601.8,5.80077,71.0395
464.15888336127773,81439.38,-13.87968,71.0228
1000.0,74780.82,-9.990638,71.0291
2154.4346900318824,85564.84,-17.9043,71.0265
4641.588833612777,66986.57,-32.42138,71.0334
10000.0,45639.96,-47.88096,71.0328
