Frequency,Impedance,Phase Angle,Temperature (Dry Bath)
10.0,6529861.0,-17.24647,70.4318
21.544346900318832,4059055.0,-15.76201,70.4328
46.41588833612777,4683071.0,-31.80845,70.4391
100.0,409853.9,-54.90795,70.4631
215.44346900318823,4569641.0,-65.15305,70.4471
464.15888336127773,432411.4,-10.16818,70.4457
1000.0,532536.9,-83.3542,70.4617
2154.4346900318824,181614.0,-69.89547,70.4662
4641.588833612777,79563.75,-77.6211,70.4524
10000.0,48342.42,-75.28413,70.4764
