Frequency,Impedance,Phase Angle,Temperature (Dry Bath)
10.0,4300631.0,-21.33144,70.9947
21.544346900318832,4835691.0,-3.322184,70.9821
46.41588833612777,4190404.0,-17.11837,70.9899
100.0,496099.0,-75.2987,70.9781
215.44346900318823,614298.4,169.269,70.9868
464.15888336127773,566030.1,-65.7695,70.9764
1000.0,680557.8,-119.1768,70.9752
2154.4346900318824,229434.7,-101.6881,70.9907
4641.588833612777,110926.6,-84.58543,70.9876
10000.0,53254.89,-89.15919,70.9834
