Frequency,Impedance,Phase Angle,Temperature (Dry Bath)
10.0,5164526.0,1.29758,71.4539
21.544346900318832,10465710.0,-5.425241,71.4549
46.41588833612777,8281316.0,-20.52773,71.4531
100.0,385239.6,-40.76776,71.4541
215.44346900318823,2109815.0,49.24557,71.4488
464.15888336127773,514099.6,-80.61406,71.4241
1000.0,696306.9,-63.48245,71.4431
2154.4346900318824,627049.6,-49.50545,71.4472
4641.588833612777,213015.7,-77.19608,71.4397
10000.0,124522.3,-76.25869,71.4375
