Frequency,Impedance,Phase Angle,Temperature (Dry Bath)
10.0,6804758.0,8.835956,71.422
21.544346900318832,6185834.0,-33.54075,71.4071
46.41588833612777,6263777.0,-17.81165,71.4165
100.0,382738.5,-2.058188,71.4037
215.44346900318823,1167946.0,95.51346,71.3948
464.15888336127773,296686.4,-46.29656,71.42
1000.0,642639.5,-30.95947,71.4058
2154.4346900318824,851912.2,-82.96171,71.407
4641.588833612777,232973.6,-90.2934,71.4011
10000.0,110650.0,-87.79069,71.4198
