Frequency,Impedance,Phase Angle,Temperature (Dry Bath)
10.0,4293328.0,-10.72786,70.9179
21.544346900318832,6022770.0,-54.33667,70.8878
46.41588833612777,3861484.0,-40.30523,70.9024
100.0,791875.8,-129.0489,70.9097
215.44346900318823,2577965.0,-37.66316,70.9028
464.15888336127773,621635.0,-75.36365,70.913
1000.0,5223460.0,151.6448,70.8933
2154.4346900318824,278032.1,-88.63367,70.9117
4641.588833612777,124197.4,-82.67514,70.913
10000.0,64301.35,-77.83058,70.9052
