Frequency,Impedance,Phase Angle,Temperature (Dry Bath)
10.0,6586046.0,-5.081032,71.5175
21.544346900318832,3865414.0,-21.11812,71.5232
46.41588833612777,5040309.0,-25.16196,71.5053
100.0,1398873.0,-48.72274,71.521
215.44346900318823,1922314.0,-90.56535,71.5177
464.15888336127773,1941159.0,58.67586,71.5264
1000.0,3568509.0,-102.1875,71.5155
2154.4346900318824,845312.9,-111.7021,71.5234
4641.588833612777,281195.9,-78.93112,71.5253
10000.0,154504.7,-94.13507,71.5231
