Frequency,Impedance,Phase Angle,Temperature (Dry Bath)
10.0,3484594.0,10.73698,71.2949
21.544346900318832,2948658.0,-19.68299,71.2889
46.41588833612777,2663250.0,-14.60075,71.2911
100.0,380644.5,-53.17761,71.2871
215.44346900318823,834854.5,-8.078621,71.2809
464.15888336127773,548097.1,-27.34322,71.284
1000.0,693587.0,2.155765,71.2926
2154.4346900318824,624144.3,-73.52097,71.2885
4641.588833612777,122891.0,-87.27256,71.2889
10000.0,60681.15,-87.08595,71.2792
