Frequency,Impedance,Phase Angle,Temperature (Dry Bath)
10.0,5362682.0,-15.25388,70.8502
21.544346900318832,6855066.0,-6.995027,70.8573
46.41588833612777,4699613.0,-16.54718,70.852
100.0,899340.8,-87.79601,70.857
215.44346900318823,644991.6,9.864071,70.8578
464.15888336127773,567597.8,-118.5557,70.8484
1000.0,212212.6,-99.1852,70.8433
2154.4346900318824,273337.3,-90.73109,70.8612
4641.588833612777,122806.0,-87.96095,70.8437
10000.0,71824.29,-87.5993,70.8551
