Frequency,Impedance,Phase Angle,Temperature (Dry Bath)
10.0,13335.13,-28.40109,71.025
21.544346900318832,10586.13,-25.7584,71.0131
46.41588833612777,8600.83,-22.95685,71.0133
100.0,7225.167,-20.82951,70.998
215.44346900318823,6194.768,-17.13918,71.0075
464.15888336127773,5426.833,-15.59934,71.0237
1000.0,4844.018,-13.85492,71.0087
2154.4346900318824,4317.701,-12.03659,70.9911
4641.588833612777,3984.955,-12.30803,71.0239
10000.0,3639.353,-13.14542,71.0057
