Frequency,Impedance,Phase Angle,Temperature (Dry Bath)
10.0,6089477.0,-24.21024,70.7848
21.544346900318832,5644341.0,-9.562953,70.8036
46.41588833612777,4595941.0,-41.35366,70.7902
100.0,609656.1,28.42604,70.8096
215.44346900318823,487652.4,54.94598,70.803
464.15888336127773,546834.0,65.91546,70.8134
1000.0,461044.5,138.9982,70.8106
2154.4346900318824,196967.2,-90.55408,70.8155
4641.588833612777,112882.6,-64.74223,70.826
10000.0,56798.32,-90.59024,70.8005
