Frequency,Impedance,Phase Angle,Temperature (Dry Bath)
10.0,21801.1,-21.27126,71.5618
21.544346900318832,18184.51,-20.69523,71.5525
46.41588833612777,15247.89,-19.82178,71.5532
100.0,12864.59,-18.95908,71.5418
215.44346900318823,11097.93,-16.46731,71.5632
464.15888336127773,9941.632,-14.7114,71.5553
1000.0,8869.094,-12.54638,71.564
2154.4346900318824,8019.982,-10.65879,71.5518
4641.588833612777,7453.958,-10.79195,71.5585
10000.0,7012.663,-11.66554,71.5662
