Frequency,Impedance,Phase Angle,Temperature (Dry Bath)
10.0,3951349.0,-9.825436,29.0747
21.544346900318832,4854606.0,12.19107,28.6234
46.41588833612777,6227151.0,-17.32763,29.0937
100.0,1450540.0,-70.42393,28.9805
215.44346900318823,1570311.0,13.40322,29.1777
464.15888336127773,697157.3,-144.1172,29.0336
1000.0,748015.8,-28.02567,29.0968
2154.4346900318824,731140.5,-78.42919,28.8249
4641.588833612777,274099.7,-75.86304,28.95
10000.0,138835.9,-80.94231,29.2345
