Frequency,Impedance,Phase Angle,Temperature (Dry Bath)
10.0,7051.988,-35.81966,70.7434
21.544346900318832,5328.855,-31.10807,70.7418
46.41588833612777,4195.998,-26.62803,70.7112
100.0,3451.085,-22.52941,70.7374
215.44346900318823,2895.948,-18.86894,70.7244
464.15888336127773,2545.852,-15.34521,70.736
1000.0,2257.485,-13.1282,70.7317
2154.4346900318824,2057.191,-11.20035,70.7172
4641.588833612777,1900.485,-9.786526,70.7291
10000.0,1780.689,-9.187851,70.7382
