Frequency,Impedance,Phase Angle,Temperature (Dry Bath)
10.0,176787.3,-12.48214,71.2965
21.544346900318832,163368.5,-11.27284,71.2977
46.41588833612777,146833.8,-11.71566,71.302
100.0,123466.7,-11.40352,71.285
215.44346900318823,109303.0,-14.96867,71.2909
464.15888336127773,117379.8,-15.61955,71.279
1000.0,121458.3,-18.23161,71.2871
2154.4346900318824,95305.31,-25.83525,71.2918
4641.588833612777,78745.99,-47.88222,71.2851
10000.0,54714.91,-58.83462,71.2933
