Frequency,Impedance,Phase Angle,Temperature (Dry Bath)
10.0,25793.17,-13.91875,70.4827
21.544346900318832,23408.69,-11.02906,70.4564
46.41588833612777,21691.53,-9.269262,70.4795
100.0,19688.46,-6.299428,70.4727
215.44346900318823,19252.43,-7.262631,70.4718
464.15888336127773,18451.13,-5.213216,70.4646
1000.0,18172.16,-5.239367,70.4783
2154.4346900318824,16847.05,-8.075736,70.4621
4641.588833612777,16229.45,-13.0235,70.4761
10000.0,14534.22,-20.97477,70.4868
