Frequency,Impedance,Phase Angle,Temperature (Dry Bath)
10.0,4413433.0,-4.252086,71.5108
21.544346900318832,6128516.0,-8.842703,71.5137
46.41588833612777,5583089.0,-14.00065,71.5276
100.0,601769.5,-97.70603,71.5029
215.44346900318823,539028.6,-73.37722,71.5127
464.15888336127773,3639533.0,-167.0649,71.5074
1000.0,1295026.0,-72.72571,71.5126
2154.4346900318824,470140.4,-79.63701,71.5085
4641.588833612777,176264.8,-70.77693,71.5092
10000.0,130240.0,-85.86536,71.5026
