Frequency,Impedance,Phase Angle,Temperature (Dry Bath)
10.0,12674.83,-18.7337,70.7859
21.544346900318832,10859.59,-18.55757,70.7758
46.41588833612777,9323.647,-18.60046,70.7808
100.0,7917.553,-19.54425,70.7906
215.44346900318823,6973.351,-17.95282,70.7791
464.15888336127773,5912.372,-18.53311,70.787
1000.0,5149.945,-17.32653,70.7819
2154.4346900318824,4451.956,-16.08853,70.7719
4641.588833612777,3914.635,-15.7,70.7822
10000.0,3531.692,-15.43114,70.7907
