Frequency,Impedance,Phase Angle,Temperature (Dry Bath)
10.0,934577.5,-32.47949,71.3152
21.544346900318832,716929.1,-26.32058,71.3173
46.41588833612777,653304.1,-20.94322,71.3184
100.0,450691.8,3.027368,71.3069
215.44346900318823,15283.51,-100.8012,71.3221
464.15888336127773,406853.1,-64.76323,71.3132
1000.0,266761.3,-35.58496,71.3051
2154.4346900318824,138997.2,-53.03248,71.3247
4641.588833612777,91804.52,-57.1019,71.3181
10000.0,55885.07,-70.59387,71.3167
