Frequency,Impedance,Phase Angle,Temperature (Dry Bath)
10.0,7992539.0,-38.01037,71.5634
21.544346900318832,5620773.0,-21.00518,71.5826
46.41588833612777,4664055.0,-14.94607,71.5812
100.0,2440162.0,-74.44814,71.5694
215.44346900318823,1395984.0,82.30634,71.5758
464.15888336127773,865399.3,-127.6802,71.5775
1000.0,1033008.0,-77.3957,71.5679
2154.4346900318824,599792.8,-70.63011,71.5837
4641.588833612777,197830.8,-64.14224,71.5735
10000.0,112400.6,-73.89458,71.5699
