Frequency,Impedance,Phase Angle,Temperature (Dry Bath)
10.0,5116313.0,-40.28584,70.7529
21.544346900318832,4647527.0,-7.763896,70.754
46.41588833612777,6578194.0,-29.07093,70.7486
100.0,8159201.0,-151.4032,70.75
215.44346900318823,870782.7,-139.9516,70.7517
464.15888336127773,1211487.0,62.50158,70.7609
1000.0,670552.3,-118.0464,70.7728
2154.4346900318824,233901.1,-92.61764,70.7673
4641.588833612777,140264.5,-86.07115,70.7521
10000.0,62401.04,-91.28262,70.7634
