Frequency,Impedance,Phase Angle,Temperature (Dry Bath)
10.0,4456678.0,7.178186,71.1446
21.544346900318832,5167553.0,4.333746,71.1504
46.41588833612777,6743581.0,-3.446371,71.1442
100.0,1576605.0,71.6627,71.1401
215.44346900318823,993073.9,80.73163,71.1449
464.15888336127773,1040639.0,-35.643,71.1339
1000.0,722453.0,-118.4352,71.1442
2154.4346900318824,633841.2,-38.50176,71.1401
4641.588833612777,385080.4,-94.46499,71.144
10000.0,169819.9,-113.4677,71.1363
