Frequency,Impedance,Phase Angle,Temperature (Dry Bath)
10.0,2083762.0,-12.69851,71.1704
21.544346900318832,2200223.0,-7.340374,71.1592
46.41588833612777,2227145.0,-0.5123228,71.1661
100.0,509587.7,18.22245,71.1568
215.44346900318823,410788.4,-51.56945,71.1427
464.15888336127773,877770.8,-173.6237,71.1401
1000.0,320483.3,-43.89126,71.1526
2154.4346900318824,628173.6,140.1198,71.1519
4641.588833612777,330073.8,-124.2401,71.1415
10000.0,105382.3,-86.17233,71.1203
