Frequency,Impedance,Phase Angle,Temperature (Dry Bath)
10.0,6797475.0,-34.60351,70.7452
21.544346900318832,4723768.0,-25.07549,70.7462
46.41588833612777,4805647.0,-42.52948,70.7415
100.0,1107053.0,-147.6478,70.7563
215.44346900318823,662267.7,-158.4413,70.7542
464.15888336127773,557440.4,-101.0793,70.7519
1000.0,325292.5,-157.4897,70.7335
2154.4346900318824,349741.6,-111.285,70.7531
4641.588833612777,129550.5,-96.76547,70.756
10000.0,63756.19,-87.28075,70.7561
