Frequency,Impedance,Phase Angle,Temperature (Dry Bath)
10.0,5824108.0,1.249998,71.2376
21.544346900318832,5174599.0,-6.652479,71.2383
46.41588833612777,3517538.0,-20.09035,71.267
100.0,602909.0,12.11046,71.2353
215.44346900318823,1361281.0,105.1172,71.2413
464.15888336127773,418663.3,-127.3482,71.2376
1000.0,680592.4,-98.0402,71.2591
2154.4346900318824,259565.1,-93.46204,71.2418
4641.588833612777,108962.1,-80.02365,71.2177
10000.0,67375.53,-86.8181,71.2368
