Frequency,Impedance,Phase Angle,Temperature (Dry Bath)
10.0,8013908.0,-48.15707,70.9433
21.544346900318832,3627684.0,-26.33693,70.9567
46.41588833612777,3124739.0,-16.88858,70.9651
100.0,272121.1,27.10647,70.951
215.44346900318823,568600.5,17.34353,70.9569
464.15888336127773,706055.7,-83.02751,70.9352
1000.0,319345.1,-72.25577,70.9545
2154.4346900318824,266989.3,-61.51103,70.9559
4641.588833612777,154763.5,-92.86505,70.9456
10000.0,71082.05,-87.22992,70.9561
