Frequency,Impedance,Phase Angle,Temperature (Dry Bath)
10.0,887587.3,-22.54971,71.3003
21.544346900318832,786410.2,-27.4422,71.2762
46.41588833612777,602100.4,-24.16112,71.2905
100.0,239679.9,-20.5124,71.2895
215.44346900318823,337146.4,-12.57587,71.2804
464.15888336127773,408953.2,-34.49594,71.2966
1000.0,336546.7,-48.94047,71.3118
2154.4346900318824,177712.7,-61.10976,71.2906
4641.588833612777,98310.38,-66.45512,71.2975
10000.0,55040.59,-78.83054,71.2963
