Frequency,Impedance,Phase Angle,Temperature (Dry Bath)
10.0,2329535.0,-15.82329,71.3394
21.544346900318832,2737899.0,-23.33053,71.3386
46.41588833612777,1983695.0,-29.76313,71.3424
100.0,1051087.0,-44.0734,71.3365
215.44346900318823,1556129.0,131.1911,71.3356
464.15888336127773,429495.2,-85.08664,71.3436
1000.0,334077.3,-69.97556,71.3305
2154.4346900318824,143909.3,-73.78279,71.3298
4641.588833612777,78776.75,-84.93362,71.3386
10000.0,36480.67,-86.86161,71.3414
