Frequency,Impedance,Phase Angle,Temperature (Dry Bath)
10.0,151804.9,-16.1653,28.6123
21.544346900318832,136992.3,-14.86617,28.7607
46.41588833612777,122470.5,-13.73129,28.7663
100.0,108796.9,-20.28955,28.7445
215.44346900318823,99511.51,-21.95714,28.756
464.15888336127773,78989.99,-5.617783,28.6285
1000.0,91803.11,-10.03127,28.84
2154.4346900318824,81363.11,-14.68589,28.6387
4641.588833612777,65809.24,-18.88847,28.8075
10000.0,55093.49,-29.51033,28.4774
