Frequency,Impedance,Phase Angle,Temperature (Dry Bath)
10.0,4927150.0,0.6191661,70.5643
21.544346900318832,5168824.0,-21.62485,70.5732
46.41588833612777,4356385.0,-29.69556,70.6064
100.0,314313.8,2.008396,70.5681
215.44346900318823,895353.1,-122.4728,70.5674
464.15888336127773,2265899.0,-78.42378,70.5719
1000.0,493252.8,-87.79581,70.5967
2154.4346900318824,271604.6,-101.6223,70.5774
4641.588833612777,149141.2,-54.86406,70.5785
10000.0,64281.59,-89.91074,70.5749
