Frequency,Impedance,Phase Angle,Temperature (Dry Bath)
10.0,4831879.0,-12.47269,71.5199
21.544346900318832,5556242.0,21.57419,71.5266
46.41588833612777,6283955.0,-7.555561,71.5294
100.0,728069.0,-111.1527,71.5116
215.44346900318823,1963697.0,77.38171,71.5257
464.15888336127773,680458.1,-102.1716,71.5202
1000.0,1073367.0,-61.97866,71.5165
2154.4346900318824,1178046.0,-98.004,71.515
4641.588833612777,218289.6,-75.55878,71.5232
10000.0,171369.2,-81.59458,71.5286
