Frequency,Impedance,Phase Angle,Temperature (Dry Bath)
10.0,361660.0,-22.71508,71.158
21.544346900318832,292117.0,-22.93058,71.1513
46.41588833612777,245103.9,-20.46299,71.1401
100.0,178342.1,-26.19291,71.1486
215.44346900318823,146207.1,-30.08794,71.1604
464.15888336127773,233239.8,-36.44658,71.1542
1000.0,117802.1,-19.80421,71.1474
2154.4346900318824,107340.8,-37.01898,71.158
4641.588833612777,75096.84,-45.38721,71.1424
10000.0,42454.47,-60.94177,71.1436
