Frequency,Impedance,Phase Angle,Temperature (Dry Bath)
10.0,7323.781,-35.78404,70.7216
21.544346900318832,5529.181,-31.13512,70.7102
46.41588833612777,4353.134,-26.62922,70.7177
100.0,3543.16,-22.05515,70.7216
215.44346900318823,2997.439,-18.42393,70.7183
464.15888336127773,2633.448,-15.4872,70.7286
1000.0,2329.66,-12.70773,70.7217
2154.4346900318824,2129.176,-11.05602,70.7175
4641.588833612777,1965.083,-9.647429,70.7156
10000.0,1846.545,-8.927794,70.7217
