Frequency,Impedance,Phase Angle,Temperature (Dry Bath)
10.0,142870.8,-17.4952,71.2676
21.544346900318832,120962.9,-16.44632,71.2617
46.41588833612777,105933.6,-16.2275,71.2763
100.0,96028.95,-11.53954,71.2487
215.44346900318823,94117.52,-27.67285,71.2603
464.15888336127773,73297.26,-18.87137,71.2646
1000.0,68330.45,-23.17517,71.2638
2154.4346900318824,58674.81,-22.5211,71.2715
4641.588833612777,46003.05,-39.32557,71.2778
10000.0,32899.59,-48.85189,71.2636
