Frequency,Impedance,Phase Angle,Temperature (Dry Bath)
10.0,8949612.0,6.051659,71.4449
21.544346900318832,5812206.0,-1.58442,71.4518
46.41588833612777,5668867.0,9.033476,71.4421
100.0,7116351.0,-136.8658,71.4448
215.44346900318823,420510.6,-6.65868,71.4448
464.15888336127773,959473.6,-41.42462,71.4337
1000.0,304360.5,-62.66889,71.4405
2154.4346900318824,186186.2,-97.39016,71.4399
4641.588833612777,168818.2,-75.57826,71.4328
10000.0,65059.92,-92.63807,71.4412
