Frequency,Impedance,Phase Angle,Temperature (Dry Bath)
10.0,10643420.0,26.80918,70.9538
21.544346900318832,3881993.0,-29.84506,70.966
46.41588833612777,5629627.0,-42.00053,70.9603
100.0,1402202.0,72.72974,70.9555
215.44346900318823,915507.5,-113.4852,70.9616
464.15888336127773,676954.3,-122.8064,70.9458
1000.0,2089513.0,123.7118,70.9515
2154.4346900318824,225563.1,-67.73641,70.9562
4641.588833612777,125089.1,-97.13309,70.951
10000.0,56069.84,-84.5571,70.9604
