Frequency,Impedance,Phase Angle,Temperature (Dry Bath)
10.0,5037045.0,-29.22145,70.9493
21.544346900318832,5427606.0,-2.694052,70.9485
46.41588833612777,3605490.0,-25.41436,70.9458
100.0,417151.1,-38.80322,70.9523
215.44346900318823,2079889.0,51.6504,70.944
464.15888336127773,1003559.0,37.29259,70.9414
1000.0,698645.2,-79.50542,70.9407
2154.4346900318824,461528.8,-65.31773,70.9523
4641.588833612777,140332.3,-94.88439,70.94
10000.0,72993.52,-82.08933,70.9449
