Frequency,Impedance,Phase Angle,Temperature (Dry Bath)
10.0,23685.45,-21.98234,71.1336
21.544346900318832,19468.48,-23.62003,71.1302
46.41588833612777,15705.16,-24.97568,71.122
100.0,12573.92,-24.85442,71.1282
215.44346900318823,10008.56,-27.47087,71.1274
464.15888336127773,8004.685,-26.08702,71.1428
1000.0,6349.011,-25.37604,71.1197
2154.4346900318824,5186.438,-23.23677,71.1192
4641.588833612777,4279.614,-21.67717,71.1145
10000.0,3531.23,-20.38004,71.1263
