Frequency,Impedance,Phase Angle,Temperature (Dry Bath)
10.0,4561921.0,-17.16986,71.4181
21.544346900318832,5115152.0,-18.01515,71.3787
46.41588833612777,5034924.0,-40.92075,71.4065
100.0,617784.8,179.0575,71.3913
215.44346900318823,243033.2,51.27779,71.3964
464.15888336127773,1235849.0,-105.562,71.418
1000.0,319454.5,-86.59765,71.3877
2154.4346900318824,310454.9,-70.58166,71.3895
4641.588833612777,121169.9,-85.00986,71.3986
10000.0,62493.16,-91.76502,71.4049
