Frequency,Impedance,Phase Angle,Temperature (Dry Bath)
10.0,14796.85,-19.46143,71.0789
21.544346900318832,12751.83,-16.69966,71.0765
46.41588833612777,11248.75,-14.56548,71.0617
100.0,10097.65,-12.27233,71.0682
215.44346900318823,9264.847,-11.56699,71.0688
464.15888336127773,8516.041,-8.540747,71.0793
1000.0,7816.959,-9.099653,71.0704
2154.4346900318824,7369.87,-9.593165,71.0754
4641.588833612777,6837.495,-10.93216,71.0585
10000.0,6401.493,-12.96438,71.0593
