Frequency,Impedance,Phase Angle,Temperature (Dry Bath)
10.0,5149425.0,-10.00419,70.9746
21.544346900318832,3317436.0,-20.45991,70.9831
46.41588833612777,5072813.0,2.716761,70.9761
100.0,472021.7,46.02688,70.9746
215.44346900318823,481042.1,-53.74565,70.9766
464.15888336127773,448242.7,-72.40081,70.9738
1000.0,433418.6,-52.96481,70.9799
2154.4346900318824,177870.1,-92.40928,70.9787
4641.588833612777,112596.9,-96.64139,70.9793
10000.0,54607.57,-89.42833,70.9841
