Frequency,Impedance,Phase Angle,Temperature (Dry Bath)
10.0,6426855.0,18.43639,71.1841
21.544346900318832,6934350.0,16.74844,71.2072
46.41588833612777,4935874.0,5.786837,71.2308
100.0,582211.0,-120.2952,71.2215
215.44346900318823,575388.4,-97.6312,71.2128
464.15888336127773,3929046.0,101.1503,71.2237
1000.0,730190.9,-30.3372,71.2317
2154.4346900318824,1020585.0,153.4818,71.2327
4641.588833612777,192276.9,-95.76433,71.2083
10000.0,156895.9,-100.9007,71.2205
