Frequency,Impedance,Phase Angle,Temperature (Dry Bath)
10.0,12692.5,-40.25895,71.2831
21.544346900318832,9036.25,-37.80779,71.2803
46.41588833612777,6552.395,-34.3107,71.2752
100.0,4947.696,-29.52436,71.2829
215.44346900318823,3955.018,-24.61982,71.2819
464.15888336127773,3292.729,-20.30638,71.2905
1000.0,2837.803,-16.53006,71.2797
2154.4346900318824,2509.561,-14.26248,71.2784
4641.588833612777,2265.215,-11.96671,71.2837
10000.0,2079.468,-10.1823,71.2916
