Frequency,Impedance,Phase Angle,Temperature (Dry Bath)
10.0,9651296.0,-10.01148,70.635
21.544346900318832,4348226.0,0.1142471,70.6259
46.41588833612777,3726717.0,-22.36763,70.6332
100.0,514577.9,-50.62559,70.6499
215.44346900318823,466107.2,-17.20641,70.6418
464.15888336127773,841307.9,138.7108,70.6485
1000.0,277206.7,30.06256,70.6331
2154.4346900318824,199912.4,-89.97967,70.6458
4641.588833612777,112415.4,-69.89603,70.641
10000.0,68854.25,-81.75245,70.645
