Frequency,Impedance,Phase Angle,Temperature (Dry Bath)
10.0,4750372.0,6.150769,71.1488
21.544346900318832,5166522.0,2.40522,71.149
46.41588833612777,4457843.0,-5.980634,71.1509
100.0,752677.6,3.845258,71.1562
215.44346900318823,4574581.0,-90.94373,71.1594
464.15888336127773,2860079.0,-47.17413,71.1595
1000.0,1213416.0,-83.97008,71.1568
2154.4346900318824,666291.4,-60.94498,71.1646
4641.588833612777,227968.2,-83.56642,71.1597
10000.0,133757.7,-84.1517,71.1658
