Frequency,Impedance,Phase Angle,Temperature (Dry Bath)
10.0,4216281.0,-32.04866,70.7622
21.544346900318832,4480627.0,-11.0938,70.7688
46.41588833612777,5035477.0,-24.06701,70.7671
100.0,417835.0,21.715,70.7672
215.44346900318823,1531338.0,-49.60235,70.7793
464.15888336127773,1157474.0,-79.02331,70.7818
1000.0,397582.9,-49.77914,70.7686
2154.4346900318824,467372.0,-57.45565,70.7744
4641.588833612777,147138.0,-94.66923,70.7877
10000.0,57373.11,-88.64743,70.7827
