Frequency,Impedance,Phase Angle,Temperature (Dry Bath)
10.0,14763.72,-19.4621,71.121
21.544346900318832,12732.24,-16.68361,71.1275
46.41588833612777,11219.4,-14.53009,71.1265
100.0,10015.97,-12.7488,71.1198
215.44346900318823,9211.289,-11.01458,71.1176
464.15888336127773,8479.042,-10.67014,71.1276
1000.0,7658.631,-7.680823,71.1267
2154.4346900318824,7276.99,-9.225958,71.13
4641.588833612777,6804.547,-10.51007,71.1215
10000.0,6336.911,-12.89965,71.1203
