Frequency,Impedance,Phase Angle,Temperature (Dry Bath)
10.0,157784.9,-9.895958,71.3782
21.544346900318832,148325.5,-9.472516,71.3947
46.41588833612777,138016.9,-8.426983,71.3855
100.0,88435.67,-41.90738,71.3724
215.44346900318823,10412.72,15.54444,71.3788
464.15888336127773,119165.3,-12.46988,71.3799
1000.0,165409.8,-16.19385,71.378
2154.4346900318824,80847.36,-24.46793,71.3885
4641.588833612777,72030.04,-43.70799,71.3888
10000.0,42933.14,-63.64185,71.3868
