Frequency,Impedance,Phase Angle,Temperature (Dry Bath)
10.0,7447128.0,-9.828792,71.4379
21.544346900318832,4563679.0,-7.35042,71.4351
46.41588833612777,4974262.0,-41.5841,71.4399
100.0,1032761.0,-43.98555,71.4484
215.44346900318823,888933.9,147.4601,71.4373
464.15888336127773,965097.9,27.87756,71.4311
1000.0,264428.4,-134.7207,71.4374
2154.4346900318824,250706.8,-85.44395,71.449
4641.588833612777,141178.7,-81.90029,71.4349
10000.0,49546.41,-87.22182,71.4353
