Frequency,Impedance,Phase Angle,Temperature (Dry Bath)
10.0,4533320.0,-21.7741,71.4108
21.544346900318832,2987603.0,-36.65419,71.4042
46.41588833612777,2384161.0,-23.73255,71.4099
100.0,443875.7,-71.90063,71.4016
215.44346900318823,480630.5,26.99779,71.416
464.15888336127773,1572328.0,-7.960767,71.4122
1000.0,402094.1,-59.03382,71.407
2154.4346900318824,223843.8,-85.23353,71.414
4641.588833612777,124739.6,-86.0165,71.4022
10000.0,56189.06,-82.35176,71.3998
