Frequency,Impedance,Phase Angle,Temperature (Dry Bath)
10.0,44771.0,-13.64254,71.1232
21.544346900318832,40304.5,-12.44659,71.1098
46.41588833612777,36647.04,-11.46932,71.1185
100.0,31445.62,-5.716523,71.1162
215.44346900318823,32518.06,-10.61317,71.1148
464.15888336127773,26221.35,-9.505106,71.122
1000.0,25688.43,-9.609473,71.1129
2154.4346900318824,25137.23,-10.70338,71.1108
4641.588833612777,25275.6,-9.092087,71.1239
10000.0,20628.97,-13.74367,71.1146
