Frequency,Impedance,Phase Angle,Temperature (Dry Bath)
10.0,18219.98,-20.35701,70.9773
21.544346900318832,15643.57,-17.52787,71.0093
46.41588833612777,13678.79,-15.38125,71.0075
100.0,12205.29,-13.40779,70.978
215.44346900318823,10845.34,-12.26666,71.0057
464.15888336127773,10128.67,-10.57937,70.9705
1000.0,9266.945,-10.32211,70.9853
2154.4346900318824,8498.043,-9.912846,71.0077
4641.588833612777,7901.529,-9.812199,71.0097
10000.0,7549.245,-12.77854,70.9993
