Frequency,Impedance,Phase Angle,Temperature (Dry Bath)
10.0,1041900.0,-29.49585,71.1802
21.544346900318832,840396.9,-21.2646,71.1837
46.41588833612777,807296.2,-21.79376,71.1834
100.0,215968.3,-20.26663,71.1804
215.44346900318823,405714.3,7.721926,71.1907
464.15888336127773,403061.7,-45.97612,71.1862
1000.0,354327.8,-43.53489,71.1835
2154.4346900318824,261999.0,-53.38167,71.1828
4641.588833612777,137659.8,-70.1767,71.1849
10000.0,61784.04,-75.79065,71.1889
