Frequency,Impedance,Phase Angle,Temperature (Dry Bath)
10.0,6650398.0,16.71593,70.8836
21.544346900318832,4130941.0,-25.78446,70.8849
46.41588833612777,5979987.0,-23.35192,70.8908
100.0,1572935.0,-33.97092,70.8749
215.44346900318823,1019822.0,-56.62467,70.8893
464.15888336127773,571985.7,-141.9016,70.887
1000.0,241590.6,-42.00332,70.887
2154.4346900318824,355847.4,-88.59495,70.8926
4641.588833612777,215204.9,-105.5207,70.8793
10000.0,64239.67,-86.28317,70.8778
