Frequency,Impedance,Phase Angle,Temperature (Dry Bath)
10.0,574153.4,-1.280798,71.3956
21.544346900318832,536957.3,-2.954784,71.3966
46.41588833612777,566601.9,-4.010622,71.3973
100.0,827994.9,-15.02122,71.3893
215.44346900318823,339834.6,-44.72092,71.3921
464.15888336127773,269671.5,-4.390677,71.4045
1000.0,997814.8,-50.21605,71.4141
2154.4346900318824,323467.3,-133.4856,71.4038
4641.588833612777,220464.4,-64.80173,71.403
10000.0,91003.4,-79.35101,71.3989
