Frequency,Impedance,Phase Angle,Temperature (Dry Bath)
10.0,5504447.0,-15.12177,71.053
21.544346900318832,5426980.0,-31.63857,71.044
46.41588833612777,5409417.0,-18.33105,71.0585
100.0,1605926.0,-72.65502,71.0553
215.44346900318823,1027608.0,-119.4594,71.0614
464.15888336127773,5693473.0,-31.0224,71.0511
1000.0,1563378.0,-29.46629,71.0734
2154.4346900318824,274301.1,-86.10194,71.0486
4641.588833612777,168871.1,-83.78784,71.0578
10000.0,58191.67,-81.70043,71.043
