Frequency,Impedance,Phase Angle,Temperature (Dry Bath)
10.0,5222395.0,-0.9621186,71.5122
21.544346900318832,6009579.0,-11.66525,71.4934
46.41588833612777,5123290.0,-13.49663,71.5099
100.0,896371.7,72.52284,71.5049
215.44346900318823,2726808.0,21.87453,71.5134
464.15888336127773,600410.6,-103.7361,71.5098
1000.0,445264.3,-79.4986,71.5006
2154.4346900318824,509810.9,-75.50181,71.5028
4641.588833612777,223217.8,-90.27976,71.5049
10000.0,112318.3,-86.63772,71.5133
