Frequency,Impedance,Phase Angle,Temperature (Dry Bath)
10.0,4364352.0,14.71765,71.1996
21.544346900318832,5062512.0,-6.418744,71.1719
46.41588833612777,4804086.0,-26.51401,71.1845
100.0,533634.2,61.27885,71.1713
215.44346900318823,934293.5,-51.91155,71.1702
464.15888336127773,389323.4,-104.0229,71.1885
1000.0,711510.6,-85.84708,71.1607
2154.4346900318824,329507.4,-85.37846,71.1773
4641.588833612777,128372.3,-89.86132,71.1832
10000.0,57853.16,-91.3089,71.1862
