Frequency,Impedance,Phase Angle,Temperature (Dry Bath)
10.0,72960.0,-11.46564,71.1899
21.544346900318832,66268.56,-9.455498,71.1804
46.41588833612777,62064.33,-8.06412,71.1787
100.0,53598.12,-8.648894,71.1862
215.44346900318823,50928.81,5.165068,71.1798
464.15888336127773,51101.91,-9.464204,71.1853
1000.0,47486.47,-9.552529,71.1735
2154.4346900318824,46977.47,-11.43455,71.1829
4641.588833612777,40846.47,-19.44763,71.1886
10000.0,46671.72,-18.94794,71.1765
