Frequency,Impedance,Phase Angle,Temperature (Dry Bath)
10.0,8502818.0,31.05016,71.3693
21.544346900318832,5063919.0,0.6656379,71.3631
46.41588833612777,5233858.0,-34.75382,71.3665
100.0,3708879.0,19.78766,71.3529
215.44346900318823,2107985.0,-137.4333,71.3572
464.15888336127773,1097741.0,0.6712105,71.3542
1000.0,1545142.0,-54.68811,71.381
2154.4346900318824,502891.3,-74.16837,71.3779
4641.588833612777,241725.7,-83.52842,71.3553
10000.0,139775.7,-87.9928,71.3746
