Frequency,Impedance,Phase Angle,Temperature (Dry Bath)
10.0,2324326.0,5.816295,70.8066
21.544346900318832,2860414.0,-9.886228,70.8106
46.41588833612777,3824288.0,-10.57136,70.8065
100.0,371261.4,10.79243,70.8053
215.44346900318823,1177291.0,161.8294,70.8252
464.15888336127773,575142.1,-131.962,70.8208
1000.0,288503.7,-69.80806,70.8111
2154.4346900318824,274282.7,-101.2158,70.8236
4641.588833612777,110139.1,-87.59417,70.8359
10000.0,59512.84,-79.84363,70.8166
