Frequency,Impedance,Phase Angle,Temperature (Dry Bath)
10.0,4930100.0,-1.609046,71.0564
21.544346900318832,5082637.0,-29.07933,71.0762
46.41588833612777,5264211.0,-16.23804,71.0769
100.0,905234.5,-59.41851,71.0683
215.44346900318823,1146513.0,65.36291,71.0584
464.15888336127773,486693.2,-79.84259,71.0514
1000.0,903615.7,45.91854,71.0678
2154.4346900318824,303377.1,-104.8944,71.0525
4641.588833612777,132278.5,-75.54239,71.0738
10000.0,66901.6,-91.14927,71.0669
