Frequency,Impedance,Phase Angle,Temperature (Dry Bath)
10.0,6657176.0,9.588734,71.554
21.544346900318832,4537970.0,-9.567843,71.5568
46.41588833612777,4370634.0,-17.35134,71.5304
100.0,570602.4,-23.79362,71.5584
215.44346900318823,574531.1,-85.36984,71.5489
464.15888336127773,2893423.0,74.32125,71.5458
1000.0,1377714.0,-118.0746,71.5499
2154.4346900318824,666359.2,-62.86654,71.5572
4641.588833612777,317262.2,-90.53126,71.5581
10000.0,146142.0,-85.12648,71.5481
