Frequency,Impedance,Phase Angle,Temperature (Dry Bath)
10.0,5960201.0,-22.41218,71.2958
21.544346900318832,5889725.0,31.84055,71.293
46.41588833612777,5327768.0,-29.03582,71.289
100.0,1466033.0,-63.71751,71.2853
215.44346900318823,936072.8,-87.1497,71.2922
464.15888336127773,434584.5,-53.23915,71.2754
1000.0,252338.2,-116.5751,71.2912
2154.4346900318824,283631.3,-93.91838,71.2773
4641.588833612777,114151.6,-89.8312,71.2858
10000.0,58041.21,-86.58358,71.2873
