Frequency,Impedance,Phase Angle,Temperature (Dry Bath)
10.0,3532056.0,1.136279,71.1948
21.544346900318832,4452040.0,-26.16304,71.1953
46.41588833612777,3333235.0,-14.23836,71.202
100.0,1114556.0,-51.61102,71.1873
215.44346900318823,447851.7,53.68854,71.1889
464.15888336127773,1343903.0,115.0704,71.1908
1000.0,1142848.0,-86.66209,71.2093
2154.4346900318824,213929.0,-55.04951,71.1887
4641.588833612777,104613.1,-80.22135,71.1778
10000.0,66501.38,-83.49567,71.1831
