Frequency,Impedance,Phase Angle,Temperature (Dry Bath)
10.0,10167.26,-25.31176,71.299
21.544346900318832,8118.086,-26.14673,71.3082
46.41588833612777,6438.846,-26.05603,71.308
100.0,5172.897,-24.61692,71.2982
215.44346900318823,4126.509,-23.20133,71.312
464.15888336127773,3453.875,-20.82874,71.3229
1000.0,2912.259,-17.87895,71.3088
2154.4346900318824,2533.483,-15.45841,71.3236
4641.588833612777,2248.661,-13.51082,71.3061
10000.0,2032.485,-12.14683,71.305
