Frequency,Impedance,Phase Angle,Temperature (Dry Bath)
10.0,4806838.0,-5.595282,71.3266
21.544346900318832,3767214.0,7.571749,71.3148
46.41588833612777,3815127.0,-95.0397,71.3124
100.0,569478.7,-117.1204,71.3142
215.44346900318823,41773.15,-61.19461,71.3106
464.15888336127773,1100184.0,-88.28354,71.3166
1000.0,739509.8,-52.4598,71.3238
2154.4346900318824,423410.3,-83.54717,71.3225
4641.588833612777,122415.7,-89.09835,71.3177
10000.0,65928.01,-88.60444,71.3076
