Frequency,Impedance,Phase Angle,Temperature (Dry Bath)
10.0,6662192.0,-26.6518,71.5052
21.544346900318832,4851509.0,2.740366,71.4993
46.41588833612777,4415518.0,-6.699962,71.4985
100.0,309892.5,11.387,71.5077
215.44346900318823,619772.0,-27.59064,71.4952
464.15888336127773,870576.4,-108.1812,71.5023
1000.0,456927.6,-162.5652,71.5038
2154.4346900318824,443121.3,-63.79866,71.4987
4641.588833612777,375023.5,-87.68116,71.4862
10000.0,141548.1,-86.25892,71.4899
