Frequency,Impedance,Phase Angle,Temperature (Dry Bath)
10.0,68685.93,-15.73166,71.4876
21.544346900318832,60464.88,-14.98961,71.4486
46.41588833612777,54059.71,-13.72904,71.4523
100.0,50571.51,-13.40285,71.4666
215.44346900318823,45506.17,-13.53217,71.4773
464.15888336127773,44361.19,-13.18596,71.4643
1000.0,40495.01,-7.614452,71.471
2154.4346900318824,36209.0,-14.78612,71.4697
4641.588833612777,31024.42,-18.48167,71.4802
10000.0,25037.91,-30.32384,71.4634
