Frequency,Impedance,Phase Angle,Temperature (Dry Bath)
10.0,14833.05,-19.56238,71.0428
21.544346900318832,12780.75,-16.71383,71.0706
46.41588833612777,11283.84,-14.55427,71.0543
100.0,10341.63,-12.69293,71.0606
215.44346900318823,9325.689,-10.46401,71.0611
464.15888336127773,8437.658,-9.553968,71.045
1000.0,7884.454,-8.779839,71.0524
2154.4346900318824,7296.218,-9.057562,71.0657
4641.588833612777,6822.962,-11.17896,71.0582
10000.0,6392.788,-13.47112,71.0517
