Frequency,Impedance,Phase Angle,Temperature (Dry Bath)
10.0,5363729.0,16.62511,71.1628
21.544346900318832,5196458.0,12.05482,71.165
46.41588833612777,7569002.0,-12.76581,71.1667
100.0,2138695.0,-50.82869,71.1623
215.44346900318823,536272.5,-22.99425,71.1695
464.15888336127773,2893074.0,-53.33593,71.166
1000.0,557042.7,83.88828,71.1762
2154.4346900318824,1434478.0,-88.50589,71.1687
4641.588833612777,494712.5,-138.5333,71.1758
10000.0,391169.6,-66.32995,71.17
