Frequency,Impedance,Phase Angle,Temperature (Dry Bath)
10.0,5539239.0,-3.127567,71.357
21.544346900318832,5335625.0,-18.98993,71.3407
46.41588833612777,6204749.0,-6.434043,71.3496
100.0,1212136.0,-66.4671,71.3519
215.44346900318823,932725.4,155.4848,71.3502
464.15888336127773,2053999.0,-16.14152,71.3495
1000.0,570409.1,-94.87077,71.3493
2154.4346900318824,413343.2,-96.41972,71.3562
4641.588833612777,205172.6,-87.46059,71.3516
10000.0,142608.3,-89.59674,71.3404
