Frequency,Impedance,Phase Angle,Temperature (Dry Bath)
10.0,5197627.0,5.492255,71.4406
21.544346900318832,4464664.0,-17.80529,71.4415
46.41588833612777,4757399.0,-39.01135,71.4309
100.0,119226.7,2.535943,71.4245
215.44346900318823,821455.5,-62.19339,71.4383
464.15888336127773,653869.7,-143.0293,71.4307
1000.0,481512.9,-51.23156,71.4272
2154.4346900318824,216997.7,-104.8305,71.4364
4641.588833612777,121249.8,-94.72472,71.425
10000.0,73190.94,-81.3895,71.4405
