Frequency,Impedance,Phase Angle,Temperature (Dry Bath)
10.0,21987.85,-21.72536,71.343
21.544346900318832,18215.34,-23.03104,71.3275
46.41588833612777,14770.98,-24.42832,71.3116
100.0,12075.37,-25.66462,71.328
215.44346900318823,9703.947,-23.31856,71.3163
464.15888336127773,7632.195,-25.24074,71.3257
1000.0,6167.422,-23.53188,71.317
2154.4346900318824,4976.516,-22.8921,71.3101
4641.588833612777,4138.266,-20.66082,71.326
10000.0,3515.232,-18.57152,71.328
