Frequency,Impedance,Phase Angle,Temperature (Dry Bath)
10.0,62806.5,-10.73569,28.5228
21.544346900318832,58494.43,-8.648596,28.436
46.41588833612777,55049.0,-7.341553,28.4735
100.0,50655.09,-4.519094,28.5394
215.44346900318823,49465.22,-5.226385,28.4129
464.15888336127773,48544.45,-6.15583,28.6033
1000.0,44176.68,-2.458463,28.0175
2154.4346900318824,44942.29,-7.393494,27.8911
4641.588833612777,40814.13,-16.39653,28.0167
10000.0,37045.08,-31.15122,28.0582
