Frequency,Impedance,Phase Angle,Temperature (Dry Bath)
10.0,4719404.0,-13.92753,70.7651
21.544346900318832,4632161.0,-9.879106,70.7633
46.41588833612777,3865594.0,-21.83555,70.7734
100.0,545689.8,25.03389,70.7713
215.44346900318823,590187.1,-146.1382,70.7654
464.15888336127773,3281229.0,-29.75313,70.7662
1000.0,570262.3,98.23878,70.7704
2154.4346900318824,177159.3,-102.1808,70.7697
4641.588833612777,93266.09,-67.8477,70.7576
10000.0,73089.63,-85.71928,70.7514
