Frequency,Impedance,Phase Angle,Temperature (Dry Bath)
10.0,5845524.0,4.628168,72.2227
21.544346900318832,11685400.0,27.99276,72.2282
46.41588833612777,3879071.0,-23.35276,72.2123
100.0,691753.5,-95.75443,72.2283
215.44346900318823,480409.1,61.27468,72.2268
464.15888336127773,772866.8,-129.2454,72.2378
1000.0,530287.4,-26.59637,72.2148
2154.4346900318824,401125.6,39.43841,72.225
4641.588833612777,418512.3,-79.77393,72.2363
10000.0,147419.1,-96.96622,72.2312
