Frequency,Impedance,Phase Angle,Temperature (Dry Bath)
10.0,84162.96,-11.51447,72.2643
21.544346900318832,76088.71,-10.16651,72.2468
46.41588833612777,71214.23,-8.894446,72.2387
100.0,68593.28,0.04786645,72.2402
215.44346900318823,56581.55,3.127692,72.2577
464.15888336127773,72580.96,-5.646706,72.2546
1000.0,58503.41,-2.985584,72.2534
2154.4346900318824,57960.83,-2.846991,72.2641
4641.588833612777,50595.87,-11.63039,72.2509
10000.0,54324.32,-33.90024,72.2655
