Frequency,Impedance,Phase Angle,Temperature (Dry Bath)
10.0,145034.5,-18.15699,71.3013
21.544346900318832,123502.1,-17.28578,71.3136
46.41588833612777,110047.3,-15.51553,71.3023
100.0,101305.8,-5.229381,71.3152
215.44346900318823,86369.57,-12.83236,71.306
464.15888336127773,74718.04,-13.04238,71.316
1000.0,64137.85,-17.13419,71.3087
2154.4346900318824,58444.1,-26.78693,71.3078
4641.588833612777,42022.03,-37.91409,71.3072
10000.0,29735.39,-47.67412,71.3079
