Frequency,Impedance,Phase Angle,Temperature (Dry Bath)
10.0,3323513.0,-15.53062,70.9707
21.544346900318832,5977548.0,-8.483454,70.9559
46.41588833612777,4293258.0,-28.60638,70.9943
100.0,375832.2,128.4107,70.9859
215.44346900318823,668755.6,-63.47257,70.975
464.15888336127773,667334.7,-70.2527,70.9684
1000.0,871372.2,166.155,70.9673
2154.4346900318824,497935.2,-46.31954,70.971
4641.588833612777,157715.5,-91.76908,70.9676
10000.0,67975.06,-87.94367,70.9823
