Frequency,Impedance,Phase Angle,Temperature (Dry Bath)
10.0,14538.61,-19.59613,71.1422
21.544346900318832,12535.87,-16.71987,71.1523
46.41588833612777,11056.71,-14.5548,71.1432
100.0,10134.0,-11.42553,71.1564
215.44346900318823,9078.604,-11.79698,71.1494
464.15888336127773,8291.944,-9.783395,71.1237
1000.0,7580.373,-10.18812,71.1589
2154.4346900318824,7193.102,-9.982413,71.1644
4641.588833612777,6629.857,-10.87511,71.1461
10000.0,6195.888,-12.89177,71.1383
