Frequency,Impedance,Phase Angle,Temperature (Dry Bath)
10.0,4810709.0,-3.703693,70.973
21.544346900318832,6267353.0,-5.354264,70.9871
46.41588833612777,4335096.0,-7.603016,70.9735
100.0,291476.4,-56.0152,70.9839
215.44346900318823,1497586.0,165.0204,70.9779
464.15888336127773,885941.0,-0.6764351,70.9768
1000.0,1645376.0,-33.05062,70.9731
2154.4346900318824,246794.6,-91.03916,70.9836
4641.588833612777,166663.3,-72.33665,70.9808
10000.0,65416.66,-90.98874,70.9778
