Frequency,Impedance,Phase Angle,Temperature (Dry Bath)
10.0,12992.46,-23.72667,71.5473
21.544346900318832,10605.64,-24.07037,71.5484
46.41588833612777,8605.866,-23.72973,71.5452
100.0,7074.428,-21.66753,71.5425
215.44346900318823,5934.621,-19.62921,71.5492
464.15888336127773,5036.312,-17.43738,71.5413
1000.0,4399.372,-16.15433,71.515
2154.4346900318824,3871.23,-14.57887,71.5204
4641.588833612777,3465.548,-13.60733,71.5337
10000.0,3091.75,-12.66966,71.5397
