Frequency,Impedance,Phase Angle,Temperature (Dry Bath)
10.0,4554598.0,21.20695,71.4389
21.544346900318832,4802378.0,31.22489,71.4571
46.41588833612777,4115616.0,-10.72407,71.443
100.0,2739773.0,-15.00799,71.4497
215.44346900318823,872602.7,-100.0728,71.4591
464.15888336127773,848053.6,-18.2128,71.4572
1000.0,2081897.0,4.628615,71.4468
2154.4346900318824,338358.4,-96.96187,71.4497
4641.588833612777,262043.9,-80.40775,71.4511
10000.0,128757.7,-80.92832,71.4449
