Frequency,Impedance,Phase Angle,Temperature (Dry Bath)
10.0,6776042.0,-0.5122689,70.4544
21.544346900318832,5352381.0,1.886259,70.4519
46.41588833612777,3953282.0,-31.02586,70.4643
100.0,256210.0,-49.75668,70.4461
215.44346900318823,557024.1,-19.74413,70.4393
464.15888336127773,732937.0,-121.287,70.4766
1000.0,1915364.0,-85.67911,70.4697
2154.4346900318824,251345.9,-132.8163,70.4741
4641.588833612777,118816.4,-91.16948,70.471
10000.0,67989.65,-91.48699,70.4555
