Frequency,Impedance,Phase Angle,Temperature (Dry Bath)
10.0,132119.7,-13.56497,71.0739
21.544346900318832,120663.6,-13.00751,71.0699
46.41588833612777,108582.4,-12.08316,71.0848
100.0,100394.5,-7.705238,71.0799
215.44346900318823,92901.46,-12.91202,71.0862
464.15888336127773,76161.04,-11.86015,71.0741
1000.0,73378.6,-12.02845,71.0674
2154.4346900318824,68475.87,-24.9445,71.0993
4641.588833612777,57650.96,-34.33454,71.0863
10000.0,48109.26,-44.18165,71.08
