Frequency,Impedance,Phase Angle,Temperature (Dry Bath)
10.0,4415929.0,4.663998,71.3574
21.544346900318832,8072455.0,63.44693,71.3421
46.41588833612777,5918041.0,-21.50993,71.3353
100.0,521036.4,27.33724,71.3459
215.44346900318823,605016.6,-22.42634,71.3421
464.15888336127773,196008.1,-120.2152,71.3362
1000.0,719680.1,-38.88584,71.3383
2154.4346900318824,411849.4,-90.85014,71.3339
4641.588833612777,112847.9,-87.81625,71.3421
10000.0,65207.21,-85.8529,71.3344
