Frequency,Impedance,Phase Angle,Temperature (Dry Bath)
10.0,5794356.0,0.6789442,70.6268
21.544346900318832,3849875.0,-4.862615,70.6392
46.41588833612777,3572165.0,-16.94512,70.6506
100.0,599680.2,-15.3349,70.6271
215.44346900318823,756895.4,-139.2276,70.6255
464.15888336127773,566371.0,-108.4922,70.6493
1000.0,390229.3,170.6874,70.6483
2154.4346900318824,335053.4,-110.5777,70.6485
4641.588833612777,112789.4,-90.69341,70.6536
10000.0,54758.26,-93.724,70.6463
