Frequency,Impedance,Phase Angle,Temperature (Dry Bath)
10.0,25417.28,-21.67379,71.0119
21.544346900318832,21057.47,-23.10457,71.013
46.41588833612777,17141.8,-24.38595,71.0184
100.0,13812.68,-25.8516,71.0171
215.44346900318823,11098.24,-26.77715,71.0234
464.15888336127773,8885.691,-26.02293,71.0177
1000.0,7055.731,-25.16013,71.0376
2154.4346900318824,5566.907,-25.16596,71.0158
4641.588833612777,4548.492,-21.80216,71.0066
10000.0,3775.947,-21.17425,71.0203
