Frequency,Impedance,Phase Angle,Temperature (Dry Bath)
10.0,5981856.0,-17.142,70.9719
21.544346900318832,5012209.0,-45.30431,70.9719
46.41588833612777,5190224.0,-23.70493,70.9707
100.0,563679.9,44.67641,70.976
215.44346900318823,1565655.0,175.5699,70.9646
464.15888336127773,3197279.0,49.55972,70.9539
1000.0,266361.4,-54.77706,70.9568
2154.4346900318824,256661.5,-79.25612,70.9676
4641.588833612777,93658.25,-79.07737,70.9638
10000.0,61961.45,-91.66651,70.9361
