Frequency,Impedance,Phase Angle,Temperature (Dry Bath)
10.0,52809.29,-14.82182,70.902
21.544346900318832,47002.42,-13.43984,70.9121
46.41588833612777,42646.99,-12.40365,70.9084
100.0,37133.36,-8.684689,70.9007
215.44346900318823,35336.04,-14.29595,70.9029
464.15888336127773,31657.22,-10.0235,70.9199
1000.0,29513.76,-17.18687,70.9136
2154.4346900318824,27446.44,-17.0325,70.9159
4641.588833612777,24628.41,-22.707,70.9256
10000.0,20206.41,-30.73185,70.9162
