Frequency,Impedance,Phase Angle,Temperature (Dry Bath)
10.0,5825596.0,-5.895866,70.9749
21.544346900318832,3737924.0,-6.861699,70.9728
46.41588833612777,8301161.0,-5.66642,70.9981
100.0,263835.7,-114.6483,70.9635
215.44346900318823,313599.9,-65.36854,70.9825
464.15888336127773,338982.7,-23.41438,70.9757
1000.0,428003.4,3.20404,70.9706
2154.4346900318824,246762.7,-177.9721,70.9728
4641.588833612777,272901.9,-114.8376,70.9693
10000.0,156611.7,-64.1055,70.9751
