Frequency,Impedance,Phase Angle,Temperature (Dry Bath)
10.0,12532.53,-26.98003,71.1683
21.544346900318832,10098.19,-24.28736,71.1996
46.41588833612777,8319.464,-21.42361,71.1922
100.0,6996.873,-18.21988,71.1825
215.44346900318823,6181.487,-15.26291,71.1723
464.15888336127773,5434.648,-14.15702,71.1982
1000.0,4853.115,-13.30125,71.1838
2154.4346900318824,4407.345,-12.11615,71.194
4641.588833612777,3998.105,-11.32141,71.1851
10000.0,3693.663,-12.40597,71.1865
