Frequency,Impedance,Phase Angle,Temperature (Dry Bath)
10.0,4614131.0,-4.608643,71.0563
21.544346900318832,4371124.0,-17.31067,71.054
46.41588833612777,4595050.0,-42.99794,71.0648
100.0,399034.9,76.17607,71.0581
215.44346900318823,734783.9,-90.14075,71.0832
464.15888336127773,1141920.0,-82.33302,71.0869
1000.0,643597.8,-75.12413,71.072
2154.4346900318824,274106.3,-89.32039,71.072
4641.588833612777,145350.7,-84.87567,71.0639
10000.0,79419.72,-83.622,71.0813
