Frequency,Impedance,Phase Angle,Temperature (Dry Bath)
10.0,8722452.0,20.34131,70.689
21.544346900318832,3988175.0,-19.51279,70.7003
46.41588833612777,3752196.0,-18.11871,70.6923
100.0,587810.4,-149.9907,70.689
215.44346900318823,923430.7,-27.06639,70.6891
464.15888336127773,798300.7,-137.9297,70.6934
1000.0,308491.1,-80.67592,70.7043
2154.4346900318824,302292.3,-113.293,70.6901
4641.588833612777,95252.92,-86.03674,70.7061
10000.0,57548.4,-83.47757,70.7003
