Frequency,Impedance,Phase Angle,Temperature (Dry Bath)
10.0,262993.7,-24.08286,71.2833
21.544346900318832,219483.8,-22.3862,71.2741
46.41588833612777,182869.2,-20.19282,71.2916
100.0,152852.0,-9.676125,71.2745
215.44346900318823,156773.4,-24.11838,71.2641
464.15888336127773,120559.8,-17.70181,71.2734
1000.0,119618.5,-22.82428,71.2832
2154.4346900318824,92399.01,-36.52409,71.2878
4641.588833612777,73750.35,-41.74345,71.267
10000.0,43218.65,-58.17958,71.2895
