Frequency,Impedance,Phase Angle,Temperature (Dry Bath)
10.0,12745.99,-23.25575,71.063
21.544346900318832,10706.31,-19.71397,71.0572
46.41588833612777,9252.646,-16.70035,71.0637
100.0,8234.236,-12.868,71.0655
215.44346900318823,7342.248,-12.14254,71.0536
464.15888336127773,6754.662,-11.08935,71.0525
1000.0,6199.642,-10.06897,71.0523
2154.4346900318824,5763.66,-9.241167,71.0423
4641.588833612777,5402.549,-9.529989,71.0536
10000.0,5119.524,-10.92369,71.0597
