Frequency,Impedance,Phase Angle,Temperature (Dry Bath)
10.0,5688749.0,-17.45879,70.7547
21.544346900318832,6045482.0,-22.12557,70.7449
46.41588833612777,7548783.0,1.522666,70.7838
100.0,757146.4,-21.06057,70.7638
215.44346900318823,1014046.0,5.892513,70.7818
464.15888336127773,741497.4,-37.93958,70.732
1000.0,457216.2,-66.62342,70.7654
2154.4346900318824,238767.1,-78.57412,70.7618
4641.588833612777,135421.0,-81.88347,70.7479
10000.0,66430.92,-88.92076,70.7432
