Frequency,Impedance,Phase Angle,Temperature (Dry Bath)
10.0,4403572.0,-22.78542,70.2383
21.544346900318832,5444036.0,-5.758151,70.2355
46.41588833612777,3879974.0,-39.88616,70.2349
100.0,840733.3,-5.181778,70.2176
215.44346900318823,379284.4,-76.85939,70.2335
464.15888336127773,1320698.0,6.452243,70.2414
1000.0,328407.2,-96.11502,70.2379
2154.4346900318824,307603.7,-86.54624,70.2208
4641.588833612777,112925.6,-87.60963,70.2184
10000.0,59691.19,-88.24867,70.2285
