Frequency,Impedance,Phase Angle,Temperature (Dry Bath)
10.0,2220872.0,-18.20378,71.0901
21.544346900318832,2282228.0,-17.02345,71.086
46.41588833612777,2702757.0,-18.39457,71.1104
100.0,523571.8,-38.90927,71.1056
215.44346900318823,334076.5,-14.07797,71.0949
464.15888336127773,247199.6,-83.64504,71.0978
1000.0,125163.0,-3.964941,71.114
2154.4346900318824,166379.0,-92.58137,71.0993
4641.588833612777,665501.7,-17.39344,71.1107
10000.0,90747.31,-66.76448,71.099
