Frequency,Impedance,Phase Angle,Temperature (Dry Bath)
10.0,3309189.0,-3.273054,71.1849
21.544346900318832,3314471.0,11.49167,71.197
46.41588833612777,7511288.0,-19.72598,71.1854
100.0,509475.7,59.74828,71.1917
215.44346900318823,601458.4,14.91734,71.1881
464.15888336127773,663703.7,-33.85109,71.1995
1000.0,400264.6,-48.42175,71.1802
2154.4346900318824,244433.9,-82.6039,71.1976
4641.588833612777,123867.7,-84.23872,71.1912
10000.0,65236.38,-87.9579,71.21
