Frequency,Impedance,Phase Angle,Temperature (Dry Bath)
10.0,6424608.0,-2.165744,71.1857
21.544346900318832,5741516.0,14.63375,71.1812
46.41588833612777,4812997.0,-25.67639,71.1897
100.0,567427.5,31.71163,71.1744
215.44346900318823,1422599.0,81.68235,71.1762
464.15888336127773,743214.4,-62.78461,71.1841
1000.0,654301.4,-91.04483,71.1876
2154.4346900318824,374217.2,-108.5426,71.1728
4641.588833612777,100161.1,-77.87392,71.1836
10000.0,71026.56,-94.69589,71.1978
