Frequency,Impedance,Phase Angle,Temperature (Dry Bath)
10.0,8582308.0,-7.149771,70.9709
21.544346900318832,4578649.0,-14.94202,70.9747
46.41588833612777,3765064.0,-22.34666,70.986
100.0,1301135.0,55.68669,70.986
215.44346900318823,1162136.0,-11.07733,70.9677
464.15888336127773,250021.6,-84.57543,70.9928
1000.0,718910.0,-37.71174,70.9934
2154.4346900318824,294156.2,-61.29542,70.9758
4641.588833612777,129877.7,-80.32611,70.981
10000.0,60678.62,-86.21337,70.9745
