Frequency,Impedance,Phase Angle,Temperature (Dry Bath)
10.0,673823.0,-30.64274,71.4027
21.544346900318832,516203.0,-30.05246,71.4134
46.41588833612777,437258.6,-25.97636,71.4144
100.0,180233.7,-9.116984,71.4234
215.44346900318823,315218.3,14.03432,71.3996
464.15888336127773,272741.6,-24.90807,71.4064
1000.0,164376.8,-25.12058,71.3888
2154.4346900318824,157146.7,-43.76349,71.393
4641.588833612777,91331.56,-63.76843,71.3977
10000.0,57581.75,-68.5557,71.391
