Frequency,Impedance,Phase Angle,Temperature (Dry Bath)
10.0,6476442.0,-7.62374,71.0661
21.544346900318832,4179415.0,-11.31557,71.0582
46.41588833612777,8273116.0,-21.45524,71.0545
100.0,722530.2,84.56346,71.0578
215.44346900318823,664555.5,-105.6653,71.0688
464.15888336127773,1602063.0,-90.7803,71.0579
1000.0,388141.1,-21.67786,71.0508
2154.4346900318824,289631.3,-98.52824,71.0547
4641.588833612777,132460.6,-80.4162,71.0609
10000.0,58981.78,-87.33928,71.0469
