Frequency,Impedance,Phase Angle,Temperature (Dry Bath)
10.0,3467252.0,-16.0516,71.1608
21.544346900318832,3600623.0,-28.5391,71.1647
46.41588833612777,2403108.0,-28.57403,71.156
100.0,725867.7,-78.01496,71.1497
215.44346900318823,916873.9,-70.97921,71.1478
464.15888336127773,1699243.0,-60.76115,71.1584
1000.0,461212.2,-83.02553,71.1694
2154.4346900318824,359882.9,-70.81543,71.1581
4641.588833612777,122258.0,-73.61921,71.1699
10000.0,59884.01,-82.06759,71.1558
