Frequency,Impedance,Phase Angle,Temperature (Dry Bath)
10.0,3506807.0,-10.79179,70.9715
21.544346900318832,7647613.0,-2.133386,70.9789
46.41588833612777,4702239.0,-24.37287,70.9686
100.0,717594.0,-108.3374,70.9822
215.44346900318823,2353499.0,-59.44193,70.9794
464.15888336127773,1110681.0,-37.88193,70.984
1000.0,480025.9,-48.57185,70.9914
2154.4346900318824,363042.8,-83.83183,70.9875
4641.588833612777,169594.5,-95.68039,70.9797
10000.0,67172.22,-91.3873,70.9864
