Frequency,Impedance,Phase Angle,Temperature (Dry Bath)
10.0,7400.646,-25.64872,70.877
21.544346900318832,6048.799,-22.47337,70.8973
46.41588833612777,5089.633,-19.54857,70.8763
100.0,4366.7,-16.42852,70.8865
215.44346900318823,3869.841,-14.11876,70.8897
464.15888336127773,3471.327,-12.22871,70.8739
1000.0,3178.26,-10.21335,70.8903
2154.4346900318824,2921.041,-9.100662,70.8883
4641.588833612777,2757.817,-8.877195,70.8836
10000.0,2568.658,-9.093893,70.8915
