Frequency,Impedance,Phase Angle,Temperature (Dry Bath)
10.0,12703.46,-28.01508,70.9603
21.544346900318832,10132.65,-25.03434,70.9583
46.41588833612777,8301.125,-22.08403,70.9706
100.0,6996.687,-20.09611,70.9795
215.44346900318823,6050.631,-16.17985,70.9762
464.15888336127773,5375.202,-13.97927,70.961
1000.0,4792.141,-12.32674,70.9665
2154.4346900318824,4395.074,-11.5773,70.954
4641.588833612777,4062.286,-12.01605,70.9819
10000.0,3695.134,-12.16561,70.9538
