Frequency,Impedance,Phase Angle,Temperature (Dry Bath)
10.0,5395439.0,38.92333,71.1021
21.544346900318832,6342871.0,5.05678,71.1168
46.41588833612777,4529583.0,1.501164,71.0977
100.0,569599.3,-70.95408,71.1034
215.44346900318823,410967.2,-38.81491,71.1016
464.15888336127773,1176738.0,-68.19302,71.1068
1000.0,207246.3,-109.2844,71.0911
2154.4346900318824,1785713.0,-49.33368,71.1069
4641.588833612777,200564.3,-53.68186,71.1037
10000.0,111047.3,-81.00145,71.0833
