Frequency,Impedance,Phase Angle,Temperature (Dry Bath)
10.0,842602.2,-10.70341,71.3136
21.544346900318832,764486.9,-6.056718,71.3306
46.41588833612777,732825.3,-3.044841,71.3371
100.0,480259.4,-3.099303,71.3194
215.44346900318823,468867.3,7.864479,71.3162
464.15888336127773,345583.3,-20.15486,71.3255
1000.0,239238.5,-44.88909,71.3277
2154.4346900318824,616283.8,-170.6666,71.3181
4641.588833612777,460981.8,-32.31602,71.323
10000.0,147934.1,-81.11529,71.325
