Frequency,Impedance,Phase Angle,Temperature (Dry Bath)
10.0,14619.2,-19.57011,71.1527
21.544346900318832,12598.43,-16.76281,71.1464
46.41588833612777,11103.37,-14.62622,71.1524
100.0,10111.35,-14.14212,71.1499
215.44346900318823,9152.898,-10.96364,71.152
464.15888336127773,8455.636,-10.89281,71.1569
1000.0,7807.14,-9.685922,71.1651
2154.4346900318824,7128.15,-9.580059,71.1413
4641.588833612777,6643.377,-9.625559,71.1313
10000.0,6288.876,-12.8061,71.1528
