Frequency,Impedance,Phase Angle,Temperature (Dry Bath)
10.0,6120297.0,-5.723443,71.4679
21.544346900318832,7150673.0,-18.58872,71.4592
46.41588833612777,4782794.0,-8.586034,71.4312
100.0,627654.8,-71.59306,71.4399
215.44346900318823,2378643.0,-148.5633,71.4539
464.15888336127773,1336793.0,-174.6497,71.4353
1000.0,4989326.0,127.9378,71.4201
2154.4346900318824,188241.5,-83.92932,71.4309
4641.588833612777,86917.03,-100.0679,71.4338
10000.0,51216.9,-84.60467,71.4257
