Frequency,Impedance,Phase Angle,Temperature (Dry Bath)
10.0,7630838.0,-23.31397,70.9151
21.544346900318832,4757220.0,-7.803933,70.9268
46.41588833612777,5860766.0,-15.32277,70.9133
100.0,333465.5,-38.58193,70.9291
215.44346900318823,651424.2,-69.74581,70.9178
464.15888336127773,302968.5,-69.24699,70.9316
1000.0,323604.8,-60.13448,70.9305
2154.4346900318824,283085.4,-121.2894,70.9181
4641.588833612777,180765.0,-88.04255,70.9417
10000.0,67265.74,-85.42001,70.9221
