Frequency,Impedance,Phase Angle,Temperature (Dry Bath)
10.0,4905511.0,-25.04638,71.0549
21.544346900318832,3200191.0,-23.4456,71.061
46.41588833612777,2513223.0,-27.47778,71.0646
100.0,1997517.0,-127.9816,71.074
215.44346900318823,2060301.0,-109.2549,71.0754
464.15888336127773,622725.2,-100.224,71.0523
1000.0,546223.0,-80.63131,71.0837
2154.4346900318824,243540.3,-76.59542,71.0664
4641.588833612777,131740.4,-86.91127,71.0635
10000.0,68699.51,-89.4568,71.0729
