Frequency,Impedance,Phase Angle,Temperature (Dry Bath)
10.0,4921576.0,21.2095,72.2071
21.544346900318832,4583526.0,-14.47879,72.2112
46.41588833612777,4466980.0,-12.65472,72.2194
100.0,4301103.0,130.7869,72.2289
215.44346900318823,931361.0,-66.78605,72.2259
464.15888336127773,667665.4,112.6731,72.2124
1000.0,636395.6,-174.07,72.2082
2154.4346900318824,348796.6,-2.004206,72.2088
4641.588833612777,152640.0,-98.27329,72.2069
10000.0,170936.2,-99.1429,72.2084
