Frequency,Impedance,Phase Angle,Temperature (Dry Bath)
10.0,4761864.0,19.59467,71.0131
21.544346900318832,4617237.0,-18.02141,71.0199
46.41588833612777,4265739.0,-15.03644,71.0213
100.0,285839.2,152.255,71.0159
215.44346900318823,564302.6,-59.13577,71.0135
464.15888336127773,1093766.0,-96.03397,71.0138
1000.0,731049.9,-112.609,71.0232
2154.4346900318824,207454.0,-83.25855,71.0354
4641.588833612777,212502.7,-93.94758,71.0054
10000.0,59862.5,-86.12713,71.0076
