Frequency,Impedance,Phase Angle,Temperature (Dry Bath)
10.0,15394.51,-12.39343,71.3435
21.544346900318832,14072.73,-10.71546,71.352
46.41588833612777,13002.29,-9.901896,71.3371
100.0,12079.74,-8.597498,71.3518
215.44346900318823,11278.89,-8.789402,71.3358
464.15888336127773,10543.16,-7.497918,71.3443
1000.0,9794.192,-7.636939,71.3332
2154.4346900318824,9331.178,-7.152335,71.3411
4641.588833612777,8926.387,-7.496213,71.3415
10000.0,8357.478,-7.955264,71.3388
