Frequency,Impedance,Phase Angle,Temperature (Dry Bath)
10.0,3986508.0,-1.907449,71.0273
21.544346900318832,15742110.0,27.14535,71.0169
46.41588833612777,7826142.0,-26.78808,71.0135
100.0,394197.8,-21.62561,71.0163
215.44346900318823,491750.1,-72.35423,71.0281
464.15888336127773,638817.4,67.17608,71.017
1000.0,462031.2,-90.60348,71.0188
2154.4346900318824,304066.1,-53.22914,71.0243
4641.588833612777,170229.7,-74.15631,71.0234
10000.0,62105.38,-88.12305,71.016
