Frequency,Impedance,Phase Angle,Temperature (Dry Bath)
10.0,201516.1,-16.12894,28.7101
21.544346900318832,178751.2,-14.27851,28.7791
46.41588833612777,158874.2,-14.027,28.706
100.0,149069.7,-18.83247,28.8623
215.44346900318823,127482.7,-13.76068,28.6198
464.15888336127773,117245.5,-17.80365,28.6547
1000.0,86845.96,-22.66518,28.572
2154.4346900318824,91366.23,-23.08984,28.8738
4641.588833612777,89914.37,-27.41338,28.9197
10000.0,63509.04,-40.70219,28.8166
