Frequency,Impedance,Phase Angle,Temperature (Dry Bath)
10.0,4469756.0,-11.65619,71.3002
21.544346900318832,5583477.0,-14.17388,71.2977
46.41588833612777,5124036.0,-26.62673,71.3049
100.0,522137.0,20.7497,71.3118
215.44346900318823,5638695.0,-100.4999,71.2991
464.15888336127773,1906116.0,-60.63329,71.2855
1000.0,350638.2,-57.49117,71.3
2154.4346900318824,377761.9,-69.76686,71.2872
4641.588833612777,135700.0,-67.50382,71.2971
10000.0,63973.97,-93.3195,71.3039
