Frequency,Impedance,Phase Angle,Temperature (Dry Bath)
10.0,8722814.0,23.8577,70.8106
21.544346900318832,7977862.0,0.2603198,70.828
46.41588833612777,4205406.0,-9.760807,70.8302
100.0,685563.3,-2.970532,70.8135
215.44346900318823,582896.4,-24.56771,70.8439
464.15888336127773,661222.8,-84.79767,70.8339
1000.0,288201.0,-80.57594,70.8272
2154.4346900318824,265224.9,-99.99411,70.8221
4641.588833612777,146008.8,-96.64336,70.8255
10000.0,69352.89,-87.70389,70.8216
