Frequency,Impedance,Phase Angle,Temperature (Dry Bath)
10.0,191306.9,-15.69362,71.1734
21.544346900318832,169372.4,-13.04456,71.1823
46.41588833612777,151589.0,-14.31146,71.156
100.0,198290.3,-21.98194,71.1856
215.44346900318823,95888.1,-9.228235,71.1742
464.15888336127773,106437.7,-14.51022,71.1931
1000.0,88696.43,-11.58619,71.1723
2154.4346900318824,114347.6,-7.833204,71.1641
4641.588833612777,75953.28,-23.9435,71.1722
10000.0,56659.7,-34.03477,71.1646
