Frequency,Impedance,Phase Angle,Temperature (Dry Bath)
10.0,5024923.0,-27.36854,71.4374
21.544346900318832,5217648.0,-37.64821,71.4724
46.41588833612777,4206365.0,-9.22589,71.4654
100.0,1119629.0,-14.23617,71.4602
215.44346900318823,1152536.0,-76.57522,71.4461
464.15888336127773,2139187.0,-156.4103,71.4632
1000.0,1077951.0,-73.83482,71.4548
2154.4346900318824,835523.0,-130.5965,71.4461
4641.588833612777,248653.7,-77.39222,71.4467
10000.0,145409.4,-93.68089,71.4493
