Frequency,Impedance,Phase Angle,Temperature (Dry Bath)
10.0,175029.2,-12.41923,71.464
21.544346900318832,163458.8,-11.93491,71.4576
46.41588833612777,148492.5,-11.72185,71.4558
100.0,139946.2,6.321647,71.4527
215.44346900318823,199003.9,-4.874145,71.4687
464.15888336127773,129393.8,-10.72111,71.4548
1000.0,143591.6,-20.00916,71.4665
2154.4346900318824,92040.56,-23.07099,71.451
4641.588833612777,81035.97,-28.15792,71.4551
10000.0,51778.81,-57.90463,71.4521
