Frequency,Impedance,Phase Angle,Temperature (Dry Bath)
10.0,4862563.0,-27.62198,70.9904
21.544346900318832,4676499.0,-19.79479,70.9863
46.41588833612777,4715977.0,-14.51355,71.0015
100.0,813410.1,-48.45092,71.009
215.44346900318823,645811.7,41.30339,70.9825
464.15888336127773,442947.7,-152.6716,70.9952
1000.0,532729.2,-87.90681,70.9814
2154.4346900318824,576723.1,-65.76152,70.9862
4641.588833612777,164370.2,-90.55247,70.9942
10000.0,134160.5,-67.24755,70.9854
