Frequency,Impedance,Phase Angle,Temperature (Dry Bath)
10.0,319653.9,-10.73036,71.2769
21.544346900318832,299322.7,-13.48268,71.2698
46.41588833612777,268844.9,-14.59702,71.2755
100.0,267547.7,-10.9436,71.2654
215.44346900318823,118406.5,-19.67995,71.28
464.15888336127773,215133.3,-26.03218,71.269
1000.0,181716.7,-22.19396,71.2615
2154.4346900318824,158092.9,-43.40446,71.254
4641.588833612777,97699.46,-54.71735,71.2696
10000.0,46994.33,-60.86382,71.2573
