Frequency,Impedance,Phase Angle,Temperature (Dry Bath)
10.0,4055975.0,-16.165,70.8549
21.544346900318832,5408324.0,-33.41631,70.8522
46.41588833612777,3661519.0,-17.31605,70.8427
100.0,845710.9,-101.5681,70.8465
215.44346900318823,920541.0,125.4463,70.837
464.15888336127773,696144.6,-64.10363,70.8327
1000.0,682892.7,-121.4533,70.8352
2154.4346900318824,288694.6,-90.26073,70.832
4641.588833612777,134285.0,-87.94862,70.8421
10000.0,55617.86,-73.11443,70.8307
