Frequency,Impedance,Phase Angle,Temperature (Dry Bath)
10.0,4325297.0,7.812221,71.2863
21.544346900318832,5443345.0,-31.77735,71.296
46.41588833612777,4077326.0,-21.35652,71.2824
100.0,415932.6,-103.99,71.2788
215.44346900318823,810039.3,-92.25055,71.2964
464.15888336127773,383027.5,-106.9797,71.2914
1000.0,640686.8,-117.2102,71.2763
2154.4346900318824,337631.1,-83.2395,71.2841
4641.588833612777,221763.3,-70.46041,71.3006
10000.0,59602.01,-88.35652,71.3006
