Frequency,Impedance,Phase Angle,Temperature (Dry Bath)
10.0,4510567.0,1.044166,71.0932
21.544346900318832,4032610.0,-17.3313,71.0938
46.41588833612777,4324486.0,-31.99972,71.1145
100.0,960545.7,-82.04129,71.1028
215.44346900318823,1222001.0,178.3181,71.1021
464.15888336127773,747731.7,-60.6324,71.0915
1000.0,315652.2,-36.52063,71.1101
2154.4346900318824,361119.6,-64.05759,71.1079
4641.588833612777,155480.8,-75.53562,71.1017
10000.0,59109.74,-82.87458,71.1038
