Frequency,Impedance,Phase Angle,Temperature (Dry Bath)
10.0,24701.75,-20.36711,71.2789
21.544346900318832,21060.27,-17.9766,71.2698
46.41588833612777,18273.98,-15.6695,71.2789
100.0,16396.34,-13.99807,71.2852
215.44346900318823,14681.73,-10.65841,71.2789
464.15888336127773,13317.94,-11.30976,71.2791
1000.0,12398.18,-8.195659,71.2852
2154.4346900318824,11547.95,-10.05728,71.2841
4641.588833612777,11165.37,-11.60831,71.2845
10000.0,10426.84,-14.51826,71.269
