Frequency,Impedance,Phase Angle,Temperature (Dry Bath)
10.0,5587469.0,5.445073,25.6258
21.544346900318832,6164241.0,9.788744,25.8041
46.41588833612777,5178489.0,-2.05699,25.7821
100.0,1670091.0,-111.775,25.5389
215.44346900318823,3354707.0,-170.0165,25.8938
464.15888336127773,1639776.0,-119.3256,25.6446
1000.0,411132.9,-71.43861,25.8332
2154.4346900318824,543295.2,-71.1604,25.7073
4641.588833612777,280602.0,-55.5618,25.6627
10000.0,128304.9,-89.15466,25.9386
