Frequency,Impedance,Phase Angle,Temperature (Dry Bath)
10.0,21204.91,-21.84558,29.0584
21.544346900318832,17504.17,-23.30184,29.0424
46.41588833612777,14185.3,-24.60397,29.0809
100.0,11509.72,-25.88886,29.1576
215.44346900318823,9147.333,-25.60263,29.1611
464.15888336127773,7369.353,-24.61247,28.9865
1000.0,5953.504,-23.93632,29.1089
2154.4346900318824,4840.14,-22.37721,29.0668
4641.588833612777,4020.329,-20.55521,29.1776
10000.0,3452.379,-18.83876,28.3054
