Frequency,Impedance,Phase Angle,Temperature (Dry Bath)
10.0,7622658.0,-17.21302,71.1676
21.544346900318832,4509735.0,-32.90221,71.1814
46.41588833612777,3644365.0,-18.88735,71.1673
100.0,624752.2,41.50098,71.1776
215.44346900318823,270968.0,-17.62109,71.1659
464.15888336127773,282243.1,-62.84647,71.1607
1000.0,116247.4,-41.6516,71.1608
2154.4346900318824,221811.6,-99.20903,71.1608
4641.588833612777,118505.8,-77.25027,71.1557
10000.0,47081.11,-85.55627,71.1579
