Frequency,Impedance,Phase Angle,Temperature (Dry Bath)
10.0,3450585.0,-23.077,71.4583
21.544346900318832,4368607.0,-13.675,71.4639
46.41588833612777,5649320.0,-30.66017,71.4686
100.0,452749.5,42.82742,71.4562
215.44346900318823,1087491.0,-88.28566,71.4331
464.15888336127773,410572.1,-29.215,71.4417
1000.0,386067.1,-58.94197,71.4351
2154.4346900318824,259419.3,-84.89748,71.4359
4641.588833612777,94678.38,-70.37171,71.4413
10000.0,68712.37,-88.26732,71.4351
