Frequency,Impedance,Phase Angle,Temperature (Dry Bath)
10.0,4589197.0,7.95886,71.0927
21.544346900318832,4495102.0,-26.75427,71.0914
46.41588833612777,5110818.0,-38.00823,71.0925
100.0,1722804.0,-55.19107,71.0833
215.44346900318823,443169.2,-24.40044,71.0789
464.15888336127773,638627.7,-108.3059,71.0765
1000.0,356304.5,-91.49153,71.0646
2154.4346900318824,302999.9,-103.8678,71.0788
4641.588833612777,164611.8,-90.15978,71.0857
10000.0,65833.36,-83.54895,71.0805
