Frequency,Impedance,Phase Angle,Temperature (Dry Bath)
10.0,178198.2,-12.4445,71.3356
21.544346900318832,163025.5,-12.36968,71.3364
46.41588833612777,147133.5,-13.19857,71.355
100.0,130587.2,-12.55133,71.3394
215.44346900318823,6619.499,-163.3331,71.3349
464.15888336127773,110063.7,-6.176219,71.3376
1000.0,103478.1,-20.64917,71.3289
2154.4346900318824,94387.75,-23.70598,71.3393
4641.588833612777,72205.66,-40.81786,71.3311
10000.0,45909.47,-53.33862,71.3382
