Frequency,Impedance,Phase Angle,Temperature (Dry Bath)
10.0,624484.3,-1.402929,71.4992
21.544346900318832,557589.9,-3.643732,71.4944
46.41588833612777,556491.8,-6.493502,71.4948
100.0,318458.7,-30.89752,71.4965
215.44346900318823,401478.8,-29.22419,71.4854
464.15888336127773,286527.6,-0.2948085,71.4938
1000.0,344456.1,0.6551049,71.4955
2154.4346900318824,396560.8,-65.07008,71.4901
4641.588833612777,241092.9,-60.74556,71.497
10000.0,98079.74,-72.51337,71.4954
