Frequency,Impedance,Phase Angle,Temperature (Dry Bath)
10.0,43100.04,-13.49031,71.0999
21.544346900318832,38774.42,-12.52819,71.0999
46.41588833612777,35146.7,-11.44,71.0881
100.0,29615.88,-10.54312,71.0837
215.44346900318823,29317.82,-9.117594,71.0985
464.15888336127773,29623.1,-6.084434,71.0999
1000.0,28646.44,-14.46594,71.0949
2154.4346900318824,24001.1,-8.069676,71.0992
4641.588833612777,21924.26,-8.699616,71.0932
10000.0,20698.85,-10.67861,71.0926
