Frequency,Impedance,Phase Angle,Temperature (Dry Bath)
10.0,7299.347,-38.84555,71.187
21.544346900318832,5291.556,-35.42631,71.174
46.41588833612777,3964.439,-31.75192,71.1998
100.0,3062.484,-27.75147,71.189
215.44346900318823,2494.384,-23.14585,71.1738
464.15888336127773,2093.032,-18.9013,71.1986
1000.0,1821.59,-15.53532,71.1822
2154.4346900318824,1627.962,-13.18189,71.176
4641.588833612777,1490.149,-11.3027,71.185
10000.0,1367.323,-10.27858,71.1555
