Frequency,Impedance,Phase Angle,Temperature (Dry Bath)
10.0,11638.61,-24.37894,70.9468
21.544346900318832,9678.818,-20.49688,70.9573
46.41588833612777,8305.003,-17.23784,70.963
100.0,7252.552,-14.89303,70.9615
215.44346900318823,6667.256,-11.94879,70.9576
464.15888336127773,5936.885,-10.67774,70.9306
1000.0,5482.487,-9.972218,70.9322
2154.4346900318824,5223.634,-9.103913,70.9632
4641.588833612777,4970.978,-8.792504,70.9407
10000.0,4649.041,-10.7227,70.9402
