Frequency,Impedance,Phase Angle,Temperature (Dry Bath)
10.0,4524163.0,10.06935,70.4499
21.544346900318832,5680900.0,-22.89562,70.4555
46.41588833612777,4528681.0,-30.67766,70.4384
100.0,527545.1,-151.259,70.4309
215.44346900318823,906574.5,104.3181,70.4423
464.15888336127773,602467.8,-96.22116,70.441
1000.0,229935.2,-18.98054,70.434
2154.4346900318824,254021.7,-104.7436,70.4348
4641.588833612777,169539.6,-81.84537,70.4522
10000.0,57238.0,-85.543,70.4361
