Frequency,Impedance,Phase Angle,Temperature (Dry Bath)
10.0,77675.31,-14.54668,70.9326
21.544346900318832,68968.08,-12.50662,70.9326
46.41588833612777,63521.0,-11.33334,70.9542
100.0,56739.47,-7.192925,70.9441
215.44346900318823,52026.66,-7.767332,70.9383
464.15888336127773,49747.4,-6.283424,70.9256
1000.0,46601.81,-9.409992,70.9297
2154.4346900318824,46227.58,-12.88361,70.9283
4641.588833612777,40092.98,-20.15598,70.927
10000.0,32785.4,-33.08055,70.9326
