Frequency,Impedance,Phase Angle,Temperature (Dry Bath)
10.0,34944.42,-13.75157,70.9581
21.544346900318832,31894.77,-11.56431,70.9551
46.41588833612777,29428.18,-10.73609,70.9607
100.0,27032.35,-7.729709,70.9548
215.44346900318823,25277.55,-9.188178,70.9721
464.15888336127773,23581.84,-8.378961,70.9483
1000.0,22534.04,-9.624331,70.9732
2154.4346900318824,20303.4,-11.31351,70.9475
4641.588833612777,19601.65,-14.44899,70.9518
10000.0,17242.65,-20.324,70.954
