Frequency,Impedance,Phase Angle,Temperature (Dry Bath)
10.0,23672.73,-21.20447,71.3877
21.544346900318832,19991.84,-18.36202,71.3908
46.41588833612777,17351.04,-15.62844,71.3868
100.0,14819.02,-10.56636,71.3906
215.44346900318823,13128.49,-22.29147,71.3955
464.15888336127773,13666.22,-8.538996,71.3975
1000.0,12013.44,-10.39388,71.3844
2154.4346900318824,11728.24,-8.838682,71.4055
4641.588833612777,11174.49,-10.03426,71.4054
10000.0,10363.83,-15.52352,71.3901
