Frequency,Impedance,Phase Angle,Temperature (Dry Bath)
10.0,4681587.0,-7.717138,70.9063
21.544346900318832,5833422.0,-7.748497,70.9149
46.41588833612777,4501560.0,-41.56153,70.9114
100.0,632046.0,83.62423,70.9044
215.44346900318823,4765701.0,-106.8917,70.9037
464.15888336127773,1384478.0,-168.9157,70.9129
1000.0,337477.1,-126.3134,70.9027
2154.4346900318824,275824.7,-68.76751,70.922
4641.588833612777,161499.0,-81.41509,70.9108
10000.0,57513.04,-88.96765,70.8944
