Frequency,Impedance,Phase Angle,Temperature (Dry Bath)
10.0,4283983.0,-0.4866059,71.3759
21.544346900318832,5040202.0,-2.271545,71.3882
46.41588833612777,5145344.0,5.584184,71.3856
100.0,1742231.0,-26.76356,71.3861
215.44346900318823,1604948.0,-75.57232,71.3744
464.15888336127773,619750.9,15.7404,71.3823
1000.0,871109.9,-21.07154,71.3789
2154.4346900318824,513388.0,-106.6275,71.3825
4641.588833612777,205030.5,-82.96964,71.3843
10000.0,123359.0,-83.27465,71.3791
