Frequency,Impedance,Phase Angle,Temperature (Dry Bath)
10.0,7690.065,-35.69789,70.5214
21.544346900318832,5805.1,-31.19996,70.525
46.41588833612777,4557.55,-26.79872,70.5292
100.0,3691.199,-22.3488,70.5354
215.44346900318823,3144.632,-18.65746,70.5289
464.15888336127773,2755.144,-15.29569,70.5272
1000.0,2476.099,-13.78508,70.5329
2154.4346900318824,2217.641,-11.35549,70.5267
4641.588833612777,2056.59,-9.6686,70.5273
10000.0,1925.129,-9.330176,70.5208
