Frequency,Impedance,Phase Angle,Temperature (Dry Bath)
10.0,4263786.0,-15.31902,70.4803
21.544346900318832,5068356.0,4.896024,70.4739
46.41588833612777,4145102.0,-23.35466,70.4621
100.0,324005.9,-24.51594,70.4595
215.44346900318823,396218.8,-107.0953,70.4637
464.15888336127773,411824.1,-106.4983,70.4598
1000.0,809481.9,-140.2902,70.4647
2154.4346900318824,428639.5,-94.53383,70.466
4641.588833612777,170744.7,-87.67575,70.4591
10000.0,67537.62,-81.91651,70.4671
