Frequency,Impedance,Phase Angle,Temperature (Dry Bath)
10.0,7662635.0,-15.94336,71.6307
21.544346900318832,5409554.0,-0.4856737,71.6207
46.41588833612777,4758435.0,-0.9060547,71.6079
100.0,401526.2,-7.792749,71.6152
215.44346900318823,1031325.0,-21.53253,71.6131
464.15888336127773,916662.9,-11.03222,71.62
1000.0,470807.8,-41.38053,71.6069
2154.4346900318824,534772.5,-51.74458,71.6203
4641.588833612777,223707.1,-75.67244,71.6193
10000.0,134530.0,-89.86937,71.624
