Frequency,Impedance,Phase Angle,Temperature (Dry Bath)
10.0,29787.05,-15.37865,71.69
21.544346900318832,26222.14,-14.19691,71.6911
46.41588833612777,23472.2,-13.04676,71.6914
100.0,21160.04,-11.81307,71.6965
215.44346900318823,19766.26,-12.2745,71.7024
464.15888336127773,18476.3,-9.726944,71.6931
1000.0,16069.15,-10.60017,71.6975
2154.4346900318824,15603.18,-9.797873,71.7027
4641.588833612777,14005.75,-13.33164,71.6929
10000.0,12727.6,-15.32793,71.6967
