Frequency,Impedance,Phase Angle,Temperature (Dry Bath)
10.0,258314.8,-17.58592,71.4801
21.544346900318832,218958.6,-17.09547,71.477
46.41588833612777,190972.9,-16.47621,71.4608
100.0,154720.7,-47.00378,71.475
215.44346900318823,168734.3,-20.05961,71.4806
464.15888336127773,123623.3,-15.55092,71.4751
1000.0,108143.7,-17.91502,71.4706
2154.4346900318824,101305.1,-43.13431,71.4634
4641.588833612777,65232.74,-42.35866,71.4756
10000.0,42095.44,-57.5493,71.48
