Frequency,Impedance,Phase Angle,Temperature (Dry Bath)
10.0,3864642.0,-3.309643,71.791
21.544346900318832,4646672.0,3.301944,71.7758
46.41588833612777,6033363.0,-3.815442,71.7883
100.0,870612.3,128.6541,71.7776
215.44346900318823,974223.1,123.9589,71.7917
464.15888336127773,2108847.0,132.2044,71.7909
1000.0,2125661.0,-51.11622,71.7812
2154.4346900318824,2353134.0,-66.7709,71.8053
4641.588833612777,190835.4,-93.05942,71.7769
10000.0,142854.3,-73.26796,71.799
