Frequency,Impedance,Phase Angle,Temperature (Dry Bath)
10.0,3412440.0,-2.224637,71.2445
21.544346900318832,4277935.0,7.514918,71.2523
46.41588833612777,5193970.0,-10.96241,71.2759
100.0,481735.4,-24.85932,71.2526
215.44346900318823,2091112.0,179.2589,71.2317
464.15888336127773,1324763.0,101.3152,71.2648
1000.0,1251336.0,-77.50203,71.2722
2154.4346900318824,494710.3,-81.67865,71.271
4641.588833612777,202964.8,-70.67328,71.2494
10000.0,101791.6,-73.7374,71.2644
