Frequency,Impedance,Phase Angle,Temperature (Dry Bath)
10.0,148848.9,-10.6321,71.2582
21.544346900318832,140417.0,-8.585538,71.2801
46.41588833612777,131819.6,-8.208551,71.2609
100.0,115231.2,-8.894906,71.2704
215.44346900318823,133393.6,-19.23665,71.2856
464.15888336127773,120141.2,-12.89863,71.2717
1000.0,75036.36,-16.83359,71.2712
2154.4346900318824,98184.9,-27.17648,71.2752
4641.588833612777,69359.85,-42.9613,71.2613
10000.0,40775.0,-62.62632,71.2801
