Frequency,Impedance,Phase Angle,Temperature (Dry Bath)
10.0,5489190.0,-2.847132,70.5119
21.544346900318832,3879326.0,-21.6735,70.5199
46.41588833612777,4413570.0,-30.55732,70.5105
100.0,910116.6,53.75698,70.5077
215.44346900318823,1004314.0,-119.1448,70.5136
464.15888336127773,1356088.0,-170.8032,70.5067
1000.0,856936.3,-99.60806,70.5169
2154.4346900318824,203810.7,-105.1632,70.5051
4641.588833612777,94636.37,-78.92125,70.5088
10000.0,52326.6,-82.97009,70.4944
