Frequency,Impedance,Phase Angle,Temperature (Dry Bath)
10.0,6568536.0,10.5349,71.4259
21.544346900318832,4997038.0,-1.804197,71.4149
46.41588833612777,4939645.0,-3.630332,71.431
100.0,2194037.0,129.0493,71.4329
215.44346900318823,878951.6,-30.55669,71.4356
464.15888336127773,548100.1,-95.48568,71.4305
1000.0,347004.8,-178.7977,71.4276
2154.4346900318824,314713.4,-70.3256,71.4262
4641.588833612777,144724.4,-73.03038,71.4313
10000.0,59058.18,-83.33011,71.438
