Frequency,Impedance,Phase Angle,Temperature (Dry Bath)
10.0,4850989.0,-27.14913,71.0731
21.544346900318832,5899242.0,-18.5138,71.0816
46.41588833612777,4163472.0,-28.2618,71.0737
100.0,405323.2,-46.13146,71.0908
215.44346900318823,789879.7,-78.71983,71.0592
464.15888336127773,1372900.0,-41.18381,71.0691
1000.0,599100.1,-55.35366,71.0829
2154.4346900318824,180940.8,-47.43618,71.0594
4641.588833612777,128266.3,-78.99413,71.0739
10000.0,55524.28,-90.66006,71.0591
