Frequency,Impedance,Phase Angle,Temperature (Dry Bath)
10.0,26542.5,-21.48067,70.9681
21.544346900318832,21978.95,-22.84394,70.9594
46.41588833612777,17901.41,-24.33058,70.9529
100.0,14921.59,-24.29672,70.9503
215.44346900318823,11513.22,-26.52196,70.9598
464.15888336127773,9306.581,-25.26331,70.9637
1000.0,7228.207,-26.32515,70.9531
2154.4346900318824,5718.143,-26.5036,70.9511
4641.588833612777,4695.341,-23.49643,70.9529
10000.0,3791.861,-21.17332,70.9706
