Frequency,Impedance,Phase Angle,Temperature (Dry Bath)
10.0,9819419.0,-22.32938,71.2086
21.544346900318832,3232347.0,20.36763,71.1945
46.41588833612777,5017628.0,-13.67331,71.2106
100.0,2269716.0,-53.17584,71.2189
215.44346900318823,800828.6,101.2954,71.2231
464.15888336127773,1605100.0,-89.43838,71.1985
1000.0,766244.5,-150.1277,71.1889
2154.4346900318824,209891.4,-91.41486,71.1994
4641.588833612777,351787.4,-84.28968,71.2002
10000.0,211823.5,-90.73401,71.2056
