Frequency,Impedance,Phase Angle,Temperature (Dry Bath)
10.0,6617871.0,4.558024,71.1539
21.544346900318832,5552397.0,-26.7662,71.1478
46.41588833612777,4399733.0,-15.07388,71.1491
100.0,4999344.0,-50.11666,71.1161
215.44346900318823,1272537.0,103.624,71.1362
464.15888336127773,1025401.0,-41.87354,71.1472
1000.0,1025017.0,42.80007,71.1335
2154.4346900318824,432358.3,-32.4476,71.1464
4641.588833612777,299458.2,-105.8453,71.1421
10000.0,159341.6,-93.18829,71.1522
