Frequency,Impedance,Phase Angle,Temperature (Dry Bath)
10.0,6453290.0,-0.8601671,70.8319
21.544346900318832,5133670.0,-14.14452,70.8476
46.41588833612777,3846432.0,-27.37289,70.8444
100.0,285258.5,87.51591,70.8574
215.44346900318823,820440.4,-94.75419,70.8539
464.15888336127773,344494.8,-79.35823,70.8456
1000.0,211307.8,-84.22623,70.833
2154.4346900318824,337992.5,-79.80071,70.8414
4641.588833612777,102443.0,-88.15736,70.8443
10000.0,58067.96,-88.28703,70.8462
