Frequency,Impedance,Phase Angle,Temperature (Dry Bath)
10.0,5014487.0,-8.030398,70.6846
21.544346900318832,4803766.0,2.854663,70.6817
46.41588833612777,4189985.0,-29.28343,70.6733
100.0,549979.4,-1.302237,70.6862
215.44346900318823,745725.2,76.06852,70.6805
464.15888336127773,1066573.0,10.05724,70.6777
1000.0,552784.5,62.25668,70.6933
2154.4346900318824,243910.7,-80.99236,70.6858
4641.588833612777,154667.2,-90.86485,70.6902
10000.0,63822.6,-89.88136,70.6967
