Frequency,Impedance,Phase Angle,Temperature (Dry Bath)
10.0,4480025.0,-7.020933,71.3607
21.544346900318832,5834893.0,-27.61495,71.3449
46.41588833612777,5026895.0,-24.16833,71.3603
100.0,575415.0,-63.69544,71.3677
215.44346900318823,1367946.0,21.40181,71.3688
464.15888336127773,563077.5,-67.55471,71.3608
1000.0,934847.4,-49.08214,71.3739
2154.4346900318824,255652.7,-74.06925,71.3764
4641.588833612777,146495.4,-83.48158,71.3614
10000.0,61080.97,-83.2184,71.3643
