Frequency,Impedance,Phase Angle,Temperature (Dry Bath)
10.0,961562.8,-9.566468,71.4117
21.544346900318832,921601.9,-4.43563,71.4287
46.41588833612777,918785.6,-8.720913,71.4166
100.0,482790.0,-41.96587,71.407
215.44346900318823,695779.5,36.39518,71.4181
464.15888336127773,1302241.0,-52.31663,71.4219
1000.0,522399.2,-36.65098,71.4161
2154.4346900318824,213471.2,-34.47321,71.4156
4641.588833612777,511532.0,-66.47431,71.4141
10000.0,127848.7,-87.21553,71.407
