Frequency,Impedance,Phase Angle,Temperature (Dry Bath)
10.0,8672970.0,-23.40799,69.2211
21.544346900318832,4909344.0,19.03917,69.212
46.41588833612777,4665682.0,-27.68761,69.2261
100.0,804720.1,-71.26265,69.2288
215.44346900318823,2459052.0,-103.4142,69.2307
464.15888336127773,7433648.0,-176.0633,69.2458
1000.0,572337.5,-82.94726,69.2337
2154.4346900318824,228026.4,-94.39443,69.2583
4641.588833612777,110354.6,-98.26059,69.2382
10000.0,59481.84,-82.59822,69.2422
