Frequency,Impedance,Phase Angle,Temperature (Dry Bath)
10.0,3426432.0,14.20258,71.5042
21.544346900318832,5186416.0,8.955131,71.5138
46.41588833612777,5774456.0,-19.18778,71.5063
100.0,410479.1,35.35672,71.4995
215.44346900318823,642853.6,-132.4975,71.515
464.15888336127773,801398.5,31.72477,71.5093
1000.0,6851553.0,147.6233,71.4998
2154.4346900318824,367910.9,-83.97557,71.5049
4641.588833612777,363867.1,-57.69657,71.5043
10000.0,122477.2,-84.7151,71.5098
