Frequency,Impedance,Phase Angle,Temperature (Dry Bath)
10.0,178326.7,-13.05886,71.2505
21.544346900318832,158552.5,-12.22047,71.2348
46.41588833612777,144992.9,-12.16359,71.2616
100.0,184420.2,3.09697,71.2682
215.44346900318823,121267.3,-7.64822,71.2668
464.15888336127773,107014.5,-13.29713,71.2818
1000.0,85305.75,-20.98119,71.2448
2154.4346900318824,86832.38,-19.65931,71.2609
4641.588833612777,74773.34,-47.07121,71.2565
10000.0,48807.83,-55.77116,71.2596
