Frequency,Impedance,Phase Angle,Temperature (Dry Bath)
10.0,15153.16,-20.32391,70.9954
21.544346900318832,13002.88,-17.49486,70.9769
46.41588833612777,11399.03,-15.20984,70.9805
100.0,10150.86,-13.29684,70.9805
215.44346900318823,9246.751,-11.71301,70.9761
464.15888336127773,8345.6,-10.75664,70.9799
1000.0,7706.879,-9.564269,70.9701
2154.4346900318824,7183.702,-9.041631,70.9909
4641.588833612777,6698.191,-9.684743,70.9794
10000.0,6459.666,-12.45194,70.9754
