Frequency,Impedance,Phase Angle,Temperature (Dry Bath)
10.0,5335954.0,-5.047451,70.9406
21.544346900318832,8466949.0,-21.49575,70.9531
46.41588833612777,3695869.0,-35.86747,70.9526
100.0,2144493.0,162.7866,70.9513
215.44346900318823,1431873.0,154.1182,70.9565
464.15888336127773,2894576.0,-19.73897,70.9634
1000.0,701001.1,-79.3932,70.9528
2154.4346900318824,245489.9,-72.47561,70.9571
4641.588833612777,116735.5,-78.60317,70.9649
10000.0,72898.95,-79.46082,70.9524
