Frequency,Impedance,Phase Angle,Temperature (Dry Bath)
10.0,7163809.0,-2.07228,71.2536
21.544346900318832,4071663.0,-22.89215,71.2424
46.41588833612777,4601427.0,-16.76381,71.2465
100.0,561548.5,-62.2584,71.2434
215.44346900318823,989678.2,-31.14952,71.2395
464.15888336127773,966409.0,-97.28115,71.2402
1000.0,421478.4,-60.03592,71.231
2154.4346900318824,246885.1,-73.12313,71.252
4641.588833612777,168101.6,-78.46912,71.2242
10000.0,72641.2,-87.731,71.2253
