Frequency,Impedance,Phase Angle,Temperature (Dry Bath)
10.0,6052650.0,16.07004,70.8275
21.544346900318832,4237393.0,-45.27546,70.8257
46.41588833612777,4338775.0,-49.50581,70.8391
100.0,5302258.0,37.70875,70.8247
215.44346900318823,1708843.0,85.9643,70.7995
464.15888336127773,738473.7,-101.8271,70.8213
1000.0,401650.0,-116.1165,70.8255
2154.4346900318824,276131.6,-96.19453,70.8415
4641.588833612777,137009.7,-82.92691,70.8204
10000.0,62075.37,-84.11283,70.8298
