Frequency,Impedance,Phase Angle,Temperature (Dry Bath)
10.0,14658.63,-19.56571,71.1102
21.544346900318832,12622.98,-16.84166,71.0877
46.41588833612777,11122.46,-14.75313,71.0941
100.0,10034.26,-14.20482,71.0849
215.44346900318823,9030.978,-11.29802,71.0888
464.15888336127773,8344.106,-10.52609,71.0825
1000.0,7666.638,-10.1466,71.0759
2154.4346900318824,7096.292,-9.464401,71.0924
4641.588833612777,6651.254,-10.5591,71.0854
10000.0,6244.778,-12.47891,71.0679
