Frequency,Impedance,Phase Angle,Temperature (Dry Bath)
10.0,179947.2,-12.78796,71.3394
21.544346900318832,161851.0,-11.59807,71.3325
46.41588833612777,146851.9,-10.53575,71.3295
100.0,176882.4,-15.88372,71.3406
215.44346900318823,23508.74,-21.28228,71.3311
464.15888336127773,119429.1,-12.94092,71.3291
1000.0,85227.74,-16.76193,71.3248
2154.4346900318824,90787.77,-29.90588,71.3294
4641.588833612777,76108.69,-38.20447,71.3394
10000.0,58359.67,-50.51738,71.3138
