Frequency,Impedance,Phase Angle,Temperature (Dry Bath)
10.0,5461830.0,-7.469138,70.9185
21.544346900318832,4259010.0,0.2318905,70.9313
46.41588833612777,4716025.0,-21.4657,70.942
100.0,621581.1,63.82028,70.9267
215.44346900318823,3239942.0,-25.68524,70.9301
464.15888336127773,1030233.0,-100.9139,70.9233
1000.0,556293.8,91.77574,70.9354
2154.4346900318824,271658.8,-65.64631,70.929
4641.588833612777,119656.7,-80.90367,70.9237
10000.0,69788.84,-88.53263,70.9194
