Frequency,Impedance,Phase Angle,Temperature (Dry Bath)
10.0,7796467.0,-0.5044481,71.3126
21.544346900318832,5198977.0,-35.81858,71.3155
46.41588833612777,4155840.0,-22.21557,71.3392
100.0,943324.5,111.1352,71.3215
215.44346900318823,665656.1,-101.125,71.3289
464.15888336127773,3416212.0,23.36839,71.3243
1000.0,962198.8,-95.18472,71.3234
2154.4346900318824,258264.9,-87.57118,71.3147
4641.588833612777,128676.4,-89.36366,71.3258
10000.0,62140.14,-85.53863,71.3139
