Frequency,Impedance,Phase Angle,Temperature (Dry Bath)
10.0,3885078.0,-0.4315063,71.414
21.544346900318832,4863829.0,-11.2117,71.4078
46.41588833612777,3580491.0,-7.677019,71.4364
100.0,820335.7,-0.3554391,71.4296
215.44346900318823,35673.87,154.1809,71.4435
464.15888336127773,442513.8,11.56254,71.4493
1000.0,471138.6,-57.17175,71.4457
2154.4346900318824,246407.5,-77.4286,71.4331
4641.588833612777,156617.5,-82.20549,71.4367
10000.0,64992.11,-89.79019,71.4375
