Frequency,Impedance,Phase Angle,Temperature (Dry Bath)
10.0,13285.06,-27.69647,71.1637
21.544346900318832,10605.92,-25.10411,71.1747
46.41588833612777,8673.705,-22.39391,71.1495
100.0,7219.142,-18.88392,71.157
215.44346900318823,6281.541,-17.36407,71.1458
464.15888336127773,5510.284,-14.96472,71.1578
1000.0,4876.247,-13.12027,71.1586
2154.4346900318824,4432.081,-12.64909,71.1627
4641.588833612777,4050.651,-11.90003,71.1637
10000.0,3694.298,-13.22272,71.1714
