Frequency,Impedance,Phase Angle,Temperature (Dry Bath)
10.0,41465.37,-30.45275,71.2192
21.544346900318832,31870.74,-28.88442,71.2075
46.41588833612777,24997.49,-27.21592,71.2093
100.0,20201.91,-23.35493,71.2118
215.44346900318823,16145.69,-21.6467,71.2127
464.15888336127773,14027.06,-18.98944,71.2064
1000.0,11620.28,-16.84295,71.2084
2154.4346900318824,10333.91,-16.46801,71.2139
4641.588833612777,9361.886,-15.44462,71.2087
10000.0,8295.074,-18.11698,71.2001
