Frequency,Impedance,Phase Angle,Temperature (Dry Bath)
10.0,12535.1,-26.54324,71.3256
21.544346900318832,10127.38,-23.91466,71.3363
46.41588833612777,8375.382,-21.17767,71.3347
100.0,7188.579,-18.08194,71.3253
215.44346900318823,6196.7,-16.14773,71.3441
464.15888336127773,5479.608,-13.62716,71.3434
1000.0,4909.849,-12.78151,71.331
2154.4346900318824,4427.621,-11.70329,71.3569
4641.588833612777,4074.076,-11.53094,71.3438
10000.0,3732.327,-11.84974,71.3455
