Frequency,Impedance,Phase Angle,Temperature (Dry Bath)
10.0,1330532.0,-19.63864,71.2936
21.544346900318832,982312.9,-26.89711,71.3036
46.41588833612777,842663.4,-19.98998,71.2976
100.0,533452.7,-24.60527,71.2951
215.44346900318823,520692.4,18.91269,71.3191
464.15888336127773,290284.7,-24.82731,71.2897
1000.0,293089.8,-20.23852,71.3016
2154.4346900318824,224581.5,-37.54942,71.3095
4641.588833612777,120107.4,-68.1976,71.3063
10000.0,62328.45,-82.53026,71.3207
