Frequency,Impedance,Phase Angle,Temperature (Dry Bath)
10.0,3875060.0,-1.177368,71.3567
21.544346900318832,3319901.0,-3.161445,71.364
46.41588833612777,4081312.0,-4.823952,71.3479
100.0,923832.1,-26.99549,71.3466
215.44346900318823,1331459.0,-10.46805,71.3446
464.15888336127773,764403.4,-10.35582,71.3433
1000.0,725336.4,-1.947687,71.3613
2154.4346900318824,389379.5,-103.7919,71.3568
4641.588833612777,280533.4,-106.1281,71.3604
10000.0,137341.3,-85.77174,71.3381
