Frequency,Impedance,Phase Angle,Temperature (Dry Bath)
10.0,2850307.0,-14.95764,71.2772
21.544346900318832,5192102.0,-0.5638281,71.2698
46.41588833612777,5988385.0,-22.86808,71.2727
100.0,1313637.0,-105.7186,71.2727
215.44346900318823,1065301.0,-29.91194,71.2631
464.15888336127773,741006.0,-130.7877,71.2661
1000.0,365831.7,-56.90251,71.2692
2154.4346900318824,462982.2,-89.13626,71.2799
4641.588833612777,135830.3,-81.8531,71.2647
10000.0,61736.07,-89.02673,71.2716
