Frequency,Impedance,Phase Angle,Temperature (Dry Bath)
10.0,2545208.0,-0.7665539,71.293
21.544346900318832,2449301.0,-25.71634,71.2929
46.41588833612777,2604891.0,-60.99963,71.2815
100.0,550978.1,-6.304792,71.2841
215.44346900318823,14100.52,-44.27777,71.2914
464.15888336127773,656576.9,140.6726,71.2857
1000.0,515495.7,-122.2835,71.2922
2154.4346900318824,290592.3,-44.72863,71.3027
4641.588833612777,149352.3,-88.87425,71.2926
10000.0,65410.93,-88.90142,71.2913
