Frequency,Impedance,Phase Angle,Temperature (Dry Bath)
10.0,911872.8,-28.88328,71.2558
21.544346900318832,680694.7,-27.33279,71.2593
46.41588833612777,571263.6,-27.64512,71.2557
100.0,724364.8,58.39751,71.2653
215.44346900318823,21330.63,-66.91627,71.2521
464.15888336127773,379556.8,4.00662,71.2625
1000.0,256929.1,-62.089,71.2462
2154.4346900318824,192944.1,-57.83865,71.2699
4641.588833612777,102871.4,-54.52426,71.2643
10000.0,51142.03,-70.39284,71.2561
