Frequency,Impedance,Phase Angle,Temperature (Dry Bath)
10.0,5447400.0,-17.02957,71.3332
21.544346900318832,4627490.0,-5.124673,71.3506
46.41588833612777,4889174.0,-20.70269,71.3609
100.0,929377.8,-117.0515,71.3501
215.44346900318823,542875.7,44.7443,71.3481
464.15888336127773,666901.7,-75.3527,71.348
1000.0,852556.9,-102.9468,71.355
2154.4346900318824,293629.5,-96.33107,71.364
4641.588833612777,172925.5,-90.58518,71.3635
10000.0,58757.18,-84.51973,71.3384
