Frequency,Impedance,Phase Angle,Temperature (Dry Bath)
10.0,3453643.0,3.053856,28.9112
21.544346900318832,6117335.0,-6.07751,28.8593
46.41588833612777,3840738.0,-6.52212,28.7902
100.0,1329626.0,33.95752,28.9157
215.44346900318823,746430.0,-7.194027,28.9357
464.15888336127773,1535409.0,60.83017,28.9101
1000.0,2050848.0,29.97933,28.6557
2154.4346900318824,359137.3,-85.99669,28.7151
4641.588833612777,278531.1,-82.98991,28.8933
10000.0,164536.1,-80.86306,28.9799
