Frequency,Impedance,Phase Angle,Temperature (Dry Bath)
10.0,6344223.0,-12.88225,71.4438
21.544346900318832,4472543.0,-3.80569,71.4243
46.41588833612777,4735632.0,3.191446,71.4355
100.0,444777.2,-25.18693,71.4242
215.44346900318823,565666.0,27.01647,71.4406
464.15888336127773,996319.4,-43.09538,71.4305
1000.0,459454.6,-61.14519,71.4161
2154.4346900318824,338871.3,112.3256,71.4406
4641.588833612777,210518.8,-79.86593,71.4242
10000.0,122746.1,-90.55578,71.4236
