Frequency,Impedance,Phase Angle,Temperature (Dry Bath)
10.0,10437.57,-25.36241,70.9387
21.544346900318832,8598.296,-21.28607,70.9343
46.41588833612777,7335.331,-17.69683,70.9382
100.0,6447.04,-14.25876,70.9425
215.44346900318823,5842.232,-12.18081,70.9432
464.15888336127773,5312.054,-10.3919,70.9282
1000.0,4874.391,-8.933998,70.9335
2154.4346900318824,4587.42,-8.055194,70.9334
4641.588833612777,4382.48,-7.907553,70.9207
10000.0,4129.508,-9.312343,70.929
