Frequency,Impedance,Phase Angle,Temperature (Dry Bath)
10.0,4994102.0,-26.51998,71.0143
21.544346900318832,6237483.0,9.757187,71.0035
46.41588833612777,4110906.0,-19.07806,71.0163
100.0,874951.4,-14.06763,71.007
215.44346900318823,541945.3,-56.13404,71.0087
464.15888336127773,610466.2,-113.3302,70.9976
1000.0,420942.1,-90.72031,71.0034
2154.4346900318824,247965.8,-89.80537,71.0164
4641.588833612777,113615.4,-91.15248,71.0075
10000.0,59637.61,-86.40956,71.0204
