Frequency,Impedance,Phase Angle,Temperature (Dry Bath)
10.0,6913841.0,-13.65319,71.3036
21.544346900318832,10388260.0,36.91702,71.3063
46.41588833612777,4901546.0,-10.94359,71.2883
100.0,570291.7,40.55562,71.3201
215.44346900318823,2663032.0,-85.9669,71.3126
464.15888336127773,1105514.0,-102.5539,71.3009
1000.0,542042.3,-42.81489,71.3157
2154.4346900318824,355768.0,-87.7387,71.3084
4641.588833612777,286262.0,-2.560839,71.3179
10000.0,135958.5,-86.77102,71.3106
