Frequency,Impedance,Phase Angle,Temperature (Dry Bath)
10.0,10350450.0,-15.29949,71.3065
21.544346900318832,4416537.0,-11.02948,71.3179
46.41588833612777,4665457.0,10.92215,71.3051
100.0,9444347.0,-167.5805,71.3198
215.44346900318823,14245.64,105.9657,71.3094
464.15888336127773,5020896.0,10.82119,71.3045
1000.0,252430.8,-142.9208,71.3063
2154.4346900318824,300976.6,-97.89563,71.3019
4641.588833612777,153556.3,-70.98895,71.3074
10000.0,69792.99,-88.07178,71.3049
