Frequency,Impedance,Phase Angle,Temperature (Dry Bath)
10.0,4040129.0,7.94897,71.1769
21.544346900318832,5370682.0,-13.1784,71.1829
46.41588833612777,3760999.0,6.539109,71.1605
100.0,818513.3,-148.5659,71.1872
215.44346900318823,3856848.0,-122.1803,71.1896
464.15888336127773,754389.4,146.9995,71.1956
1000.0,436626.1,4.964216,71.1987
2154.4346900318824,1252287.0,-167.9314,71.1808
4641.588833612777,143510.5,-111.3403,71.1731
10000.0,390804.0,-88.44571,71.1948
