Frequency,Impedance,Phase Angle,Temperature (Dry Bath)
10.0,63066.28,-20.49378,71.5532
21.544346900318832,53140.38,-20.18984,71.5657
46.41588833612777,45010.57,-19.70939,71.5569
100.0,36825.05,-18.31897,71.5659
215.44346900318823,33394.25,-18.90685,71.5513
464.15888336127773,28452.45,-16.50411,71.5715
1000.0,24305.91,-15.12666,71.5591
2154.4346900318824,22166.44,-13.54309,71.5608
4641.588833612777,19380.67,-15.88717,71.5513
10000.0,17843.59,-16.69035,71.5521
