Frequency,Impedance,Phase Angle,Temperature (Dry Bath)
10.0,7080182.0,-40.1889,71.1802
21.544346900318832,4653248.0,-38.13486,71.1741
46.41588833612777,4999753.0,-26.71124,71.1602
100.0,944021.2,35.04193,71.1723
215.44346900318823,532597.0,-33.10803,71.1842
464.15888336127773,641547.0,-91.71975,71.1654
1000.0,528787.6,-82.15643,71.1747
2154.4346900318824,260042.3,-78.06681,71.1557
4641.588833612777,129604.6,-92.03444,71.1783
10000.0,64450.61,-88.71087,71.1858
