Frequency,Impedance,Phase Angle,Temperature (Dry Bath)
10.0,456008.2,-12.05762,71.1761
21.544346900318832,401365.6,-8.304767,71.1539
46.41588833612777,380951.2,-12.4802,71.152
100.0,605018.1,29.09724,71.1742
215.44346900318823,265018.1,7.694368,71.1777
464.15888336127773,284268.2,-10.65524,71.174
1000.0,569171.6,107.2533,71.1664
2154.4346900318824,140656.4,-41.15245,71.1745
4641.588833612777,199725.1,-33.64429,71.1663
10000.0,83383.95,-34.44662,71.1607
