Frequency,Impedance,Phase Angle,Temperature (Dry Bath)
10.0,150784.4,-9.998017,71.3617
21.544346900318832,140277.6,-9.945724,71.3724
46.41588833612777,131527.5,-8.746781,71.3785
100.0,105431.4,-11.18184,71.3656
215.44346900318823,103086.2,-17.1618,71.397
464.15888336127773,106386.9,-16.49006,71.3669
1000.0,66665.16,-13.33218,71.3985
2154.4346900318824,79484.27,-28.03072,71.3949
4641.588833612777,65226.39,-48.27248,71.3894
10000.0,39387.79,-63.7677,71.3905
