Frequency,Impedance,Phase Angle,Temperature (Dry Bath)
10.0,5008.022,-34.4995,70.9289
21.544346900318832,3818.024,-29.00089,70.9232
46.41588833612777,3080.251,-23.66604,70.923
100.0,2612.652,-19.29477,70.928
215.44346900318823,2268.918,-15.76769,70.8958
464.15888336127773,2025.816,-13.08624,70.9168
1000.0,1834.526,-11.35924,70.9176
2154.4346900318824,1689.074,-9.386086,70.9241
4641.588833612777,1573.304,-8.401755,70.9288
10000.0,1486.431,-7.810245,70.9157
