Frequency,Impedance,Phase Angle,Temperature (Dry Bath)
10.0,24192.19,-20.9612,71.2569
21.544346900318832,20485.13,-18.05144,71.2491
46.41588833612777,17812.67,-15.60179,71.2571
100.0,16295.36,-12.26352,71.2469
215.44346900318823,13832.77,-18.16401,71.2594
464.15888336127773,13066.44,-10.78348,71.2521
1000.0,12257.46,-8.37359,71.2499
2154.4346900318824,11517.04,-8.581792,71.2614
4641.588833612777,10905.88,-9.759,71.2583
10000.0,10167.35,-14.84171,71.2607
