Frequency,Impedance,Phase Angle,Temperature (Dry Bath)
10.0,148302.5,-10.46285,71.2522
21.544346900318832,139520.3,-8.898925,71.262
46.41588833612777,130342.6,-8.958272,71.2671
100.0,129268.3,-23.67082,71.2549
215.44346900318823,115919.1,3.750777,71.2552
464.15888336127773,92268.85,-16.64437,71.2734
1000.0,76472.1,-23.19995,71.253
2154.4346900318824,80777.79,-34.98468,71.2765
4641.588833612777,70174.87,-42.10891,71.2642
10000.0,45356.91,-62.33509,71.271
