Frequency,Impedance,Phase Angle,Temperature (Dry Bath)
10.0,12129.91,-25.50369,71.1588
21.544346900318832,9910.14,-22.79616,71.1419
46.41588833612777,8262.152,-20.13697,71.1542
100.0,7038.765,-17.05534,71.1536
215.44346900318823,6141.645,-15.64177,71.1428
464.15888336127773,5475.699,-13.6344,71.1507
1000.0,4938.64,-11.02123,71.1441
2154.4346900318824,4538.025,-10.24997,71.1581
4641.588833612777,4268.22,-9.456896,71.1659
10000.0,4007.622,-11.18972,71.1487
