Frequency,Impedance,Phase Angle,Temperature (Dry Bath)
10.0,19978.76,-18.33743,71.5191
21.544346900318832,17302.46,-17.40108,71.5305
46.41588833612777,15107.06,-16.89862,71.5241
100.0,13057.58,-17.32596,71.5172
215.44346900318823,11544.35,-15.79041,71.5327
464.15888336127773,10133.89,-14.22834,71.5216
1000.0,9113.934,-13.14116,71.5198
2154.4346900318824,8177.429,-11.8471,71.519
4641.588833612777,7644.826,-10.2017,71.5321
10000.0,7019.408,-10.76639,71.5246
