Frequency,Impedance,Phase Angle,Temperature (Dry Bath)
10.0,3985093.0,-33.23293,71.1465
21.544346900318832,4715748.0,-16.02325,71.1579
46.41588833612777,4859263.0,-37.428,71.1698
100.0,2095871.0,-45.96514,71.1628
215.44346900318823,4022642.0,-82.97704,71.1764
464.15888336127773,609390.9,-35.70604,71.1734
1000.0,246165.1,-115.9223,71.165
2154.4346900318824,308374.7,-76.18642,71.1809
4641.588833612777,126648.3,-88.30461,71.1784
10000.0,62856.97,-90.46256,71.1692
