Frequency,Impedance,Phase Angle,Temperature (Dry Bath)
10.0,7187394.0,10.73572,71.1648
21.544346900318832,4441036.0,-34.23942,71.1467
46.41588833612777,3664422.0,-17.69762,71.1648
100.0,1194134.0,-16.56267,71.1622
215.44346900318823,677514.1,-19.54969,71.1692
464.15888336127773,991722.8,-91.20342,71.1447
1000.0,242333.8,-134.22,71.1707
2154.4346900318824,264262.4,-86.33908,71.164
4641.588833612777,103626.2,-75.80781,71.1481
10000.0,59517.06,-86.00782,71.1562
