Frequency,Impedance,Phase Angle,Temperature (Dry Bath)
10.0,6003995.0,5.915979,70.8235
21.544346900318832,6078691.0,-10.69755,70.8031
46.41588833612777,3830510.0,-20.38564,70.809
100.0,464582.4,23.56623,70.8189
215.44346900318823,600975.7,-80.51127,70.8114
464.15888336127773,1000667.0,-101.8749,70.8264
1000.0,412752.0,-107.1732,70.8284
2154.4346900318824,352655.4,-94.58631,70.8271
4641.588833612777,141315.5,-92.17112,70.8345
10000.0,60956.05,-92.16632,70.8209
