Frequency,Impedance,Phase Angle,Temperature (Dry Bath)
10.0,12269930.0,-21.08753,71.1202
21.544346900318832,9283530.0,15.39392,71.107
46.41588833612777,4837511.0,-7.101782,71.1106
100.0,238901.3,-45.30521,71.1193
215.44346900318823,1232396.0,122.4544,71.1039
464.15888336127773,753790.9,-23.47934,71.1176
1000.0,523953.4,-120.6472,71.1197
2154.4346900318824,205528.2,-95.33492,71.1166
4641.588833612777,224359.1,-77.35644,71.1299
10000.0,185320.8,-100.4689,71.1264
