Frequency,Impedance,Phase Angle,Temperature (Dry Bath)
10.0,134682.7,-18.65479,71.4246
21.544346900318832,114795.0,-17.54589,71.402
46.41588833612777,100573.7,-15.8631,71.4249
100.0,76833.51,-15.23694,71.4176
215.44346900318823,72201.7,-39.61543,71.4275
464.15888336127773,64056.86,-14.32875,71.4312
1000.0,66115.38,-23.81454,71.4288
2154.4346900318824,51172.84,-23.28123,71.425
4641.588833612777,45484.11,-35.80286,71.4287
10000.0,31330.12,-41.31092,71.4224
