Frequency,Impedance,Phase Angle,Temperature (Dry Bath)
10.0,3918488.0,8.078981,71.2885
21.544346900318832,7354183.0,-20.73657,71.2807
46.41588833612777,4698845.0,-25.14714,71.2966
100.0,567988.0,109.2748,71.2899
215.44346900318823,556829.2,13.97463,71.2867
464.15888336127773,2310170.0,43.22718,71.2994
1000.0,874486.7,-164.3379,71.281
2154.4346900318824,251351.7,-111.4505,71.2912
4641.588833612777,166804.0,-97.90763,71.2916
10000.0,72097.34,-83.8462,71.2968
