Frequency,Impedance,Phase Angle,Temperature (Dry Bath)
10.0,133190.4,-18.5846,71.3134
21.544346900318832,114413.3,-17.79576,71.3154
46.41588833612777,98944.32,-16.41406,71.3147
100.0,82693.55,-20.59932,71.3102
215.44346900318823,55876.94,136.2883,71.3155
464.15888336127773,66201.44,-23.8105,71.3189
1000.0,55601.85,-30.71158,71.3102
2154.4346900318824,54320.4,-18.96934,71.3071
4641.588833612777,42666.53,-31.69201,71.2984
10000.0,28540.85,-50.08285,71.3033
