Frequency,Impedance,Phase Angle,Temperature (Dry Bath)
10.0,8121572.0,-13.25937,71.2522
21.544346900318832,5548327.0,-18.92084,71.2515
46.41588833612777,4725706.0,10.43166,71.2676
100.0,574487.4,-34.15881,71.2517
215.44346900318823,1622250.0,-99.62546,71.263
464.15888336127773,897178.7,-77.06582,71.2624
1000.0,847412.8,-143.0531,71.2712
2154.4346900318824,349406.8,-96.63278,71.2865
4641.588833612777,209174.8,-80.3209,71.2679
10000.0,98463.22,-81.68639,71.2633
