Frequency,Impedance,Phase Angle,Temperature (Dry Bath)
10.0,6157009.0,1.785912,70.5557
21.544346900318832,4211493.0,-18.10341,70.5683
46.41588833612777,5680186.0,-23.10371,70.557
100.0,1919788.0,38.73444,70.551
215.44346900318823,540057.0,-109.2542,70.558
464.15888336127773,426141.9,-83.78029,70.5664
1000.0,361844.1,-47.15233,70.5531
2154.4346900318824,248446.0,-103.1418,70.5584
4641.588833612777,128436.1,-91.3336,70.553
10000.0,66724.77,-80.6813,70.5532
