Frequency,Impedance,Phase Angle,Temperature (Dry Bath)
10.0,3495688.0,0.5152808,71.2262
21.544346900318832,4583678.0,-35.565,71.2151
46.41588833612777,4683018.0,-37.70065,71.2219
100.0,920774.8,5.86529,71.2298
215.44346900318823,368057.4,-36.58864,71.2296
464.15888336127773,895970.6,-72.55327,71.2297
1000.0,599525.2,-135.5845,71.2263
2154.4346900318824,210916.8,-106.2914,71.2276
4641.588833612777,125232.3,-80.06959,71.2263
10000.0,59678.18,-93.05537,71.2137
