Frequency,Impedance,Phase Angle,Temperature (Dry Bath)
10.0,6512.424,-35.63586,70.7534
21.544346900318832,4936.459,-30.85827,70.7594
46.41588833612777,3896.403,-26.34325,70.7594
100.0,3201.08,-21.92247,70.7538
215.44346900318823,2698.946,-18.48426,70.7602
464.15888336127773,2357.76,-15.25362,70.7613
1000.0,2109.6,-12.8763,70.7548
2154.4346900318824,1922.488,-10.72754,70.7593
4641.588833612777,1780.84,-9.238525,70.7378
10000.0,1668.369,-8.589787,70.7707
