Frequency,Impedance,Phase Angle,Temperature (Dry Bath)
10.0,3955489.0,-11.2465,71.2463
21.544346900318832,3193554.0,2.926238,71.248
46.41588833612777,5313099.0,-0.7069262,71.2478
100.0,261450.3,15.70916,71.2503
215.44346900318823,4844932.0,-6.183203,71.24
464.15888336127773,1130041.0,-40.66619,71.2222
1000.0,618520.2,-6.046021,71.2295
2154.4346900318824,175261.9,-85.60295,71.2182
4641.588833612777,128108.6,-69.34917,71.2181
10000.0,59158.27,-91.23042,71.2057
