Frequency,Impedance,Phase Angle,Temperature (Dry Bath)
10.0,4975048.0,-1.442675,70.8438
21.544346900318832,8019203.0,-10.44153,70.8466
46.41588833612777,4773153.0,0.04679447,70.8278
100.0,993959.7,-131.7869,70.8338
215.44346900318823,789815.9,131.796,70.8317
464.15888336127773,549218.4,-125.2634,70.8407
1000.0,284999.6,-96.86159,70.8337
2154.4346900318824,178167.0,-84.50416,70.8317
4641.588833612777,124118.9,-83.51222,70.8502
10000.0,69310.17,-88.14717,70.8363
