Frequency,Impedance,Phase Angle,Temperature (Dry Bath)
10.0,12217.7,-23.74095,71.0021
21.544346900318832,10219.39,-20.00172,71.0023
46.41588833612777,8801.427,-16.91544,71.016
100.0,7841.944,-14.21177,71.0087
215.44346900318823,6992.18,-12.43663,71.0067
464.15888336127773,6381.383,-11.14035,71.0045
1000.0,5934.14,-10.11202,71.0071
2154.4346900318824,5472.989,-8.783244,71.0086
4641.588833612777,5177.448,-8.4837,71.0004
10000.0,4871.116,-10.67506,71.018
