Frequency,Impedance,Phase Angle,Temperature (Dry Bath)
10.0,151004.8,-10.39511,71.1808
21.544346900318832,138395.2,-9.736313,71.1942
46.41588833612777,129970.7,-9.566537,71.1987
100.0,107657.2,-0.7038744,71.1919
215.44346900318823,107883.2,-6.965971,71.1933
464.15888336127773,102086.5,-7.898848,71.189
1000.0,121254.4,-28.47942,71.1987
2154.4346900318824,84540.94,-27.21839,71.1916
4641.588833612777,64767.61,-46.26595,71.1758
10000.0,44097.92,-57.96164,71.1776
