Frequency,Impedance,Phase Angle,Temperature (Dry Bath)
10.0,4592585.0,-25.56661,71.5945
21.544346900318832,6490771.0,-11.95877,71.5935
46.41588833612777,4847104.0,-19.44733,71.5908
100.0,831768.5,-34.50655,71.5965
215.44346900318823,6722342.0,-42.08836,71.6021
464.15888336127773,2331766.0,-159.1815,71.5953
1000.0,629187.2,43.09279,71.6029
2154.4346900318824,1131216.0,-69.67052,71.5939
4641.588833612777,232136.6,-73.337,71.5999
10000.0,175784.7,-82.69465,71.5932
