Frequency,Impedance,Phase Angle,Temperature (Dry Bath)
10.0,22160.99,-12.93325,71.3261
21.544346900318832,20138.38,-11.33964,71.3186
46.41588833612777,18415.22,-10.51661,71.3235
100.0,17175.81,-10.07077,71.3235
215.44346900318823,15870.67,-9.078155,71.3206
464.15888336127773,14677.33,-7.961516,71.339
1000.0,13841.62,-7.213208,71.3276
2154.4346900318824,12885.29,-7.23898,71.3371
4641.588833612777,12340.76,-6.617397,71.3483
10000.0,11624.37,-9.691837,71.3495
