Frequency,Impedance,Phase Angle,Temperature (Dry Bath)
10.0,4139121.0,-7.158468,71.4777
21.544346900318832,15285990.0,-21.68482,71.4901
46.41588833612777,4762111.0,-28.27926,71.4788
100.0,764108.9,-60.2464,71.4826
215.44346900318823,935317.6,-53.39219,71.4913
464.15888336127773,898231.1,129.7162,71.4868
1000.0,418825.8,-92.50134,71.4879
2154.4346900318824,323634.0,-79.16686,71.5029
4641.588833612777,202150.4,-92.08265,71.5086
10000.0,112037.4,-89.52989,71.5099
