Frequency,Impedance,Phase Angle,Temperature (Dry Bath)
10.0,1962461.0,-7.322971,71.4375
21.544346900318832,1720076.0,-10.43676,71.4507
46.41588833612777,1924780.0,-14.58354,71.4388
100.0,471213.9,-54.4583,71.4366
215.44346900318823,628038.8,81.50393,71.4308
464.15888336127773,196249.4,-82.58083,71.4503
1000.0,193274.0,-135.1923,71.4452
2154.4346900318824,186612.8,-115.4342,71.4488
4641.588833612777,228401.2,-72.0828,71.4442
10000.0,108603.5,-67.60108,71.4392
