Frequency,Impedance,Phase Angle,Temperature (Dry Bath)
10.0,6295060.0,-39.45509,71.3278
21.544346900318832,5856820.0,15.27064,71.3371
46.41588833612777,5328884.0,-4.968361,71.3379
100.0,458911.6,44.54538,71.33
215.44346900318823,5243816.0,-87.84237,71.323
464.15888336127773,1539163.0,162.6777,71.3336
1000.0,1355150.0,8.961273,71.3319
2154.4346900318824,1604466.0,12.50429,71.3278
4641.588833612777,180494.2,-85.41364,71.3362
10000.0,120241.7,-84.99531,71.3213
