Frequency,Impedance,Phase Angle,Temperature (Dry Bath)
10.0,5079705.0,28.81607,71.2991
21.544346900318832,3643590.0,-11.7458,71.3024
46.41588833612777,3830167.0,-35.55983,71.293
100.0,1256764.0,-106.2103,71.2984
215.44346900318823,567590.2,-58.76999,71.2969
464.15888336127773,645814.3,-61.35265,71.2914
1000.0,1094806.0,-59.45679,71.3149
2154.4346900318824,249590.5,-116.5596,71.2801
4641.588833612777,139575.5,-87.36295,71.3027
10000.0,63496.1,-80.21412,71.311
