Frequency,Impedance,Phase Angle,Temperature (Dry Bath)
10.0,5514394.0,10.26152,70.6138
21.544346900318832,8295960.0,-9.965572,70.6183
46.41588833612777,4722481.0,-30.92249,70.6233
100.0,440292.6,-79.91257,70.6273
215.44346900318823,1563328.0,127.6562,70.6227
464.15888336127773,731347.6,-63.02073,70.6279
1000.0,740522.9,-68.32956,70.6256
2154.4346900318824,255483.8,-113.6513,70.6247
4641.588833612777,133486.7,-80.18522,70.626
10000.0,62997.81,-87.91262,70.6169
