Frequency,Impedance,Phase Angle,Temperature (Dry Bath)
10.0,4283785.0,-2.985144,71.4577
21.544346900318832,5591882.0,-12.39395,71.4579
46.41588833612777,3755115.0,-16.26241,71.4598
100.0,1240805.0,8.414396,71.4576
215.44346900318823,584615.2,-39.83083,71.4583
464.15888336127773,1060585.0,-163.5707,71.4463
1000.0,398235.9,-151.8333,71.4559
2154.4346900318824,269453.8,-83.21399,71.4555
4641.588833612777,118241.2,-78.1182,71.45
10000.0,84132.54,-84.97138,71.4522
