Frequency,Impedance,Phase Angle,Temperature (Dry Bath)
10.0,2769325.0,-23.01106,70.9571
21.544346900318832,3108850.0,-7.746807,70.9481
46.41588833612777,2318756.0,-19.39703,70.9408
100.0,342294.2,-45.64287,70.9501
215.44346900318823,1298559.0,-92.51031,70.9549
464.15888336127773,530142.7,-112.0872,70.9481
1000.0,412271.8,-49.35621,70.9526
2154.4346900318824,284499.2,-59.99941,70.9525
4641.588833612777,115626.9,-86.06743,70.9571
10000.0,64433.46,-84.84932,70.9518
