Frequency,Impedance,Phase Angle,Temperature (Dry Bath)
10.0,2467670.0,4.938817,71.2851
21.544346900318832,2621894.0,-15.93397,71.2958
46.41588833612777,2200628.0,-24.01015,71.2806
100.0,534048.6,-51.94105,71.2946
215.44346900318823,812043.0,-18.93405,71.2869
464.15888336127773,483899.2,-88.69376,71.2926
1000.0,314486.9,-120.2289,71.2762
2154.4346900318824,320426.2,-155.1927,71.285
4641.588833612777,159186.8,-94.4935,71.301
10000.0,115120.1,-99.81257,71.303
