Frequency,Impedance,Phase Angle,Temperature (Dry Bath)
10.0,6173029.0,10.36043,28.5362
21.544346900318832,4520292.0,-13.63274,29.0196
46.41588833612777,4739706.0,-0.05136422,28.7849
100.0,1036135.0,28.71601,28.2784
215.44346900318823,1068907.0,-70.39135,28.6282
464.15888336127773,1252403.0,-56.88449,28.5993
1000.0,638144.2,-132.4784,28.662
2154.4346900318824,408277.9,-66.33567,28.5157
4641.588833612777,262620.6,-92.12001,28.4477
10000.0,134262.4,-76.57489,28.632
