Frequency,Impedance,Phase Angle,Temperature (Dry Bath)
10.0,7437716.0,-5.182784,71.3881
21.544346900318832,5386284.0,-39.41463,71.3803
46.41588833612777,4796697.0,-26.69772,71.3956
100.0,1136088.0,-176.8449,71.3895
215.44346900318823,439077.8,-105.7879,71.3894
464.15888336127773,267484.3,23.28056,71.3804
1000.0,536013.3,43.11765,71.4046
2154.4346900318824,330419.2,-14.27828,71.3974
4641.588833612777,516148.4,-139.3401,71.4083
10000.0,123922.1,-71.07298,71.3997
