Frequency,Impedance,Phase Angle,Temperature (Dry Bath)
10.0,6257315.0,-15.75453,71.1066
21.544346900318832,4723191.0,-35.66375,71.1245
46.41588833612777,4614469.0,-18.07423,71.1147
100.0,356919.7,5.258565,71.1053
215.44346900318823,1929969.0,153.2837,71.116
464.15888336127773,343709.9,-57.66781,71.1194
1000.0,592477.3,-61.82286,71.1022
2154.4346900318824,311663.1,-118.596,71.0978
4641.588833612777,134499.4,-79.60441,71.0944
10000.0,61780.94,-88.4719,71.1009
