Frequency,Impedance,Phase Angle,Temperature (Dry Bath)
10.0,4358949.0,-13.82599,71.3837
21.544346900318832,4443992.0,-16.18834,71.3776
46.41588833612777,4512668.0,-15.50754,71.3613
100.0,365352.8,-0.2432282,71.3747
215.44346900318823,708196.7,-2.452146,71.3802
464.15888336127773,948930.3,-71.61503,71.3611
1000.0,228812.1,-80.02605,71.3765
2154.4346900318824,194136.2,-68.63928,71.3684
4641.588833612777,153039.5,-76.61713,71.3889
10000.0,67444.15,-95.08548,71.3874
