Frequency,Impedance,Phase Angle,Temperature (Dry Bath)
10.0,3464.136,-31.85449,71.1239
21.544346900318832,2724.327,-26.58586,71.1348
46.41588833612777,2233.203,-21.80449,71.1394
100.0,1906.956,-17.4482,71.125
215.44346900318823,1688.091,-13.88514,71.1333
464.15888336127773,1529.43,-11.17956,71.1341
1000.0,1413.416,-8.918088,71.1295
2154.4346900318824,1328.263,-7.339604,71.1206
4641.588833612777,1266.226,-6.193666,71.1286
10000.0,1218.219,-5.517207,71.1327
