Frequency,Impedance,Phase Angle,Temperature (Dry Bath)
10.0,6465193.0,-24.52749,71.0781
21.544346900318832,6189983.0,-16.49468,71.0917
46.41588833612777,5012296.0,-20.67633,71.0933
100.0,387223.0,-48.83193,71.0859
215.44346900318823,1401988.0,14.31493,71.0786
464.15888336127773,430409.5,-70.06339,71.0941
1000.0,732184.6,-66.12788,71.0898
2154.4346900318824,207336.7,-94.76624,71.0914
4641.588833612777,116222.4,-87.76542,71.0933
10000.0,59530.17,-91.53971,71.0698
