Frequency,Impedance,Phase Angle,Temperature (Dry Bath)
10.0,150381.8,-10.53297,71.261
21.544346900318832,140481.7,-8.599633,71.2427
46.41588833612777,131525.9,-9.337215,71.2493
100.0,134402.8,-1.534114,71.2699
215.44346900318823,110559.1,-17.05861,71.2548
464.15888336127773,111904.4,-20.3582,71.2532
1000.0,89440.4,-26.66089,71.2593
2154.4346900318824,87162.46,-28.18827,71.2591
4641.588833612777,67372.65,-44.27837,71.2659
10000.0,42323.15,-61.81468,71.2526
