Frequency,Impedance,Phase Angle,Temperature (Dry Bath)
10.0,4713395.0,-18.68696,71.3333
21.544346900318832,3875383.0,2.190782,71.3281
46.41588833612777,4984741.0,-27.7192,71.2966
100.0,2767329.0,2.00231,71.2897
215.44346900318823,1197299.0,-16.5944,71.3061
464.15888336127773,909188.4,-99.71072,71.3125
1000.0,624933.2,-116.792,71.297
2154.4346900318824,295050.3,-69.50465,71.3155
4641.588833612777,113882.8,-90.88419,71.3218
10000.0,60937.2,-82.224,71.2905
