Frequency,Impedance,Phase Angle,Temperature (Dry Bath)
10.0,5615746.0,4.10321,70.649
21.544346900318832,4246051.0,-6.538748,70.6286
46.41588833612777,3835071.0,-29.96293,70.6545
100.0,858380.5,-1.879845,70.6438
215.44346900318823,538580.6,-43.52739,70.6385
464.15888336127773,946902.6,-97.6387,70.639
1000.0,390696.0,-61.79745,70.6544
2154.4346900318824,275912.5,-110.1402,70.6421
4641.588833612777,179398.6,-88.64813,70.6468
10000.0,63086.44,-77.23415,70.63
