Frequency,Impedance,Phase Angle,Temperature (Dry Bath)
10.0,6863843.0,15.13981,71.2393
21.544346900318832,5548656.0,-1.214744,71.2393
46.41588833612777,5741649.0,-19.0949,71.2391
100.0,550767.6,-76.32228,71.2248
215.44346900318823,1836074.0,-175.8226,71.2413
464.15888336127773,825464.8,16.98362,71.2419
1000.0,957057.0,-72.6181,71.2246
2154.4346900318824,676263.3,-58.51805,71.2401
4641.588833612777,337458.6,-89.77448,71.2277
10000.0,134039.4,-90.56818,71.2429
