Frequency,Impedance,Phase Angle,Temperature (Dry Bath)
10.0,371522.7,-25.73302,71.1505
21.544346900318832,310529.7,-23.01518,71.1496
46.41588833612777,264949.6,-21.28075,71.1495
100.0,263544.6,-56.6198,71.1317
215.44346900318823,217051.2,-20.04935,71.1515
464.15888336127773,168277.2,-28.37947,71.1445
1000.0,160597.5,-35.0167,71.1354
2154.4346900318824,109507.7,-38.47776,71.1496
4641.588833612777,84003.83,-56.66718,71.138
10000.0,43544.48,-70.67596,71.1507
