Frequency,Impedance,Phase Angle,Temperature (Dry Bath)
10.0,6861019.0,-2.269064,70.6352
21.544346900318832,4118809.0,1.786982,70.6479
46.41588833612777,4421167.0,-23.83038,70.6544
100.0,484941.5,-26.70202,70.6507
215.44346900318823,523993.0,-56.07864,70.6461
464.15888336127773,553787.0,166.4581,70.6403
1000.0,303648.4,-74.59142,70.6591
2154.4346900318824,912397.0,-71.555,70.6264
4641.588833612777,113151.4,-87.66832,70.636
10000.0,51240.82,-86.45355,70.6447
