Frequency,Impedance,Phase Angle,Temperature (Dry Bath)
10.0,7787.161,-23.38376,70.8102
21.544346900318832,6543.385,-19.91411,70.82
46.41588833612777,5653.488,-17.26347,70.8082
100.0,5040.299,-14.46571,70.8227
215.44346900318823,4444.729,-13.43249,70.8296
464.15888336127773,4005.587,-11.85538,70.8056
1000.0,3657.266,-10.32945,70.8127
2154.4346900318824,3382.721,-9.209779,70.8196
4641.588833612777,3183.968,-8.601664,70.8352
10000.0,2997.475,-9.419378,70.8141
