Frequency,Impedance,Phase Angle,Temperature (Dry Bath)
10.0,13311.67,-30.02874,70.8236
21.544346900318832,10524.6,-27.29852,70.8296
46.41588833612777,8494.967,-24.50279,70.8289
100.0,7082.842,-21.73507,70.8279
215.44346900318823,5947.734,-18.73481,70.8263
464.15888336127773,5140.704,-15.76341,70.8337
1000.0,4588.882,-12.57125,70.8308
2154.4346900318824,4179.674,-10.31705,70.8234
4641.588833612777,3909.62,-9.877629,70.8304
10000.0,3699.522,-9.770539,70.8258
