Frequency,Impedance,Phase Angle,Temperature (Dry Bath)
10.0,5491404.0,-8.881093,71.3527
21.544346900318832,3558930.0,-16.50885,71.3533
46.41588833612777,4568120.0,-14.14347,71.3503
100.0,1903452.0,-33.12822,71.3607
215.44346900318823,686320.3,95.22736,71.3507
464.15888336127773,751761.8,-145.1492,71.3493
1000.0,353711.3,-56.88275,71.3556
2154.4346900318824,525766.5,-49.67406,71.3565
4641.588833612777,136103.2,-86.19581,71.3591
10000.0,62816.28,-82.79291,71.3518
