Frequency,Impedance,Phase Angle,Temperature (Dry Bath)
10.0,3444306.0,-13.95802,71.3215
21.544346900318832,5817528.0,-14.96917,71.3203
46.41588833612777,3768510.0,-18.20979,71.3279
100.0,546331.4,-18.38389,71.3166
215.44346900318823,580628.2,143.3161,71.3141
464.15888336127773,1040824.0,-85.97648,71.3136
1000.0,591678.7,-111.2425,71.3189
2154.4346900318824,219703.6,-99.45672,71.3108
4641.588833612777,116530.7,-84.01096,71.3116
10000.0,62984.08,-74.50225,71.3147
