Frequency,Impedance,Phase Angle,Temperature (Dry Bath)
10.0,4084791.0,3.117353,71.2401
21.544346900318832,3972227.0,6.788527,71.2387
46.41588833612777,5122717.0,-33.4994,71.239
100.0,2397293.0,-41.97348,71.2463
215.44346900318823,647334.4,108.8361,71.219
464.15888336127773,741862.1,-61.11779,71.2203
1000.0,832867.6,-177.8409,71.2254
2154.4346900318824,326990.2,-15.14134,71.2495
4641.588833612777,213629.3,-85.41963,71.2554
10000.0,164244.4,-68.83487,71.2462
