Frequency,Impedance,Phase Angle,Temperature (Dry Bath)
10.0,7035408.0,-11.4828,70.9557
21.544346900318832,3771503.0,-29.34292,70.9519
46.41588833612777,9842047.0,-14.9999,70.953
100.0,2284487.0,38.71693,70.9504
215.44346900318823,906047.8,-124.9711,70.9688
464.15888336127773,611505.1,-39.62537,70.9454
1000.0,682354.0,-49.33166,70.9442
2154.4346900318824,236878.6,-79.84462,70.9597
4641.588833612777,147364.1,-84.86082,70.9541
10000.0,58175.76,-86.90146,70.9405
