Frequency,Impedance,Phase Angle,Temperature (Dry Bath)
10.0,14845.4,-19.46049,71.0562
21.544346900318832,12800.96,-16.60021,71.0523
46.41588833612777,11293.23,-14.50132,71.0599
100.0,10262.54,-12.73715,71.069
215.44346900318823,9174.373,-10.93621,71.0527
464.15888336127773,8404.033,-11.56687,71.0533
1000.0,7904.985,-9.207901,71.0682
2154.4346900318824,7313.113,-9.513206,71.0735
4641.588833612777,6824.317,-10.27439,71.0513
10000.0,6419.534,-12.77333,71.0617
