Frequency,Impedance,Phase Angle,Temperature (Dry Bath)
10.0,17123.04,-22.95937,71.369
21.544346900318832,14190.28,-21.48067,71.3637
46.41588833612777,11907.47,-19.80038,71.386
100.0,10035.8,-17.71893,71.365
215.44346900318823,8772.294,-14.86111,71.3889
464.15888336127773,7865.845,-13.31834,71.376
1000.0,7027.834,-11.80896,71.3798
2154.4346900318824,6579.526,-9.952388,71.374
4641.588833612777,6076.915,-9.522367,71.3766
10000.0,5717.157,-9.598466,71.376
