Frequency,Impedance,Phase Angle,Temperature (Dry Bath)
10.0,4019916.0,-15.24011,70.8958
21.544346900318832,4446387.0,-0.2583665,70.9097
46.41588833612777,3941904.0,-31.78044,70.9134
100.0,530335.1,-7.804732,70.9164
215.44346900318823,1506203.0,162.9833,70.9132
464.15888336127773,643271.2,-14.84938,70.9148
1000.0,3959396.0,-128.2031,70.9316
2154.4346900318824,243401.0,-84.04833,70.9062
4641.588833612777,137683.9,-71.80367,70.9226
10000.0,59965.91,-89.05501,70.9091
