Frequency,Impedance,Phase Angle,Temperature (Dry Bath)
10.0,14414.78,-19.65878,70.957
21.544346900318832,12420.66,-16.842,70.9504
46.41588833612777,10918.86,-14.79566,70.9532
100.0,9660.351,-13.68952,70.964
215.44346900318823,8940.8,-11.24884,70.9552
464.15888336127773,8175.845,-11.15726,70.959
1000.0,7478.521,-8.992075,70.967
2154.4346900318824,6990.511,-9.992282,70.9519
4641.588833612777,6617.095,-9.741327,70.9502
10000.0,6108.505,-12.96304,70.9658
