Frequency,Impedance,Phase Angle,Temperature (Dry Bath)
10.0,3822174.0,-0.5276359,71.4756
21.544346900318832,4605878.0,-19.45845,71.4535
46.41588833612777,4661626.0,-23.79727,71.4623
100.0,1153157.0,-56.6323,71.4866
215.44346900318823,608925.1,44.75,71.4692
464.15888336127773,2224529.0,15.15049,71.4758
1000.0,181198.1,-40.84864,71.4784
2154.4346900318824,284510.4,-77.81913,71.4795
4641.588833612777,136719.4,-86.78759,71.4738
10000.0,64262.36,-81.64451,71.4659
