Frequency,Impedance,Phase Angle,Temperature (Dry Bath)
10.0,3876154.0,-10.44429,71.4259
21.544346900318832,4162776.0,-15.25032,71.4044
46.41588833612777,6182178.0,-19.06045,71.4081
100.0,535555.9,-130.1716,71.4267
215.44346900318823,734069.6,-90.95109,71.4286
464.15888336127773,649900.5,-97.31204,71.4317
1000.0,265462.6,-121.1545,71.4345
2154.4346900318824,283792.3,-77.98143,71.421
4641.588833612777,173315.6,-81.36974,71.4151
10000.0,63169.5,-95.16771,71.4098
