Frequency,Impedance,Phase Angle,Temperature (Dry Bath)
10.0,4943370.0,8.938593,70.9529
21.544346900318832,4781293.0,-4.470108,70.9662
46.41588833612777,4134739.0,-35.06164,70.9758
100.0,1927834.0,-111.1938,70.9511
215.44346900318823,1210372.0,42.61781,70.953
464.15888336127773,1027453.0,30.45412,70.9538
1000.0,429772.6,-65.23437,70.9601
2154.4346900318824,229987.2,-82.99238,70.9529
4641.588833612777,138301.5,-81.74846,70.9474
10000.0,64000.65,-87.10706,70.9669
