Frequency,Impedance,Phase Angle,Temperature (Dry Bath)
10.0,40339.51,-29.74986,71.1718
21.544346900318832,31648.04,-28.74066,71.1667
46.41588833612777,24775.03,-27.1871,71.1605
100.0,19225.94,-22.07051,71.1574
215.44346900318823,16826.29,-23.90578,71.1523
464.15888336127773,13575.15,-20.82836,71.1513
1000.0,11458.03,-16.90474,71.1649
2154.4346900318824,10348.13,-16.69627,71.1696
4641.588833612777,9049.823,-15.69104,71.1693
10000.0,8178.334,-18.5199,71.1679
