Frequency,Impedance,Phase Angle,Temperature (Dry Bath)
10.0,152558.3,-17.42907,71.2524
21.544346900318832,133693.2,-17.54082,71.2555
46.41588833612777,117272.5,-16.0117,71.2495
100.0,103145.9,-14.77423,71.2219
215.44346900318823,78991.84,-16.39324,71.2544
464.15888336127773,98138.04,-30.93078,71.2704
1000.0,61975.04,-26.87468,71.2252
2154.4346900318824,60039.16,-27.96305,71.2372
4641.588833612777,41629.85,-39.30928,71.242
10000.0,30451.37,-46.58531,71.2349
