Frequency,Impedance,Phase Angle,Temperature (Dry Bath)
10.0,5951146.0,-10.40534,71.1223
21.544346900318832,3920714.0,-21.90184,71.1215
46.41588833612777,2716063.0,-17.08641,71.1133
100.0,700359.5,-54.37486,71.1227
215.44346900318823,1082393.0,-110.2524,71.1168
464.15888336127773,347391.4,-44.9689,71.1324
1000.0,444970.8,-70.54435,71.1239
2154.4346900318824,352200.9,-95.59719,71.0979
4641.588833612777,137126.4,-64.24162,71.1164
10000.0,59913.42,-89.42026,71.1191
