Frequency,Impedance,Phase Angle,Temperature (Dry Bath)
10.0,6528977.0,-20.90833,71.4957
21.544346900318832,7172830.0,4.766879,71.5077
46.41588833612777,4320128.0,-9.410164,71.5102
100.0,566185.6,96.04292,71.4985
215.44346900318823,938782.5,119.8059,71.4921
464.15888336127773,1358361.0,-34.31994,71.5053
1000.0,1292541.0,-178.4091,71.5033
2154.4346900318824,352878.4,-66.56607,71.5054
4641.588833612777,241835.1,-76.70833,71.5037
10000.0,118455.4,-78.88672,71.4989
