Frequency,Impedance,Phase Angle,Temperature (Dry Bath)
10.0,9715.088,-25.68901,70.7219
21.544346900318832,7924.973,-22.521,70.7412
46.41588833612777,6648.886,-19.56301,70.7334
100.0,5803.997,-16.81196,70.7409
215.44346900318823,5030.012,-14.76631,70.7289
464.15888336127773,4517.591,-12.5473,70.73
1000.0,4161.096,-10.07616,70.7223
2154.4346900318824,3765.056,-9.493339,70.7298
4641.588833612777,3552.977,-8.853167,70.7239
10000.0,3353.978,-9.751806,70.7346
