Frequency,Impedance,Phase Angle,Temperature (Dry Bath)
10.0,5173842.0,-16.97499,71.3245
21.544346900318832,4538056.0,-6.501672,71.3224
46.41588833612777,5936343.0,-28.39684,71.3433
100.0,1123435.0,-44.20248,71.3079
215.44346900318823,432607.1,-170.4843,71.3302
464.15888336127773,603974.5,-100.2571,71.3255
1000.0,176303.4,-120.3625,71.3004
2154.4346900318824,597999.8,-110.6815,71.3313
4641.588833612777,126641.9,-93.31385,71.3447
10000.0,64631.61,-93.0955,71.3173
