Frequency,Impedance,Phase Angle,Temperature (Dry Bath)
10.0,1252691.0,-15.29954,71.3125
21.544346900318832,1101418.0,-16.78071,71.3065
46.41588833612777,1181237.0,-7.494849,71.3114
100.0,391028.9,2.321894,71.3088
215.44346900318823,63798.47,-15.44183,71.307
464.15888336127773,838526.8,-111.9144,71.3164
1000.0,300219.1,21.84816,71.3085
2154.4346900318824,280570.7,-84.2674,71.3171
4641.588833612777,134337.0,-58.67888,71.324
10000.0,56920.98,-73.3609,71.3176
