Frequency,Impedance,Phase Angle,Temperature (Dry Bath)
10.0,6468.152,-35.83892,70.859
21.544346900318832,4894.739,-30.99645,70.8522
46.41588833612777,3860.424,-26.40053,70.8359
100.0,3153.264,-22.19689,70.851
215.44346900318823,2682.113,-18.67236,70.8471
464.15888336127773,2348.09,-15.33141,70.849
1000.0,2097.97,-12.57524,70.846
2154.4346900318824,1906.18,-10.81141,70.839
4641.588833612777,1755.497,-9.486967,70.8495
10000.0,1644.077,-8.604328,70.8359
