Frequency,Impedance,Phase Angle,Temperature (Dry Bath)
10.0,4745007.0,1.106265,71.5753
21.544346900318832,4380040.0,-8.246469,71.5897
46.41588833612777,4241752.0,-12.03205,71.5908
100.0,1469142.0,56.95276,71.5728
215.44346900318823,1595535.0,-64.21163,71.5871
464.15888336127773,737663.0,-67.68142,71.5785
1000.0,560424.1,-60.71694,71.5983
2154.4346900318824,645889.8,-52.30826,71.5757
4641.588833612777,376259.5,-68.34973,71.5622
10000.0,105437.3,-98.68203,71.5806
