Frequency,Impedance,Phase Angle,Temperature (Dry Bath)
10.0,5400.642,-35.74742,70.2681
21.544346900318832,4079.903,-30.04713,70.2686
46.41588833612777,3265.626,-24.54392,70.2625
100.0,2744.416,-19.72728,70.2678
215.44346900318823,2376.403,-16.38323,70.2727
464.15888336127773,2117.597,-13.77459,70.2819
1000.0,1915.45,-11.17927,70.305
2154.4346900318824,1755.363,-9.950335,70.269
4641.588833612777,1632.599,-8.680805,70.2764
10000.0,1537.147,-8.048785,70.262
