Frequency,Impedance,Phase Angle,Temperature (Dry Bath)
10.0,5202270.0,4.653576,70.849
21.544346900318832,10247560.0,-38.29548,70.8466
46.41588833612777,4050302.0,-18.12313,70.8506
100.0,785316.9,66.68296,70.8584
215.44346900318823,649058.3,-104.3417,70.8529
464.15888336127773,690013.4,-86.0794,70.8669
1000.0,789586.1,-35.45852,70.8521
2154.4346900318824,291252.9,-68.44157,70.8637
4641.588833612777,121946.9,-89.9411,70.8597
10000.0,65570.93,-88.05693,70.8528
