Frequency,Impedance,Phase Angle,Temperature (Dry Bath)
10.0,5134754.0,-8.618643,70.8576
21.544346900318832,4706981.0,-27.14536,70.86
46.41588833612777,4769591.0,-6.850022,70.861
100.0,462285.4,-57.17932,70.8616
215.44346900318823,788151.5,-118.9343,70.8634
464.15888336127773,686425.9,-69.38562,70.8669
1000.0,1381168.0,-164.6233,70.8411
2154.4346900318824,270533.1,-86.34429,70.8666
4641.588833612777,153058.7,-97.79855,70.8536
10000.0,60776.05,-85.92357,70.869
