Frequency,Impedance,Phase Angle,Temperature (Dry Bath)
10.0,4853926.0,-20.49868,71.5347
21.544346900318832,4717820.0,-11.39469,71.5431
46.41588833612777,4114012.0,-29.80006,71.5327
100.0,472302.5,-36.47264,71.5382
215.44346900318823,3814620.0,177.2902,71.5416
464.15888336127773,695698.4,-24.99703,71.5437
1000.0,309705.5,-34.73184,71.5358
2154.4346900318824,337348.3,-68.16434,71.5461
4641.588833612777,113224.8,-81.36582,71.5312
10000.0,55973.91,-79.48379,71.5361
