Frequency,Impedance,Phase Angle,Temperature (Dry Bath)
10.0,24129640.0,-46.22445,71.5209
21.544346900318832,4615158.0,1.854649,71.5366
46.41588833612777,5188548.0,0.4139441,71.5456
100.0,2322731.0,-101.7869,71.5334
215.44346900318823,780927.8,25.60278,71.5244
464.15888336127773,4420504.0,66.1146,71.5103
1000.0,767881.2,-87.73589,71.5451
2154.4346900318824,963163.6,-69.97499,71.5297
4641.588833612777,366256.8,-106.0937,71.515
10000.0,151500.0,-94.22492,71.5267
