Frequency,Impedance,Phase Angle,Temperature (Dry Bath)
10.0,177407.2,-12.22301,71.2743
21.544346900318832,162490.9,-12.33919,71.2709
46.41588833612777,148611.8,-12.19689,71.2783
100.0,174520.7,-15.74815,71.2803
215.44346900318823,140044.7,-17.05767,71.2809
464.15888336127773,106496.8,-20.762,71.2744
1000.0,81473.71,-15.55214,71.2813
2154.4346900318824,87117.53,-23.82569,71.268
4641.588833612777,72057.49,-36.67803,71.2637
10000.0,46080.16,-55.40482,71.2797
