Frequency,Impedance,Phase Angle,Temperature (Dry Bath)
10.0,9685627.0,8.424215,70.6966
21.544346900318832,4838375.0,-2.550135,70.6701
46.41588833612777,3860187.0,-37.16648,70.6715
100.0,604443.6,-156.124,70.6643
215.44346900318823,640922.7,-140.9715,70.6782
464.15888336127773,673045.2,-31.37509,70.6739
1000.0,376101.8,-88.79828,70.6943
2154.4346900318824,241334.0,-81.11832,70.6862
4641.588833612777,134064.5,-102.052,70.6828
10000.0,49942.93,-90.16921,70.704
