Frequency,Impedance,Phase Angle,Temperature (Dry Bath)
10.0,9886655.0,-16.62725,70.9569
21.544346900318832,5664136.0,-9.77993,70.9488
46.41588833612777,5516437.0,-57.83965,70.9661
100.0,1391874.0,-95.97036,70.9526
215.44346900318823,729300.9,3.993985,70.9501
464.15888336127773,1487829.0,-53.88015,70.9534
1000.0,3738717.0,-101.4117,70.9379
2154.4346900318824,315306.9,-88.52904,70.9342
4641.588833612777,115723.7,-83.95313,70.9701
10000.0,56277.19,-85.21012,70.952
