Frequency,Impedance,Phase Angle,Temperature (Dry Bath)
10.0,3956142.0,-8.650294,71.5543
21.544346900318832,4864519.0,-31.73304,71.5711
46.41588833612777,3136999.0,-22.15624,71.5469
100.0,418345.3,-53.38435,71.5493
215.44346900318823,649943.6,-88.21302,71.5452
464.15888336127773,306134.1,-81.90518,71.5527
1000.0,313744.6,168.2536,71.5369
2154.4346900318824,272776.3,-89.36276,71.5569
4641.588833612777,112918.5,-89.66414,71.5481
10000.0,63306.47,-84.93986,71.5422
