Frequency,Impedance,Phase Angle,Temperature (Dry Bath)
10.0,29006.03,-20.59836,71.7432
21.544346900318832,24457.41,-21.8472,71.7519
46.41588833612777,20268.29,-23.44358,71.7493
100.0,17238.13,-23.61701,71.7311
215.44346900318823,12992.75,-26.32732,71.7464
464.15888336127773,10181.34,-28.97673,71.753
1000.0,7625.54,-27.93531,71.7485
2154.4346900318824,6225.628,-26.59222,71.7405
4641.588833612777,4956.891,-23.59268,71.7518
10000.0,4250.431,-20.00162,71.7457
