Frequency,Impedance,Phase Angle,Temperature (Dry Bath)
10.0,4245456.0,4.962255,71.2533
21.544346900318832,3954268.0,-21.71339,71.2527
46.41588833612777,4142704.0,-23.71206,71.2577
100.0,666645.9,21.03348,71.2615
215.44346900318823,484289.9,157.9573,71.2539
464.15888336127773,1462416.0,-89.39093,71.2365
1000.0,516367.1,-33.1189,71.2531
2154.4346900318824,330827.0,-104.9486,71.247
4641.588833612777,119367.3,-95.84127,71.2572
10000.0,69349.28,-89.53242,71.2594
