Frequency,Impedance,Phase Angle,Temperature (Dry Bath)
10.0,3883234.0,21.1293,71.5216
21.544346900318832,5902106.0,-16.17254,71.5366
46.41588833612777,4409907.0,-26.52696,71.5479
100.0,453016.1,44.65469,71.5324
215.44346900318823,1056249.0,4.000853,71.5344
464.15888336127773,582602.1,-118.0846,71.542
1000.0,295500.6,-70.46058,71.5193
2154.4346900318824,299559.0,-98.13605,71.527
4641.588833612777,149234.3,-93.48118,71.5449
10000.0,78230.49,-83.40942,71.5308
