Frequency,Impedance,Phase Angle,Temperature (Dry Bath)
10.0,3613216.0,13.40162,71.2791
21.544346900318832,5061276.0,-9.684314,71.2806
46.41588833612777,3737673.0,-24.76184,71.2763
100.0,761881.7,93.31052,71.295
215.44346900318823,386389.1,-107.3285,71.2918
464.15888336127773,711940.1,-43.52748,71.2846
1000.0,799756.6,22.21788,71.2821
2154.4346900318824,262993.5,-84.371,71.2763
4641.588833612777,136937.3,-80.69294,71.2935
10000.0,69639.32,-82.10928,71.2921
