Frequency,Impedance,Phase Angle,Temperature (Dry Bath)
10.0,6127893.0,-9.418919,71.2798
21.544346900318832,7375706.0,-3.183122,71.2658
46.41588833612777,5587459.0,-23.55653,71.252
100.0,962417.1,-53.57307,71.2667
215.44346900318823,807954.2,61.18006,71.2532
464.15888336127773,663788.5,-130.4327,71.2569
1000.0,269981.0,-48.70576,71.2617
2154.4346900318824,291089.5,-81.53612,71.2753
4641.588833612777,117991.9,-82.29906,71.255
10000.0,59949.19,-82.18483,71.2568
