Frequency,Impedance,Phase Angle,Temperature (Dry Bath)
10.0,3117845.0,-16.94807,71.21
21.544346900318832,2452280.0,-12.69198,71.1998
46.41588833612777,2763886.0,-21.79288,71.2025
100.0,333796.5,5.121298,71.2161
215.44346900318823,6589279.0,-34.09351,71.211
464.15888336127773,697721.4,-55.09424,71.215
1000.0,532356.1,-60.30594,71.2108
2154.4346900318824,413162.5,-51.25255,71.207
4641.588833612777,138877.2,-87.53655,71.221
10000.0,65033.65,-83.63302,71.2168
