Frequency,Impedance,Phase Angle,Temperature (Dry Bath)
10.0,10704710.0,-14.33216,71.1748
21.544346900318832,4134109.0,9.226992,71.1982
46.41588833612777,3788180.0,-23.57541,71.1969
100.0,731174.8,138.5828,71.2028
215.44346900318823,1682224.0,-61.2511,71.1964
464.15888336127773,2359798.0,-41.17024,71.193
1000.0,252337.0,-69.98058,71.2052
2154.4346900318824,418046.7,-95.13937,71.2168
4641.588833612777,120090.8,-82.6303,71.2068
10000.0,67745.19,-85.96698,71.2015
