Frequency,Impedance,Phase Angle,Temperature (Dry Bath)
10.0,3666681.0,-4.076652,70.5982
21.544346900318832,3897612.0,-32.93115,70.6017
46.41588833612777,3614086.0,-26.20069,70.6025
100.0,451979.7,-19.07513,70.6174
215.44346900318823,2363342.0,85.63164,70.6029
464.15888336127773,285351.1,-52.96478,70.6026
1000.0,775927.4,-42.886,70.6081
2154.4346900318824,219451.1,-101.5328,70.6154
4641.588833612777,146645.9,-82.92908,70.5995
10000.0,62919.05,-87.52525,70.6169
