Frequency,Impedance,Phase Angle,Temperature (Dry Bath)
10.0,103420.5,-14.71719,71.3416
21.544346900318832,91293.77,-12.84521,71.3388
46.41588833612777,82678.49,-12.39682,71.3443
100.0,89334.83,-10.0572,71.3499
215.44346900318823,72175.94,-12.31755,71.3407
464.15888336127773,66143.46,-13.22214,71.3503
1000.0,58639.78,-17.9882,71.3403
2154.4346900318824,49501.12,-25.36916,71.3252
4641.588833612777,41661.62,-42.18288,71.3306
10000.0,29107.99,-54.78393,71.3239
