Frequency,Impedance,Phase Angle,Temperature (Dry Bath)
10.0,4833248.0,-3.662714,70.6347
21.544346900318832,2975769.0,-24.34219,70.6358
46.41588833612777,4263768.0,-27.26472,70.6398
100.0,624418.6,92.97468,70.6434
215.44346900318823,321993.2,-79.29358,70.6328
464.15888336127773,4165685.0,-30.88664,70.6464
1000.0,1207104.0,177.4135,70.6435
2154.4346900318824,199386.6,-89.38315,70.6416
4641.588833612777,118710.1,-98.30443,70.6523
10000.0,70242.05,-86.85359,70.6444
