Frequency,Impedance,Phase Angle,Temperature (Dry Bath)
10.0,24287.78,-19.98446,71.2613
21.544346900318832,20776.36,-17.78504,71.2638
46.41588833612777,18087.19,-15.7433,71.2576
100.0,15837.06,-15.46356,71.2508
215.44346900318823,14409.1,-11.04993,71.263
464.15888336127773,13335.6,-11.02129,71.2411
1000.0,12316.24,-10.1866,71.2485
2154.4346900318824,11227.57,-10.35054,71.2624
4641.588833612777,10614.12,-12.4456,71.2453
10000.0,10039.26,-16.68974,71.2518
