Frequency,Impedance,Phase Angle,Temperature (Dry Bath)
10.0,4515703.0,-0.4672707,71.1427
21.544346900318832,4717425.0,2.059703,71.1476
46.41588833612777,4739604.0,-26.14142,71.1492
100.0,1237768.0,111.1987,71.1409
215.44346900318823,587375.9,42.08563,71.1479
464.15888336127773,395251.1,-23.11873,71.1424
1000.0,685599.9,27.67229,71.1353
2154.4346900318824,207651.6,-79.9396,71.1191
4641.588833612777,117088.5,-83.42303,71.1369
10000.0,60899.64,-85.03326,71.1541
