Frequency,Impedance,Phase Angle,Temperature (Dry Bath)
10.0,4234547.0,-7.342983,70.8331
21.544346900318832,16808210.0,-19.92117,70.8239
46.41588833612777,5276990.0,-26.45861,70.8022
100.0,270358.7,-96.55469,70.8268
215.44346900318823,1292916.0,-60.51222,70.828
464.15888336127773,414253.4,22.51281,70.8359
1000.0,398285.0,-111.018,70.8067
2154.4346900318824,341831.9,-98.31457,70.8151
4641.588833612777,161844.8,-105.1883,70.8213
10000.0,61487.21,-86.95954,70.8316
