Frequency,Impedance,Phase Angle,Temperature (Dry Bath)
10.0,3237532.0,-20.43583,71.1838
21.544346900318832,2685311.0,-32.53668,71.1839
46.41588833612777,3080580.0,-25.13021,71.1864
100.0,1366073.0,101.7581,71.1877
215.44346900318823,3189758.0,-122.1934,71.1777
464.15888336127773,542272.8,76.16451,71.1964
1000.0,451289.9,-67.08491,71.1841
2154.4346900318824,404480.3,-68.63558,71.1953
4641.588833612777,125483.6,-67.88872,71.1859
10000.0,65107.89,-89.86058,71.1993
