Frequency,Impedance,Phase Angle,Temperature (Dry Bath)
10.0,673550.2,-4.532901,71.2207
21.544346900318832,648714.9,-6.414343,71.2206
46.41588833612777,611940.9,-3.104158,71.2139
100.0,262600.4,-20.34051,71.23
215.44346900318823,1101160.0,115.0045,71.2238
464.15888336127773,873242.7,-23.27481,71.2364
1000.0,495681.1,-25.88479,71.2227
2154.4346900318824,492164.0,-62.87735,71.2345
4641.588833612777,128590.6,-62.68981,71.2371
10000.0,90642.38,-67.2572,71.2276
