Frequency,Impedance,Phase Angle,Temperature (Dry Bath)
10.0,3340741.0,-6.495366,70.7454
21.544346900318832,4521198.0,-19.88632,70.7544
46.41588833612777,4279393.0,-31.81597,70.7432
100.0,494892.1,-23.68697,70.7372
215.44346900318823,1722022.0,-84.57009,70.7505
464.15888336127773,420418.8,-93.41208,70.7546
1000.0,346855.8,-42.48476,70.7392
2154.4346900318824,181711.2,-99.19613,70.7462
4641.588833612777,120153.7,-88.897,70.7362
10000.0,56228.34,-96.64378,70.7353
