Frequency,Impedance,Phase Angle,Temperature (Dry Bath)
10.0,5915772.0,-7.445258,71.3147
21.544346900318832,4227178.0,0.2537316,71.3053
46.41588833612777,5685737.0,-21.01838,71.323
100.0,951752.3,159.7655,71.3145
215.44346900318823,1193840.0,44.1464,71.3127
464.15888336127773,1228709.0,-122.9808,71.3105
1000.0,495144.7,-103.3724,71.3161
2154.4346900318824,896830.5,-79.13335,71.314
4641.588833612777,197640.3,-93.66314,71.3101
10000.0,103375.0,-82.43767,71.3044
