Frequency,Impedance,Phase Angle,Temperature (Dry Bath)
10.0,6684133.0,6.181363,71.0583
21.544346900318832,5002177.0,-6.915567,71.0541
46.41588833612777,4749747.0,-21.5758,71.0618
100.0,771024.4,110.0199,71.0511
215.44346900318823,1467607.0,-61.5213,71.0486
464.15888336127773,585596.6,-107.6387,71.0472
1000.0,257183.5,-60.79357,71.0627
2154.4346900318824,285566.4,-75.96077,71.0381
4641.588833612777,132477.0,-88.59492,71.058
10000.0,53280.33,-81.96715,71.0661
