Frequency,Impedance,Phase Angle,Temperature (Dry Bath)
10.0,56834.94,-11.12116,29.5422
21.544346900318832,52664.15,-9.247509,29.3421
46.41588833612777,49396.42,-7.937712,29.5441
100.0,44946.94,-9.414516,29.5581
215.44346900318823,44708.89,-7.880696,29.5846
464.15888336127773,42170.96,-5.440649,29.5819
1000.0,40247.57,-13.19028,29.4486
2154.4346900318824,36542.67,-10.58673,29.3078
4641.588833612777,35829.95,-15.31557,29.3586
10000.0,31251.99,-25.22006,29.5178
