Frequency,Impedance,Phase Angle,Temperature (Dry Bath)
10.0,953314.7,-30.37572,71.1919
21.544346900318832,783220.3,-23.76413,71.204
46.41588833612777,605353.7,-23.18878,71.1997
100.0,766559.1,-78.67895,71.2013
215.44346900318823,440572.3,-48.13681,71.2053
464.15888336127773,174900.9,-17.63394,71.2079
1000.0,218242.9,-36.98705,71.192
2154.4346900318824,180271.7,-62.02266,71.1966
4641.588833612777,109251.3,-72.69529,71.1969
10000.0,51532.82,-69.90015,71.19
