Frequency,Impedance,Phase Angle,Temperature (Dry Bath)
10.0,10293.43,-25.60287,70.5102
21.544346900318832,8408.549,-22.47206,70.4815
46.41588833612777,7048.785,-19.58542,70.5116
100.0,5939.389,-16.92303,70.4985
215.44346900318823,5356.258,-14.35025,70.5096
464.15888336127773,4786.932,-12.13296,70.4965
1000.0,4274.015,-12.3891,70.5022
2154.4346900318824,4012.341,-9.947635,70.5003
4641.588833612777,3767.981,-9.91537,70.4929
10000.0,3550.852,-9.944221,70.4985
