Frequency,Impedance,Phase Angle,Temperature (Dry Bath)
10.0,5640600.0,27.48859,71.2908
21.544346900318832,8393898.0,-12.41738,71.2834
46.41588833612777,6055618.0,-17.26649,71.2888
100.0,4425754.0,59.94573,71.2925
215.44346900318823,995850.4,-109.1162,71.2902
464.15888336127773,1762969.0,-4.201029,71.2857
1000.0,373286.4,-41.50149,71.292
2154.4346900318824,682722.6,-61.96831,71.2894
4641.588833612777,191591.3,-81.17837,71.3115
10000.0,115488.4,-83.95089,71.2863
