Frequency,Impedance,Phase Angle,Temperature (Dry Bath)
10.0,3673276.0,-2.856496,71.2946
21.544346900318832,4808679.0,-7.745449,71.2807
46.41588833612777,5132219.0,-0.4650937,71.296
100.0,660797.7,-155.938,71.3019
215.44346900318823,1621520.0,-15.47212,71.3002
464.15888336127773,418374.3,-116.058,71.2909
1000.0,294169.1,-125.5784,71.3119
2154.4346900318824,168505.1,-89.95801,71.3079
4641.588833612777,101407.9,-90.83858,71.2886
10000.0,55926.1,-84.31561,71.3122
