Frequency,Impedance,Phase Angle,Temperature (Dry Bath)
10.0,33634.73,-11.18736,70.966
21.544346900318832,31310.38,-9.498059,70.9695
46.41588833612777,29378.24,-8.81482,70.9597
100.0,25929.99,-12.77443,70.9834
215.44346900318823,25318.17,-8.904838,70.9608
464.15888336127773,23974.86,-11.14288,70.9538
1000.0,22934.84,-11.36779,70.965
2154.4346900318824,20740.87,-10.53341,70.9808
4641.588833612777,19962.55,-15.96882,70.9823
10000.0,16918.37,-25.30824,70.9666
