Frequency,Impedance,Phase Angle,Temperature (Dry Bath)
10.0,2894165.0,-13.91228,71.4379
21.544346900318832,2359415.0,-24.71159,71.412
46.41588833612777,2242057.0,-23.13825,71.4245
100.0,374665.8,0.3118502,71.4108
215.44346900318823,289986.0,-75.07282,71.4085
464.15888336127773,984499.8,-64.25523,71.4186
1000.0,297298.4,-44.04172,71.4037
2154.4346900318824,179311.1,-64.49531,71.3937
4641.588833612777,135941.5,-67.26143,71.41
10000.0,75864.1,-83.48481,71.4079
