Frequency,Impedance,Phase Angle,Temperature (Dry Bath)
10.0,5780630.0,-29.14061,71.2756
21.544346900318832,10960100.0,11.54502,71.2768
46.41588833612777,4392272.0,-5.192053,71.2752
100.0,497542.0,-36.56481,71.2601
215.44346900318823,245311.9,32.05815,71.2665
464.15888336127773,1275860.0,-40.61065,71.2705
1000.0,392715.2,-94.20856,71.2667
2154.4346900318824,213407.1,-82.78856,71.2669
4641.588833612777,142328.0,-87.20837,71.268
10000.0,65051.0,-90.17464,71.2699
