Frequency,Impedance,Phase Angle,Temperature (Dry Bath)
10.0,176914.3,-15.86195,70.3567
21.544346900318832,153576.7,-13.24777,70.3573
46.41588833612777,140049.8,-13.45248,70.3545
100.0,115610.5,-12.61316,70.3535
215.44346900318823,131068.8,-0.785531,70.3674
464.15888336127773,87736.07,-14.11899,70.3701
1000.0,103497.6,-40.64012,70.3697
2154.4346900318824,86092.17,-17.693,70.3568
4641.588833612777,90377.57,-19.47023,70.3673
10000.0,54169.1,-41.66235,70.3646
