Frequency,Impedance,Phase Angle,Temperature (Dry Bath)
10.0,5364132.0,3.439243,71.2782
21.544346900318832,4959707.0,-7.898243,71.2755
46.41588833612777,3486223.0,-25.90308,71.2668
100.0,543633.1,-78.1261,71.268
215.44346900318823,212265.4,8.826585,71.2665
464.15888336127773,478057.2,-156.0317,71.2597
1000.0,363952.4,-70.79086,71.2701
2154.4346900318824,234276.2,-92.64526,71.2763
4641.588833612777,122348.4,-89.40623,71.2663
10000.0,53212.33,-76.5405,71.2586
