Frequency,Impedance,Phase Angle,Temperature (Dry Bath)
10.0,3634947.0,2.955602,71.1809
21.544346900318832,3389619.0,8.566428,71.1807
46.41588833612777,7907043.0,-27.54761,71.1626
100.0,2594751.0,120.3721,71.1523
215.44346900318823,1027334.0,-169.153,71.1517
464.15888336127773,423767.8,4.752007,71.1524
1000.0,2983525.0,-26.44228,71.1567
2154.4346900318824,329945.0,-103.3562,71.1738
4641.588833612777,265742.5,-83.6905,71.1621
10000.0,100437.1,-88.77905,71.1485
