Frequency,Impedance,Phase Angle,Temperature (Dry Bath)
10.0,4598875.0,20.72206,71.1159
21.544346900318832,6796829.0,-24.66162,71.1219
46.41588833612777,5163788.0,1.232452,71.1315
100.0,805629.0,37.0375,71.1078
215.44346900318823,444491.0,-50.94044,71.12
464.15888336127773,209243.2,-37.72309,71.11
1000.0,705546.3,-78.963,71.1103
2154.4346900318824,3181489.0,33.20625,71.1256
4641.588833612777,248455.4,-82.60492,71.1363
10000.0,133248.5,-96.63864,71.1216
