Frequency,Impedance,Phase Angle,Temperature (Dry Bath)
10.0,6212665.0,0.004623213,70.9899
21.544346900318832,6025430.0,-8.68472,70.9764
46.41588833612777,4691892.0,-6.474217,70.9726
100.0,6712798.0,34.21325,70.9872
215.44346900318823,412258.3,-118.1694,70.9886
464.15888336127773,2267675.0,7.718649,70.9798
1000.0,421862.8,-88.80502,70.9886
2154.4346900318824,262693.9,-91.97097,70.98
4641.588833612777,126408.9,-99.61954,70.9946
10000.0,59768.74,-85.67421,70.9963
