Frequency,Impedance,Phase Angle,Temperature (Dry Bath)
10.0,4694799.0,-9.151325,70.4675
21.544346900318832,3049895.0,-26.68747,70.4803
46.41588833612777,4027344.0,-16.35468,70.4839
100.0,322644.5,-141.8265,70.4808
215.44346900318823,904686.7,-48.93959,70.4809
464.15888336127773,857986.7,-5.496178,70.4751
1000.0,1117573.0,-5.575571,70.4501
2154.4346900318824,216215.7,-92.67402,70.4723
4641.588833612777,160288.6,-65.86055,70.478
10000.0,66932.33,-87.77151,70.4471
