Frequency,Impedance,Phase Angle,Temperature (Dry Bath)
10.0,6220270.0,4.073201,70.6954
21.544346900318832,8532133.0,-50.32991,70.6986
46.41588833612777,5794888.0,-32.44552,70.6879
100.0,525203.9,89.12078,70.6978
215.44346900318823,574567.2,-61.0314,70.6936
464.15888336127773,1358518.0,-108.4065,70.6948
1000.0,357449.5,-59.05503,70.6886
2154.4346900318824,188455.6,-84.05983,70.7021
4641.588833612777,155674.1,-75.66149,70.702
10000.0,59302.63,-80.52948,70.6975
