Frequency,Impedance,Phase Angle,Temperature (Dry Bath)
10.0,523488.7,-12.62818,71.2293
21.544346900318832,487524.5,-11.22822,71.2561
46.41588833612777,457602.2,-11.18004,71.2378
100.0,714430.0,-34.50259,71.2408
215.44346900318823,281970.2,-33.40903,71.2341
464.15888336127773,282563.2,-68.34774,71.2379
1000.0,212829.8,-32.20966,71.2519
2154.4346900318824,243652.7,-75.70728,71.2368
4641.588833612777,239905.4,-26.4566,71.2517
10000.0,88116.2,-53.67879,71.2313
