Frequency,Impedance,Phase Angle,Temperature (Dry Bath)
10.0,132738.5,-14.90672,71.2787
21.544346900318832,119020.3,-12.87038,71.2735
46.41588833612777,107915.7,-12.15536,71.2617
100.0,105728.3,-7.743719,71.2748
215.44346900318823,92318.97,-15.2303,71.2712
464.15888336127773,89402.6,-12.24465,71.2854
1000.0,70391.38,-13.84235,71.2759
2154.4346900318824,67839.09,-16.54907,71.269
4641.588833612777,60945.86,-29.71873,71.2691
10000.0,52858.38,-34.12706,71.2757
