Frequency,Impedance,Phase Angle,Temperature (Dry Bath)
10.0,5791852.0,-8.670045,71.0368
21.544346900318832,3710346.0,-5.231364,71.0655
46.41588833612777,6075156.0,-22.57005,71.0586
100.0,1859737.0,0.4859902,71.0639
215.44346900318823,375847.8,33.0401,71.0581
464.15888336127773,810377.7,-153.8704,71.0562
1000.0,526465.8,-54.78113,71.067
2154.4346900318824,207503.0,-86.74656,71.0527
4641.588833612777,140945.9,-86.78092,71.08
10000.0,60658.41,-84.50687,71.0507
