Frequency,Impedance,Phase Angle,Temperature (Dry Bath)
10.0,6707895.0,8.648127,71.2187
21.544346900318832,7276713.0,22.83667,71.2144
46.41588833612777,5904405.0,-12.49868,71.2245
100.0,376776.6,23.75022,71.2113
215.44346900318823,771124.7,139.4032,71.2173
464.15888336127773,362385.9,-135.2017,71.2216
1000.0,749310.0,-10.54246,71.2307
2154.4346900318824,521970.6,-53.26934,71.2165
4641.588833612777,211299.8,-66.5969,71.2242
10000.0,223827.6,-71.78956,71.2224
