Frequency,Impedance,Phase Angle,Temperature (Dry Bath)
10.0,5502749.0,-24.03256,71.3257
21.544346900318832,7848818.0,1.730755,71.337
46.41588833612777,4078628.0,-33.46859,71.3368
100.0,283685.6,-157.5949,71.321
215.44346900318823,1789041.0,1.987641,71.3364
464.15888336127773,1554788.0,-90.39616,71.3265
1000.0,2228434.0,-62.91897,71.3417
2154.4346900318824,306967.8,-83.56177,71.3316
4641.588833612777,127411.0,-88.7839,71.3383
10000.0,73483.02,-89.71459,71.3484
