Frequency,Impedance,Phase Angle,Temperature (Dry Bath)
10.0,4121556.0,14.54303,71.09
21.544346900318832,6066944.0,-11.52757,71.0852
46.41588833612777,3836060.0,-37.11588,71.0824
100.0,345696.2,48.65818,71.0926
215.44346900318823,1901292.0,-96.07078,71.0725
464.15888336127773,646203.9,-63.82133,71.0983
1000.0,394277.3,-112.7895,71.0845
2154.4346900318824,270714.0,-90.61677,71.1023
4641.588833612777,118203.2,-85.84235,71.066
10000.0,55746.08,-83.1012,71.0909
