Frequency,Impedance,Phase Angle,Temperature (Dry Bath)
10.0,4590039.0,5.246723,70.8399
21.544346900318832,4543121.0,-33.17309,70.8221
46.41588833612777,4305217.0,-10.36815,70.8496
100.0,933847.8,107.7325,70.8195
215.44346900318823,394289.5,-44.78165,70.83
464.15888336127773,503711.9,-76.15322,70.831
1000.0,231810.0,-49.53241,70.8442
2154.4346900318824,154082.3,-90.65588,70.8298
4641.588833612777,116660.5,-92.51135,70.8277
10000.0,60145.24,-96.09343,70.8277
