Frequency,Impedance,Phase Angle,Temperature (Dry Bath)
10.0,3719954.0,-6.651827,70.616
21.544346900318832,4290768.0,-23.34955,70.6192
46.41588833612777,5030197.0,-13.21829,70.6259
100.0,625394.2,-93.99763,70.628
215.44346900318823,675033.2,84.09083,70.6185
464.15888336127773,815170.5,-73.11219,70.6237
1000.0,505680.3,-70.0101,70.6147
2154.4346900318824,244468.7,-66.50207,70.6191
4641.588833612777,115042.0,-93.81642,70.6148
10000.0,49976.47,-87.00669,70.6295
