Frequency,Impedance,Phase Angle,Temperature (Dry Bath)
10.0,10116130.0,-11.22998,71.3589
21.544346900318832,6029992.0,-25.38834,71.3556
46.41588833612777,4578981.0,-21.01331,71.3458
100.0,300659.6,94.2403,71.3302
215.44346900318823,1236041.0,71.62652,71.3508
464.15888336127773,378780.2,-146.9903,71.346
1000.0,276939.6,-57.00703,71.3623
2154.4346900318824,321332.0,-87.83965,71.3481
4641.588833612777,134657.4,-78.81473,71.3603
10000.0,60376.03,-86.60384,71.3507
