Frequency,Impedance,Phase Angle,Temperature (Dry Bath)
10.0,12643.94,-26.39011,71.3504
21.544346900318832,10216.17,-23.82174,71.3524
46.41588833612777,8461.456,-21.07741,71.3529
100.0,7136.031,-18.54275,71.3551
215.44346900318823,6974.655,-25.90742,71.3437
464.15888336127773,5529.935,-14.26602,71.3593
1000.0,4918.458,-12.7192,71.3469
2154.4346900318824,4495.434,-11.70836,71.3447
4641.588833612777,4135.538,-10.61743,71.3594
10000.0,3817.513,-12.43273,71.3539
