Frequency,Impedance,Phase Angle,Temperature (Dry Bath)
10.0,11000940.0,-11.35181,71.716
21.544346900318832,4085202.0,5.317981,71.7107
46.41588833612777,4164124.0,-20.07196,71.7043
100.0,677666.8,31.89677,71.6928
215.44346900318823,2418189.0,-34.74091,71.7022
464.15888336127773,685523.9,-60.28079,71.7065
1000.0,909146.8,-171.392,71.7049
2154.4346900318824,470198.2,-47.9661,71.7126
4641.588833612777,235104.2,-79.04412,71.7022
10000.0,121546.2,-78.06585,71.7044
