Frequency,Impedance,Phase Angle,Temperature (Dry Bath)
10.0,1047994.0,-30.35796,71.2645
21.544346900318832,751495.3,-26.4935,71.285
46.41588833612777,609162.3,-23.98411,71.2775
100.0,296112.0,-37.46508,71.2704
215.44346900318823,278385.8,-43.15035,71.2556
464.15888336127773,384493.0,-3.905674,71.2682
1000.0,269096.4,-41.47833,71.2884
2154.4346900318824,144173.0,-78.47687,71.2683
4641.588833612777,107072.0,-65.3136,71.2653
10000.0,61099.02,-76.89558,71.2676
