Frequency,Impedance,Phase Angle,Temperature (Dry Bath)
10.0,3732071.0,-2.181938,70.9905
21.544346900318832,3919153.0,-11.0126,71.0071
46.41588833612777,6077547.0,-23.8691,71.0141
100.0,503915.9,-72.98987,70.9978
215.44346900318823,842220.4,-26.59313,71.0069
464.15888336127773,517296.0,11.04848,71.0016
1000.0,351876.1,-53.14469,71.008
2154.4346900318824,301603.5,-86.03427,71.0115
4641.588833612777,125550.0,-88.47911,71.0014
10000.0,68059.69,-92.0214,71.0212
