Frequency,Impedance,Phase Angle,Temperature (Dry Bath)
10.0,4969845.0,-11.56516,70.9521
21.544346900318832,3981175.0,-0.8369739,70.951
46.41588833612777,6505564.0,-37.99035,70.9486
100.0,470418.9,-94.15597,70.9425
215.44346900318823,530273.9,112.1374,70.9339
464.15888336127773,482337.1,-52.52523,70.951
1000.0,478114.7,-55.75981,70.9505
2154.4346900318824,571914.0,-95.703,70.9431
4641.588833612777,120902.0,-88.81643,70.943
10000.0,56947.89,-88.93528,70.9395
