Frequency,Impedance,Phase Angle,Temperature (Dry Bath)
10.0,4040666.0,-23.2271,70.9274
21.544346900318832,5602700.0,-17.62381,70.9107
46.41588833612777,4359620.0,8.086462,70.9311
100.0,944734.2,-58.39125,70.9261
215.44346900318823,1707750.0,-162.0479,70.9244
464.15888336127773,764831.3,171.7313,70.9391
1000.0,474702.3,-148.5581,70.9218
2154.4346900318824,825323.7,-139.3004,70.9287
4641.588833612777,299980.1,-171.183,70.9342
10000.0,140854.2,-93.78322,70.9252
