Frequency,Impedance,Phase Angle,Temperature (Dry Bath)
10.0,4389270.0,7.210871,71.0798
21.544346900318832,9146597.0,-7.302749,71.0713
46.41588833612777,7646332.0,-2.032576,71.0632
100.0,438685.4,147.5232,71.0736
215.44346900318823,393093.7,150.1589,71.0656
464.15888336127773,470896.1,-20.71751,71.0854
1000.0,619842.0,-134.7797,71.0623
2154.4346900318824,417838.3,-102.6523,71.079
4641.588833612777,311801.5,-80.71142,71.0757
10000.0,195424.6,-71.73359,71.0915
