Frequency,Impedance,Phase Angle,Temperature (Dry Bath)
10.0,23447.58,-21.19885,71.4363
21.544346900318832,19801.86,-18.39203,71.4355
46.41588833612777,17196.95,-15.59309,71.4206
100.0,15513.09,-13.86713,71.4176
215.44346900318823,9154.297,-13.50926,71.3971
464.15888336127773,13094.12,-7.375044,71.4336
1000.0,12057.77,-6.608878,71.4169
2154.4346900318824,11540.2,-8.946669,71.4249
4641.588833612777,11077.14,-9.695819,71.4206
10000.0,10134.77,-14.42293,71.4126
