Frequency,Impedance,Phase Angle,Temperature (Dry Bath)
10.0,37379.64,-13.9612,70.847
21.544346900318832,34094.74,-11.9795,70.8596
46.41588833612777,31369.71,-10.93762,70.8563
100.0,29188.63,-11.76224,70.859
215.44346900318823,27610.3,-9.597606,70.8455
464.15888336127773,24772.39,-9.797294,70.8624
1000.0,23412.58,-9.56239,70.8426
2154.4346900318824,21562.62,-13.58515,70.8606
4641.588833612777,20542.15,-15.42094,70.8411
10000.0,18788.61,-22.84715,70.8739
