Frequency,Impedance,Phase Angle,Temperature (Dry Bath)
10.0,7270.797,-38.06643,71.1826
21.544346900318832,5339.971,-34.41347,71.1902
46.41588833612777,4056.219,-30.59287,71.1969
100.0,3183.501,-26.49039,71.1966
215.44346900318823,2592.512,-21.80485,71.192
464.15888336127773,2209.178,-18.14569,71.1898
1000.0,1938.779,-14.71655,71.1901
2154.4346900318824,1744.456,-12.38501,71.1966
4641.588833612777,1587.397,-10.54517,71.1848
10000.0,1479.07,-9.424727,71.1868
