Frequency,Impedance,Phase Angle,Temperature (Dry Bath)
10.0,5263560.0,-0.2875573,71.4658
21.544346900318832,3770692.0,-2.274412,71.4601
46.41588833612777,3940330.0,-15.01977,71.4482
100.0,435808.3,78.35008,71.4588
215.44346900318823,519439.1,54.5896,71.452
464.15888336127773,1004409.0,1.581419,71.4524
1000.0,409750.1,-134.1072,71.4512
2154.4346900318824,206727.8,-89.76197,71.4541
4641.588833612777,121345.1,-82.4093,71.4431
10000.0,60783.42,-96.47313,71.4551
