Frequency,Impedance,Phase Angle,Temperature (Dry Bath)
10.0,5473636.0,-12.05133,71.391
21.544346900318832,6854940.0,-41.06851,71.4073
46.41588833612777,5449516.0,-28.10664,71.4033
100.0,837443.7,-56.09719,71.4028
215.44346900318823,850092.5,-6.539405,71.4051
464.15888336127773,9983696.0,36.17175,71.4
1000.0,916882.5,-110.7956,71.3978
2154.4346900318824,462522.1,-66.75201,71.4088
4641.588833612777,276620.6,-85.339,71.417
10000.0,130359.6,-83.32437,71.4286
