Frequency,Impedance,Phase Angle,Temperature (Dry Bath)
10.0,125126.6,-14.67823,71.3658
21.544346900318832,113930.3,-13.36127,71.38
46.41588833612777,102217.7,-13.34179,71.3787
100.0,80396.55,2.20078,71.3789
215.44346900318823,85651.05,-12.38816,71.3899
464.15888336127773,72108.9,-14.08062,71.3782
1000.0,66732.97,-13.85985,71.3805
2154.4346900318824,59534.96,-17.56561,71.388
4641.588833612777,53489.78,-14.87543,71.3898
10000.0,49339.68,-26.8794,71.4058
