Frequency,Impedance,Phase Angle,Temperature (Dry Bath)
10.0,4260254.0,-7.247627,71.3169
21.544346900318832,10613550.0,-2.472649,71.2923
46.41588833612777,4447896.0,-3.189017,71.2939
100.0,1207199.0,167.5533,71.2877
215.44346900318823,811174.7,-35.5214,71.298
464.15888336127773,739174.9,-36.30655,71.3029
1000.0,919990.6,-53.19875,71.2894
2154.4346900318824,251342.2,-66.29303,71.3039
4641.588833612777,224600.0,-87.94365,71.3096
10000.0,89969.58,-85.68629,71.2856
