Frequency,Impedance,Phase Angle,Temperature (Dry Bath)
10.0,2741393.0,-21.98795,71.3131
21.544346900318832,2338489.0,-6.857024,71.3256
46.41588833612777,2811074.0,-26.89128,71.3297
100.0,396139.0,-42.89579,71.3265
215.44346900318823,73893.2,-174.7696,71.3193
464.15888336127773,544330.5,-73.17717,71.3153
1000.0,442029.2,-88.97411,71.3082
2154.4346900318824,309778.5,-66.40867,71.3294
4641.588833612777,134368.4,-89.1826,71.3182
10000.0,64940.86,-85.7643,71.3128
