Frequency,Impedance,Phase Angle,Temperature (Dry Bath)
10.0,18682.99,-20.35915,71.5757
21.544346900318832,15867.82,-19.96472,71.6006
46.41588833612777,13466.25,-19.12331,71.5766
100.0,11679.15,-17.3036,71.6053
215.44346900318823,10122.46,-15.31787,71.5999
464.15888336127773,9003.235,-13.57233,71.5993
1000.0,8083.13,-11.31771,71.6075
2154.4346900318824,7465.001,-9.69292,71.6016
4641.588833612777,6979.399,-9.511668,71.5901
10000.0,6516.179,-10.55835,71.6036
