Frequency,Impedance,Phase Angle,Temperature (Dry Bath)
10.0,4112163.0,9.225126,71.076
21.544346900318832,2662883.0,-23.56592,71.0622
46.41588833612777,3418099.0,-18.82962,71.0562
100.0,451485.1,32.55246,71.0849
215.44346900318823,705149.0,-71.55197,71.0466
464.15888336127773,1026166.0,-38.49752,71.0416
1000.0,518910.6,73.24585,71.0888
2154.4346900318824,419007.8,-61.71274,71.0727
4641.588833612777,145496.6,-80.74995,71.0643
10000.0,64172.86,-85.87156,71.0663
