Frequency,Impedance,Phase Angle,Temperature (Dry Bath)
10.0,8125341.0,16.16415,71.3492
21.544346900318832,4220731.0,5.265657,71.3492
46.41588833612777,7471553.0,-46.35246,71.3507
100.0,1392559.0,-168.9568,71.3723
215.44346900318823,1688150.0,18.96361,71.3473
464.15888336127773,456875.5,-109.4215,71.3624
1000.0,369371.2,-62.28572,71.3531
2154.4346900318824,251463.6,-71.74696,71.3861
4641.588833612777,166412.3,-69.05588,71.3545
10000.0,74803.84,-77.31201,71.3594
