Frequency,Impedance,Phase Angle,Temperature (Dry Bath)
10.0,7001.672,-28.04059,70.874
21.544346900318832,5544.968,-26.02863,70.8796
46.41588833612777,4496.863,-23.52955,70.891
100.0,3712.776,-20.45625,70.8968
215.44346900318823,3183.895,-18.0966,70.8993
464.15888336127773,2761.383,-15.40159,70.8804
1000.0,2469.599,-12.35654,70.8773
2154.4346900318824,2235.864,-11.10705,70.8762
4641.588833612777,2060.187,-10.81933,70.9031
10000.0,1926.548,-10.33147,70.8822
