Frequency,Impedance,Phase Angle,Temperature (Dry Bath)
10.0,4179985.0,-31.62625,71.4536
21.544346900318832,5579937.0,-12.80965,71.4455
46.41588833612777,3961535.0,-25.16391,71.4649
100.0,657719.1,-60.85907,71.4578
215.44346900318823,34642.43,-96.79315,71.4469
464.15888336127773,2412567.0,-85.1504,71.4665
1000.0,285204.3,-122.0479,71.4537
2154.4346900318824,242666.9,-83.8589,71.4517
4641.588833612777,162935.7,-77.21165,71.456
10000.0,63180.04,-93.53913,71.4591
