Frequency,Impedance,Phase Angle,Temperature (Dry Bath)
10.0,4263348.0,-6.780061,70.8944
21.544346900318832,12653950.0,-22.48906,70.8739
46.41588833612777,4228438.0,-11.04752,70.9003
100.0,278337.2,47.90109,70.8736
215.44346900318823,2235661.0,153.2969,70.8938
464.15888336127773,3448352.0,178.4822,70.8799
1000.0,514331.4,149.5296,70.868
2154.4346900318824,239200.9,-120.7525,70.8674
4641.588833612777,127340.8,-90.66801,70.8896
10000.0,71718.94,-83.94837,70.885
