Frequency,Impedance,Phase Angle,Temperature (Dry Bath)
10.0,102156.7,-17.72321,71.2837
21.544346900318832,89117.18,-16.58151,71.2767
46.41588833612777,77935.32,-16.00798,71.3059
100.0,66880.09,-14.14821,71.2952
215.44346900318823,62974.01,-11.79005,71.2813
464.15888336127773,50448.49,-14.37386,71.3001
1000.0,47227.84,-15.64191,71.2941
2154.4346900318824,41872.9,-14.06509,71.2923
4641.588833612777,37624.74,-18.70736,71.3024
10000.0,34626.55,-20.33215,71.3065
