Frequency,Impedance,Phase Angle,Temperature (Dry Bath)
10.0,5338960.0,14.29551,71.3748
21.544346900318832,5111136.0,-17.22571,71.401
46.41588833612777,5408272.0,-6.35779,71.3828
100.0,2141237.0,-7.691939,71.3836
215.44346900318823,498413.7,-53.58163,71.3755
464.15888336127773,560969.7,-70.9797,71.3701
1000.0,618579.1,-26.81955,71.3775
2154.4346900318824,358465.5,-76.02526,71.3742
4641.588833612777,191706.2,-84.57795,71.3839
10000.0,111411.4,-96.59357,71.3684
