Frequency,Impedance,Phase Angle,Temperature (Dry Bath)
10.0,20120.1,-17.45877,71.4858
21.544346900318832,17354.92,-16.75245,71.4756
46.41588833612777,15150.24,-16.19517,71.47
100.0,13021.4,-14.98537,71.4751
215.44346900318823,11745.97,-14.01107,71.494
464.15888336127773,10626.52,-12.51154,71.4979
1000.0,9730.347,-11.02153,71.4922
2154.4346900318824,8974.137,-10.03416,71.4733
4641.588833612777,8254.747,-10.06788,71.502
10000.0,7701.976,-11.73395,71.4693
