Frequency,Impedance,Phase Angle,Temperature (Dry Bath)
10.0,7009884.0,-37.33187,71.4797
21.544346900318832,5178936.0,-9.357407,71.4747
46.41588833612777,4290760.0,-3.133414,71.4782
100.0,1401773.0,14.60672,71.4864
215.44346900318823,1706761.0,107.7278,71.497
464.15888336127773,902954.7,-77.42373,71.4777
1000.0,559386.7,-78.01509,71.4903
2154.4346900318824,534836.2,-88.11688,71.4845
4641.588833612777,177956.2,-140.1447,71.4819
10000.0,112114.7,-85.99189,71.4795
