Frequency,Impedance,Phase Angle,Temperature (Dry Bath)
10.0,71456.38,-11.34613,71.1588
21.544346900318832,65751.47,-9.178083,71.1509
46.41588833612777,61288.56,-8.099761,71.1528
100.0,52453.91,-1.856414,71.1607
215.44346900318823,57197.95,-12.9195,71.1525
464.15888336127773,51618.52,-5.899776,71.1467
1000.0,45903.34,-5.962891,71.1432
2154.4346900318824,49876.31,-3.841615,71.1426
4641.588833612777,45589.5,-15.86822,71.1448
10000.0,45892.8,-19.66998,71.1337
