Frequency,Impedance,Phase Angle,Temperature (Dry Bath)
10.0,4957300.0,-9.477169,32.3416
21.544346900318832,3587125.0,-1.936151,32.3601
46.41588833612777,8776295.0,-24.08001,32.3789
100.0,661847.9,20.07782,32.3939
215.44346900318823,2345806.0,15.88037,32.3817
464.15888336127773,811135.7,-109.2846,32.3578
1000.0,745254.5,-33.39304,32.3734
2154.4346900318824,1719854.0,-65.86392,32.3712
4641.588833612777,292471.3,-75.48839,32.3727
10000.0,166231.9,-80.69334,32.3561
