Frequency,Impedance,Phase Angle,Temperature (Dry Bath)
10.0,3153345.0,-2.443625,71.3364
21.544346900318832,3948540.0,-23.87427,71.333
46.41588833612777,2155764.0,-14.78756,71.3349
100.0,368614.6,-32.80988,71.3266
215.44346900318823,142166.4,-11.42001,71.3347
464.15888336127773,2066407.0,56.13774,71.3393
1000.0,636596.8,-51.59746,71.3331
2154.4346900318824,192710.4,-68.72107,71.3345
4641.588833612777,121918.6,-68.84873,71.337
10000.0,64935.13,-85.73411,71.3444
