Frequency,Impedance,Phase Angle,Temperature (Dry Bath)
10.0,14166120.0,-6.326659,71.0353
21.544346900318832,4408880.0,4.708455,71.0101
46.41588833612777,4167584.0,-49.76733,71.0328
100.0,279984.0,144.6091,71.005
215.44346900318823,728574.7,-36.34009,71.0235
464.15888336127773,1211400.0,7.322034,71.0018
1000.0,426037.1,-72.98661,71.001
2154.4346900318824,211968.5,-96.84524,71.0093
4641.588833612777,148353.9,-80.53584,71.0047
10000.0,59577.01,-91.43306,71.0312
