Frequency,Impedance,Phase Angle,Temperature (Dry Bath)
10.0,8365.215,-25.64548,70.6278
21.544346900318832,6832.955,-22.37523,70.6245
46.41588833612777,5744.522,-19.36073,70.6335
100.0,4886.748,-16.53829,70.6268
215.44346900318823,4399.87,-13.89545,70.6208
464.15888336127773,3974.105,-12.51869,70.6328
1000.0,3583.951,-10.59439,70.631
2154.4346900318824,3329.435,-9.359211,70.6281
4641.588833612777,3140.24,-8.736626,70.6426
10000.0,2943.326,-9.676374,70.632
