Frequency,Impedance,Phase Angle,Temperature (Dry Bath)
10.0,5743544.0,-5.69172,71.2485
21.544346900318832,4606088.0,3.503708,71.2425
46.41588833612777,3812300.0,-17.26516,71.2487
100.0,734925.9,42.31966,71.2471
215.44346900318823,911116.8,-116.3824,71.2372
464.15888336127773,539660.2,-82.10386,71.251
1000.0,503080.8,-100.5352,71.2447
2154.4346900318824,234436.4,-96.93121,71.2548
4641.588833612777,133410.7,-88.36144,71.2519
10000.0,61124.85,-90.46804,71.2403
