Frequency,Impedance,Phase Angle,Temperature (Dry Bath)
10.0,5571814.0,-2.920625,71.1405
21.544346900318832,4070026.0,-9.688937,71.1533
46.41588833612777,6031131.0,-32.93602,71.1544
100.0,563884.7,73.98944,71.1503
215.44346900318823,930192.8,171.1779,71.1321
464.15888336127773,444769.5,-152.3015,71.1474
1000.0,435023.7,-94.67444,71.1207
2154.4346900318824,216300.9,-92.52706,71.151
4641.588833612777,124723.8,-68.39401,71.1358
10000.0,52568.0,-85.69014,71.1346
