Frequency,Impedance,Phase Angle,Temperature (Dry Bath)
10.0,6739.323,-28.31428,70.6559
21.544346900318832,5332.994,-26.173,70.645
46.41588833612777,4315.049,-23.47158,70.6538
100.0,3593.367,-20.33654,70.6621
215.44346900318823,3044.502,-17.8454,70.6435
464.15888336127773,2660.951,-15.00053,70.642
1000.0,2363.217,-12.65556,70.6536
2154.4346900318824,2175.012,-10.99199,70.6568
4641.588833612777,2005.851,-10.17445,70.6405
10000.0,1863.284,-10.33873,70.6481
