Frequency,Impedance,Phase Angle,Temperature (Dry Bath)
10.0,39401.17,-29.76621,71.2024
21.544346900318832,30795.51,-28.51139,71.2163
46.41588833612777,24332.01,-26.88085,71.2059
100.0,19631.83,-22.87246,71.2091
215.44346900318823,16154.85,-22.33138,71.2253
464.15888336127773,13252.08,-19.18614,71.2032
1000.0,11236.85,-16.32923,71.2164
2154.4346900318824,10018.27,-16.8769,71.1977
4641.588833612777,8734.671,-16.24646,71.2171
10000.0,8367.407,-16.95287,71.2065
