Frequency,Impedance,Phase Angle,Temperature (Dry Bath)
10.0,3909169.0,-2.282155,71.4782
21.544346900318832,3552863.0,-36.20435,71.4703
46.41588833612777,4525208.0,-23.73244,71.4645
100.0,525335.9,-39.66213,71.4675
215.44346900318823,597250.7,-64.94365,71.472
464.15888336127773,1328485.0,173.0617,71.4789
1000.0,369925.5,174.3618,71.4712
2154.4346900318824,488742.5,-126.1159,71.4831
4641.588833612777,131954.9,-99.266,71.4746
10000.0,60498.27,-93.8349,71.4783
