Frequency,Impedance,Phase Angle,Temperature (Dry Bath)
10.0,4658417.0,16.29384,70.2754
21.544346900318832,6989117.0,-32.2866,70.252
46.41588833612777,5499578.0,-10.63931,70.2648
100.0,651673.1,-91.8903,70.2675
215.44346900318823,5735097.0,110.4188,70.2779
464.15888336127773,673041.8,-88.3882,70.2736
1000.0,626268.3,-65.77809,70.2613
2154.4346900318824,207762.0,-85.93963,70.2791
4641.588833612777,120177.7,-91.79133,70.2624
10000.0,68535.47,-89.252,70.2745
