Frequency,Impedance,Phase Angle,Temperature (Dry Bath)
10.0,3064257.0,-38.50418,71.2631
21.544346900318832,2557519.0,-28.95914,71.2688
46.41588833612777,3042188.0,-19.73929,71.2699
100.0,703010.4,46.43081,71.2636
215.44346900318823,1510188.0,-128.163,71.2642
464.15888336127773,802119.6,-67.12148,71.2528
1000.0,893109.6,-79.03535,71.259
2154.4346900318824,556513.8,-89.99007,71.2466
4641.588833612777,138107.0,-76.83029,71.2474
10000.0,90871.22,-76.69424,71.2621
