Frequency,Impedance,Phase Angle,Temperature (Dry Bath)
10.0,3327991.0,-19.31141,70.4891
21.544346900318832,4244064.0,-28.74127,70.4997
46.41588833612777,5269658.0,-28.43852,70.4826
100.0,440630.6,13.16429,70.4983
215.44346900318823,461226.7,-2.60159,70.4943
464.15888336127773,4207847.0,-85.22069,70.5057
1000.0,387787.8,-68.00294,70.4808
2154.4346900318824,242770.1,-80.99192,70.4966
4641.588833612777,117060.7,-90.83842,70.509
10000.0,51570.54,-84.87628,70.502
