Frequency,Impedance,Phase Angle,Temperature (Dry Bath)
10.0,5760733.0,-4.773665,71.306
21.544346900318832,7800554.0,-20.47981,71.3282
46.41588833612777,6003400.0,-52.4947,71.311
100.0,341644.1,128.5094,71.3079
215.44346900318823,57508.85,112.532,71.3017
464.15888336127773,644865.3,-50.83547,71.3122
1000.0,252816.0,-102.5071,71.3083
2154.4346900318824,280537.1,-73.15043,71.3088
4641.588833612777,102158.5,-69.39654,71.3057
10000.0,58966.68,-81.19695,71.305
