Frequency,Impedance,Phase Angle,Temperature (Dry Bath)
10.0,177463.3,-13.07779,71.2653
21.544346900318832,159835.7,-11.15654,71.3017
46.41588833612777,148730.5,-11.58593,71.2736
100.0,110752.7,-15.54167,71.2866
215.44346900318823,138435.5,-4.530009,71.2912
464.15888336127773,102063.9,-10.22804,71.2688
1000.0,144211.8,-29.50111,71.2716
2154.4346900318824,104998.6,-23.08219,71.2762
4641.588833612777,79735.53,-43.97703,71.2893
10000.0,44069.67,-46.5423,71.2804
