Frequency,Impedance,Phase Angle,Temperature (Dry Bath)
10.0,28554.41,-21.61771,72.1343
21.544346900318832,23690.93,-22.70474,72.1273
46.41588833612777,19428.0,-24.05035,72.1398
100.0,16531.9,-25.06631,72.1155
215.44346900318823,12775.39,-26.69215,72.1376
464.15888336127773,9816.035,-27.86076,72.1378
1000.0,7792.618,-28.71322,72.1288
2154.4346900318824,6114.259,-25.57217,72.1203
4641.588833612777,4921.325,-23.83857,72.1176
10000.0,4041.179,-21.92624,72.1354
