Frequency,Impedance,Phase Angle,Temperature (Dry Bath)
10.0,5087596.0,7.883698,71.1586
21.544346900318832,3684373.0,-39.70498,71.1563
46.41588833612777,3988378.0,-16.04444,71.1751
100.0,498673.3,-46.77756,71.165
215.44346900318823,1132630.0,13.37458,71.1541
464.15888336127773,744246.7,-119.4338,71.1687
1000.0,3127453.0,148.6485,71.1552
2154.4346900318824,325666.5,-97.88242,71.1582
4641.588833612777,143872.3,-75.38254,71.1572
10000.0,68027.64,-84.3822,71.1706
