Frequency,Impedance,Phase Angle,Temperature (Dry Bath)
10.0,35541.36,-13.5601,71.4524
21.544346900318832,31872.52,-11.97693,71.4412
46.41588833612777,29250.33,-10.81724,71.453
100.0,27055.76,-10.72231,71.4516
215.44346900318823,25332.94,-11.54528,71.4523
464.15888336127773,23619.55,-8.614237,71.4497
1000.0,22174.81,-9.990986,71.4456
2154.4346900318824,20286.73,-11.68822,71.4546
4641.588833612777,19016.22,-12.48486,71.4601
10000.0,17877.79,-17.60203,71.462
