Frequency,Impedance,Phase Angle,Temperature (Dry Bath)
10.0,4341928.0,-21.389,70.8597
21.544346900318832,3981214.0,-2.209341,70.8647
46.41588833612777,3623248.0,-24.6966,70.8749
100.0,454118.2,-123.7449,70.8741
215.44346900318823,2869085.0,-53.66518,70.8718
464.15888336127773,510220.4,-51.67312,70.8522
1000.0,391849.0,-84.35469,70.8708
2154.4346900318824,343680.4,-116.3534,70.8641
4641.588833612777,141843.7,-95.62673,70.88
10000.0,54800.71,-85.68729,70.8779
