Frequency,Impedance,Phase Angle,Temperature (Dry Bath)
10.0,613778.0,-3.124048,71.5065
21.544346900318832,620319.9,-1.989037,71.4967
46.41588833612777,582524.7,-5.523014,71.507
100.0,474144.9,-20.53406,71.4912
215.44346900318823,450164.4,-27.66293,71.4932
464.15888336127773,669457.6,-100.5513,71.4999
1000.0,774677.9,-60.6904,71.4949
2154.4346900318824,306583.9,-60.07937,71.5059
4641.588833612777,158813.8,-56.73505,71.5055
10000.0,100942.6,-70.84034,71.5058
