Frequency,Impedance,Phase Angle,Temperature (Dry Bath)
10.0,6614743.0,15.33781,70.6922
21.544346900318832,4198794.0,-19.24852,70.6619
46.41588833612777,6468829.0,-44.60328,70.677
100.0,927354.7,-157.0266,70.6855
215.44346900318823,819703.8,-0.7559944,70.6868
464.15888336127773,535800.1,-50.39897,70.6729
1000.0,247801.2,-27.35023,70.6753
2154.4346900318824,375335.1,-79.36031,70.6818
4641.588833612777,142134.0,-80.21741,70.6547
10000.0,65004.59,-86.32759,70.6719
