Frequency,Impedance,Phase Angle,Temperature (Dry Bath)
10.0,40341.98,-30.22001,71.2596
21.544346900318832,31236.67,-28.69741,71.2863
46.41588833612777,24444.92,-27.17468,71.2669
100.0,19578.87,-26.49711,71.3016
215.44346900318823,15831.55,-22.23479,71.2706
464.15888336127773,13497.24,-20.19527,71.2789
1000.0,11567.16,-17.23778,71.28
2154.4346900318824,10282.62,-14.85064,71.2869
4641.588833612777,9039.716,-13.65926,71.2734
10000.0,8511.68,-16.76711,71.2941
