Frequency,Impedance,Phase Angle,Temperature (Dry Bath)
10.0,5561969.0,-12.23996,71.1895
21.544346900318832,4824393.0,-24.05672,71.1856
46.41588833612777,5665764.0,-19.07958,71.1823
100.0,1125454.0,-103.5826,71.1822
215.44346900318823,777592.6,-46.82219,71.202
464.15888336127773,1360065.0,128.6282,71.1931
1000.0,786565.1,-84.19343,71.1928
2154.4346900318824,309702.6,-53.34501,71.1931
4641.588833612777,102263.9,-72.02506,71.1978
10000.0,71227.97,-79.88669,71.2028
