Frequency,Impedance,Phase Angle,Temperature (Dry Bath)
10.0,4470931.0,-7.743115,71.4308
21.544346900318832,5740870.0,-21.83961,71.43
46.41588833612777,6294331.0,-23.54321,71.4498
100.0,465992.5,-13.0058,71.4495
215.44346900318823,6723418.0,-115.3692,71.4603
464.15888336127773,1293806.0,-99.56338,71.4564
1000.0,606735.8,-75.36029,71.4452
2154.4346900318824,454147.3,-75.15675,71.4474
4641.588833612777,257894.7,-88.65313,71.4533
10000.0,191820.4,-93.56021,71.4497
