Frequency,Impedance,Phase Angle,Temperature (Dry Bath)
10.0,112238.8,-21.26269,71.2584
21.544346900318832,175880.6,-15.69665,71.2311
46.41588833612777,9998.243,-15.18847,71.2383
100.0,8752.622,-14.24044,71.2512
215.44346900318823,4409.89,7.373058,71.2465
464.15888336127773,7445.455,-10.55742,71.2536
1000.0,6878.957,-9.277957,71.2603
2154.4346900318824,6420.967,-8.184682,71.2431
4641.588833612777,6158.91,-9.206062,71.2584
10000.0,5759.133,-11.39464,71.2547
