Frequency,Impedance,Phase Angle,Temperature (Dry Bath)
10.0,176021.8,-13.05649,71.3242
21.544346900318832,162224.2,-11.15836,71.3124
46.41588833612777,151595.2,-10.71818,71.32
100.0,115833.1,-10.57788,71.3071
215.44346900318823,52724.88,-14.72036,71.3181
464.15888336127773,115005.3,-7.778821,71.3188
1000.0,89890.43,-17.33436,71.3113
2154.4346900318824,86285.89,-27.66117,71.3302
4641.588833612777,71297.82,-34.21978,71.3281
10000.0,48188.67,-48.52484,71.3216
