Frequency,Impedance,Phase Angle,Temperature (Dry Bath)
10.0,43635.0,-12.3801,71.1822
21.544346900318832,39944.08,-10.68987,71.1738
46.41588833612777,36854.9,-9.734308,71.1642
100.0,35928.72,-7.957457,71.1613
215.44346900318823,31181.37,-8.27869,71.1558
464.15888336127773,30012.03,-7.865545,71.1536
1000.0,28524.99,-8.820843,71.1564
2154.4346900318824,26771.97,-12.02033,71.1538
4641.588833612777,24350.34,-14.55837,71.1543
10000.0,22394.29,-19.85949,71.1751
