Frequency,Impedance,Phase Angle,Temperature (Dry Bath)
10.0,14119.18,-23.86077,71.4848
21.544346900318832,11475.77,-24.21388,71.4997
46.41588833612777,9327.893,-23.74501,71.4854
100.0,7601.013,-22.12459,71.4905
215.44346900318823,6477.198,-20.51518,71.4796
464.15888336127773,5505.679,-18.44512,71.5
1000.0,4759.299,-16.62829,71.493
2154.4346900318824,4170.315,-15.39257,71.4894
4641.588833612777,3670.375,-14.18359,71.4912
10000.0,3293.247,-13.34823,71.4981
