Frequency,Impedance,Phase Angle,Temperature (Dry Bath)
10.0,6555961.0,20.31998,71.3239
21.544346900318832,4994034.0,2.566509,71.3231
46.41588833612777,4620340.0,-34.59595,71.3302
100.0,557284.0,-103.0134,71.3146
215.44346900318823,755122.7,-43.41996,71.3042
464.15888336127773,2013160.0,100.2055,71.322
1000.0,422481.5,-75.11803,71.3237
2154.4346900318824,356822.8,-99.58271,71.3154
4641.588833612777,141534.5,-79.98647,71.3141
10000.0,60852.07,-82.71907,71.2784
