Frequency,Impedance,Phase Angle,Temperature (Dry Bath)
10.0,179699.2,-11.87825,71.3959
21.544346900318832,160702.7,-11.34424,71.4109
46.41588833612777,147942.1,-10.64125,71.3998
100.0,68105.85,-10.75726,71.3963
215.44346900318823,124538.0,0.5647899,71.4063
464.15888336127773,129209.2,-17.90224,71.3819
1000.0,102868.2,-24.15454,71.4013
2154.4346900318824,97478.02,-24.0502,71.4108
4641.588833612777,68407.13,-40.0087,71.419
10000.0,51949.12,-50.01784,71.393
