Frequency,Impedance,Phase Angle,Temperature (Dry Bath)
10.0,8894.49,-25.81292,70.8592
21.544346900318832,7256.134,-22.57081,70.8579
46.41588833612777,6097.085,-19.53761,70.8646
100.0,5284.399,-16.57268,70.8505
215.44346900318823,4688.335,-14.56564,70.8567
464.15888336127773,4149.482,-12.11969,70.8573
1000.0,3741.641,-10.68928,70.8557
2154.4346900318824,3485.93,-9.524362,70.8472
4641.588833612777,3292.733,-8.634946,70.8572
10000.0,3111.598,-9.685195,70.8435
