Frequency,Impedance,Phase Angle,Temperature (Dry Bath)
10.0,3369.039,-32.20165,71.1691
21.544346900318832,2642.06,-26.90492,71.1635
46.41588833612777,2159.332,-22.09301,71.1546
100.0,1841.441,-17.61921,71.1631
215.44346900318823,1624.973,-14.05104,71.1627
464.15888336127773,1476.925,-11.25288,71.1564
1000.0,1364.044,-8.970374,71.1691
2154.4346900318824,1274.11,-7.269354,71.169
4641.588833612777,1209.159,-5.951316,71.17
10000.0,1165.971,-5.585018,71.1619
