Frequency,Impedance,Phase Angle,Temperature (Dry Bath)
10.0,8659978.0,22.01838,71.214
21.544346900318832,5465238.0,-27.91679,71.2184
46.41588833612777,5895407.0,-32.25054,71.2258
100.0,533982.1,-1.573366,71.2118
215.44346900318823,415382.5,-8.700625,71.2284
464.15888336127773,1724122.0,-41.14516,71.2372
1000.0,520611.9,-159.6953,71.228
2154.4346900318824,481528.5,-90.6121,71.2284
4641.588833612777,139870.0,-88.12973,71.2075
10000.0,65863.69,-91.12335,71.2329
