Frequency,Impedance,Phase Angle,Temperature (Dry Bath)
10.0,65364.04,-22.42517,70.9327
21.544346900318832,54568.11,-22.33738,70.9196
46.41588833612777,45540.22,-22.63046,70.9173
100.0,45154.99,-25.62408,70.925
215.44346900318823,31367.05,-31.63666,70.9251
464.15888336127773,24461.12,-26.65703,70.9066
1000.0,18955.74,-27.54876,70.9123
2154.4346900318824,14425.97,-27.91951,70.9285
4641.588833612777,11675.92,-24.15933,70.8984
10000.0,9917.418,-22.33906,70.9195
