Frequency,Impedance,Phase Angle,Temperature (Dry Bath)
10.0,143675.1,-17.93777,71.3039
21.544346900318832,120582.5,-16.4904,71.2968
46.41588833612777,106512.4,-15.67279,71.296
100.0,93172.54,-9.271863,71.313
215.44346900318823,32124.69,141.4732,71.301
464.15888336127773,81888.39,-13.23531,71.3015
1000.0,61022.91,-36.68779,71.2874
2154.4346900318824,54488.01,-27.84928,71.3049
4641.588833612777,45431.17,-33.16085,71.3158
10000.0,30285.58,-49.90314,71.3074
