Frequency,Impedance,Phase Angle,Temperature (Dry Bath)
10.0,694923.2,-32.21775,71.3301
21.544346900318832,516870.3,-27.50709,71.3218
46.41588833612777,430949.4,-23.69134,71.3199
100.0,248890.3,-37.0017,71.3269
215.44346900318823,260748.1,-71.20471,71.3289
464.15888336127773,255673.8,-41.60667,71.3148
1000.0,141199.7,-34.04329,71.3351
2154.4346900318824,163133.2,-50.77917,71.3268
4641.588833612777,91513.92,-50.67649,71.3186
10000.0,53538.06,-71.95401,71.3294
