Frequency,Impedance,Phase Angle,Temperature (Dry Bath)
10.0,23474.97,-19.67547,71.2063
21.544346900318832,20092.52,-17.41327,71.2013
46.41588833612777,17558.54,-15.68415,71.2183
100.0,16344.16,-13.71921,71.2116
215.44346900318823,14052.05,-11.58851,71.1984
464.15888336127773,12800.44,-10.76434,71.199
1000.0,11916.26,-10.25808,71.2059
2154.4346900318824,10903.05,-9.485946,71.1973
4641.588833612777,10389.5,-10.58802,71.1985
10000.0,9653.711,-16.61207,71.1993
