Frequency,Impedance,Phase Angle,Temperature (Dry Bath)
10.0,3829865.0,-29.28559,71.3077
21.544346900318832,4653720.0,-14.29731,71.3131
46.41588833612777,2148563.0,-54.08153,71.3127
100.0,689136.1,-24.29861,71.3141
215.44346900318823,16578.83,-56.03206,71.3168
464.15888336127773,1395944.0,-65.94924,71.3128
1000.0,353199.6,-88.20093,71.3134
2154.4346900318824,245965.2,-70.69668,71.3109
4641.588833612777,139591.7,-94.91942,71.314
10000.0,67622.6,-79.70405,71.3081
