Frequency,Impedance,Phase Angle,Temperature (Dry Bath)
10.0,82983.15,-14.57858,71.301
21.544346900318832,74581.16,-13.0706,71.2997
46.41588833612777,67836.73,-11.85561,71.3025
100.0,59591.34,-12.56324,71.2992
215.44346900318823,58189.81,-9.11903,71.2942
464.15888336127773,57884.32,-13.196,71.3009
1000.0,52174.36,-11.5847,71.2955
2154.4346900318824,45603.76,-14.8843,71.2764
4641.588833612777,39382.87,-15.76272,71.2796
10000.0,38865.3,-25.91875,71.3044
