Frequency,Impedance,Phase Angle,Temperature (Dry Bath)
10.0,270088.7,-12.49409,71.2284
21.544346900318832,234437.8,-12.45657,71.2298
46.41588833612777,211407.1,-14.38681,71.2346
100.0,133079.0,4.462448,71.2335
215.44346900318823,230996.4,14.03922,71.2384
464.15888336127773,133333.0,-14.14919,71.2361
1000.0,132959.3,-23.87998,71.2227
2154.4346900318824,111043.3,-18.54185,71.2346
4641.588833612777,97126.33,-44.38699,71.2304
10000.0,58823.8,-61.43639,71.2483
