Frequency,Impedance,Phase Angle,Temperature (Dry Bath)
10.0,6639071.0,-2.897439,70.9175
21.544346900318832,5069873.0,-23.4412,70.9404
46.41588833612777,5137705.0,-25.46897,70.92
100.0,521458.2,-50.35631,70.9257
215.44346900318823,10917950.0,-146.0711,70.9219
464.15888336127773,785384.7,-82.61131,70.9138
1000.0,306225.2,-85.48556,70.9326
2154.4346900318824,389928.0,-92.6346,70.9301
4641.588833612777,122759.8,-78.64076,70.908
10000.0,65808.55,-85.25968,70.9227
