Frequency,Impedance,Phase Angle,Temperature (Dry Bath)
10.0,4093923.0,2.886224,71.2811
21.544346900318832,4280564.0,-18.46231,71.2672
46.41588833612777,3683865.0,-32.48524,71.2935
100.0,516453.1,-61.52577,71.2857
215.44346900318823,537396.9,2.424929,71.2828
464.15888336127773,853753.7,-47.9145,71.2764
1000.0,260197.2,-111.6344,71.2759
2154.4346900318824,217096.4,-75.02993,71.2823
4641.588833612777,115099.2,-81.43649,71.2683
10000.0,62063.42,-83.60614,71.2936
