Frequency,Impedance,Phase Angle,Temperature (Dry Bath)
10.0,6511168.0,-7.841624,70.9703
21.544346900318832,5098939.0,-18.45493,70.9752
46.41588833612777,4177259.0,-17.70808,70.9751
100.0,438380.6,50.62285,70.9756
215.44346900318823,1679564.0,159.0021,70.9782
464.15888336127773,914675.0,-117.7234,70.9715
1000.0,254112.5,-80.63669,70.9794
2154.4346900318824,387369.0,-89.77464,70.9667
4641.588833612777,214564.9,-77.68011,70.9715
10000.0,61505.53,-84.77863,70.9679
