Frequency,Impedance,Phase Angle,Temperature (Dry Bath)
10.0,3906013.0,-0.637543,70.6843
21.544346900318832,3317154.0,2.038051,70.6763
46.41588833612777,4529302.0,-16.00409,70.6785
100.0,885108.5,-15.33352,70.6772
215.44346900318823,1236802.0,178.74,70.6913
464.15888336127773,1567302.0,-50.38319,70.6844
1000.0,229210.2,-46.9623,70.6853
2154.4346900318824,289466.2,-95.05604,70.6776
4641.588833612777,162077.3,-89.08859,70.7004
10000.0,67489.07,-82.55704,70.6825
