Frequency,Impedance,Phase Angle,Temperature (Dry Bath)
10.0,4899423.0,-19.12675,71.2935
21.544346900318832,6449728.0,-8.809927,71.2947
46.41588833612777,4367590.0,-22.78216,71.2718
100.0,300104.5,-31.02341,71.2731
215.44346900318823,957162.4,-179.4999,71.2801
464.15888336127773,1377088.0,-51.28208,71.2701
1000.0,264694.1,-75.92562,71.2772
2154.4346900318824,478917.3,-103.0603,71.2739
4641.588833612777,147421.8,-87.81333,71.2674
10000.0,61439.97,-91.42665,71.2673
