Frequency,Impedance,Phase Angle,Temperature (Dry Bath)
10.0,169994.7,-12.75544,71.1115
21.544346900318832,154316.5,-12.32731,71.1177
46.41588833612777,140288.0,-12.601,71.109
100.0,125873.3,14.92001,71.0997
215.44346900318823,125107.4,-15.32822,71.1084
464.15888336127773,99803.53,-8.550405,71.1015
1000.0,100949.2,-9.938821,71.1158
2154.4346900318824,92003.32,-23.71162,71.116
4641.588833612777,66258.2,-40.156,71.1134
10000.0,45535.92,-58.04141,71.1078
