Frequency,Impedance,Phase Angle,Temperature (Dry Bath)
10.0,4929164.0,-5.407098,70.9252
21.544346900318832,5166596.0,-13.34138,70.9162
46.41588833612777,3190731.0,-39.97432,70.9331
100.0,492038.5,-88.06994,70.9203
215.44346900318823,645766.5,7.315466,70.9058
464.15888336127773,1862145.0,-146.3383,70.9069
1000.0,446734.9,-136.1948,70.9258
2154.4346900318824,226209.0,-78.38875,70.9119
4641.588833612777,108383.3,-81.81488,70.9001
10000.0,50780.91,-88.69679,70.915
