Frequency,Impedance,Phase Angle,Temperature (Dry Bath)
10.0,8141823.0,10.73541,71.2479
21.544346900318832,4314970.0,-35.19054,71.2536
46.41588833612777,4192960.0,-47.20569,71.2517
100.0,849570.6,6.028559,71.232
215.44346900318823,650510.3,-114.5343,71.2483
464.15888336127773,836699.2,-72.01227,71.2372
1000.0,383636.8,-72.78197,71.2413
2154.4346900318824,259101.5,-68.31094,71.2424
4641.588833612777,135318.9,-89.3579,71.2562
10000.0,57020.85,-84.74122,71.2517
