Frequency,Impedance,Phase Angle,Temperature (Dry Bath)
10.0,11896000.0,-34.74433,71.18
21.544346900318832,5976699.0,-3.700429,71.1572
46.41588833612777,3596216.0,-35.50428,71.1578
100.0,375724.5,-17.91104,71.1613
215.44346900318823,1042351.0,62.55698,71.1674
464.15888336127773,1272514.0,-50.38942,71.1619
1000.0,431861.9,-87.64689,71.1608
2154.4346900318824,246790.3,-103.3577,71.1613
4641.588833612777,117707.0,-93.52078,71.1625
10000.0,54901.25,-89.10426,71.1614
