Frequency,Impedance,Phase Angle,Temperature (Dry Bath)
10.0,3967560.0,-22.67855,71.4888
21.544346900318832,4469251.0,-8.026118,71.4972
46.41588833612777,5028842.0,-31.31495,71.4884
100.0,588998.0,-57.29238,71.489
215.44346900318823,541201.4,49.64932,71.4856
464.15888336127773,569304.9,-9.643979,71.47
1000.0,169768.0,-63.9063,71.4531
2154.4346900318824,244668.4,-98.02776,71.4836
4641.588833612777,154502.8,-77.27452,71.4777
10000.0,80740.4,-82.76353,71.4772
