Frequency,Impedance,Phase Angle,Temperature (Dry Bath)
10.0,74428.66,-14.51707,72.1646
21.544346900318832,66518.99,-13.28129,72.1589
46.41588833612777,59834.47,-12.26541,72.1603
100.0,52756.95,-13.49982,72.1699
215.44346900318823,52476.19,-15.01037,72.1568
464.15888336127773,43376.85,-3.679557,72.1592
1000.0,46185.54,-5.853888,72.1678
2154.4346900318824,38862.17,-9.545784,72.1633
4641.588833612777,47974.66,-12.50537,72.1672
10000.0,37257.52,-13.68416,72.1665
