Frequency,Impedance,Phase Angle,Temperature (Dry Bath)
10.0,595061.2,-22.87504,71.0784
21.544346900318832,489901.2,-19.53639,71.0615
46.41588833612777,414308.9,-23.05159,71.0583
100.0,215425.6,-13.37757,71.0679
215.44346900318823,332632.3,-40.52416,71.0737
464.15888336127773,338604.0,-36.09742,71.0459
1000.0,190310.9,-35.04644,71.0719
2154.4346900318824,161938.7,-65.83201,71.0455
4641.588833612777,75873.53,-64.41647,71.071
10000.0,47866.73,-72.3264,71.0573
