Frequency,Impedance,Phase Angle,Temperature (Dry Bath)
10.0,17187.57,-24.16565,71.7004
21.544346900318832,13996.41,-24.25918,71.6987
46.41588833612777,11378.6,-23.79294,71.6888
100.0,9301.425,-21.98457,71.6869
215.44346900318823,7793.316,-21.48734,71.7091
464.15888336127773,6626.843,-18.6222,71.6851
1000.0,5637.885,-18.14806,71.6892
2154.4346900318824,4895.221,-17.23056,71.6809
4641.588833612777,4258.92,-16.24967,71.6906
10000.0,3740.028,-15.10869,71.6983
