Frequency,Impedance,Phase Angle,Temperature (Dry Bath)
10.0,4998001.0,11.71239,29.7458
21.544346900318832,5695445.0,-37.77531,29.8265
46.41588833612777,5134957.0,-26.57659,29.7465
100.0,3780448.0,-77.92056,29.9009
215.44346900318823,1339370.0,6.456518,29.7217
464.15888336127773,1231905.0,-150.6299,29.8846
1000.0,2120773.0,-113.81,29.8587
2154.4346900318824,1240665.0,-86.44886,29.8501
4641.588833612777,337804.7,-81.31746,29.9604
10000.0,141822.6,-83.23686,29.9488
