Frequency,Impedance,Phase Angle,Temperature (Dry Bath)
10.0,822626.5,-32.05876,71.2647
21.544346900318832,626519.6,-27.8775,71.2684
46.41588833612777,501441.1,-27.27097,71.2706
100.0,316949.5,-59.70131,71.2701
215.44346900318823,462676.8,59.46778,71.2718
464.15888336127773,280582.1,-18.26184,71.2533
1000.0,200134.1,-46.02568,71.2638
2154.4346900318824,111153.4,-35.94458,71.2629
4641.588833612777,95948.77,-54.06604,71.2696
10000.0,48228.35,-68.86431,71.263
