Frequency,Impedance,Phase Angle,Temperature (Dry Bath)
10.0,3919946.0,6.772824,71.3563
21.544346900318832,4687748.0,-9.19221,71.3632
46.41588833612777,21407370.0,-137.3956,71.3525
100.0,557401.9,-77.82509,71.3401
215.44346900318823,13759.72,-73.61022,71.3601
464.15888336127773,739901.5,-80.12289,71.3482
1000.0,351295.4,-64.34819,71.3558
2154.4346900318824,334251.6,-85.68586,71.3592
4641.588833612777,145184.8,-80.08934,71.3458
10000.0,76219.06,-87.0766,71.3597
