Frequency,Impedance,Phase Angle,Temperature (Dry Bath)
10.0,156048.5,-13.80115,70.9979
21.544346900318832,141514.6,-12.76416,70.9977
46.41588833612777,129985.0,-12.24222,70.9821
100.0,103768.0,-17.73867,71.0088
215.44346900318823,104674.0,-12.71084,70.9943
464.15888336127773,88840.6,-26.49945,71.0064
1000.0,92853.12,-14.61226,70.9773
2154.4346900318824,76480.87,-25.24279,70.9964
4641.588833612777,74409.44,-25.36854,70.9938
10000.0,48366.89,-55.00492,70.9884
