Frequency,Impedance,Phase Angle,Temperature (Dry Bath)
10.0,4926393.0,-9.803906,70.9556
21.544346900318832,5399030.0,8.663607,70.9526
46.41588833612777,4484417.0,-27.32837,70.954
100.0,212897.6,-14.24204,70.9439
215.44346900318823,820773.6,-174.9005,70.9513
464.15888336127773,599815.5,-109.6124,70.9502
1000.0,385379.9,-53.79433,70.9549
2154.4346900318824,230817.9,-77.7139,70.9509
4641.588833612777,116193.6,-99.64393,70.9431
10000.0,64434.88,-85.46406,70.9474
