Frequency,Impedance,Phase Angle,Temperature (Dry Bath)
10.0,26341.43,-29.25042,71.429
21.544346900318832,20653.87,-27.30428,71.4274
46.41588833612777,16512.74,-25.33876,71.4246
100.0,13400.83,-24.08147,71.4332
215.44346900318823,11290.81,-20.33528,71.4273
464.15888336127773,9625.329,-17.12824,71.4276
1000.0,8623.794,-13.98984,71.4308
2154.4346900318824,7530.92,-12.96022,71.4365
4641.588833612777,6958.594,-12.56172,71.4276
10000.0,6464.121,-14.14221,71.4156
