Frequency,Impedance,Phase Angle,Temperature (Dry Bath)
10.0,2234428.0,-15.15605,70.9788
21.544346900318832,2070427.0,-0.593135,70.9838
46.41588833612777,2237684.0,-17.80783,70.9897
100.0,911990.3,-84.43228,70.983
215.44346900318823,393716.4,112.9622,70.9864
464.15888336127773,430547.6,12.25826,70.9886
1000.0,399493.4,22.57836,70.9816
2154.4346900318824,603042.0,-107.6703,70.9997
4641.588833612777,125732.9,-73.35572,70.9774
10000.0,150255.1,-76.92114,70.9868
