Frequency,Impedance,Phase Angle,Temperature (Dry Bath)
10.0,148290.2,-10.10631,71.2407
21.544346900318832,138141.1,-8.54222,71.2421
46.41588833612777,130369.9,-8.675226,71.26
100.0,123537.1,-2.565676,71.2505
215.44346900318823,108892.9,0.007704338,71.2391
464.15888336127773,115042.2,-2.833031,71.2455
1000.0,81535.92,-24.94124,71.2325
2154.4346900318824,101031.8,-22.91606,71.2477
4641.588833612777,65833.4,-42.38342,71.2548
10000.0,49737.78,-69.79632,71.2416
