Frequency,Impedance,Phase Angle,Temperature (Dry Bath)
10.0,357963.9,-24.42756,71.3716
21.544346900318832,281175.1,-21.61687,71.3842
46.41588833612777,238045.2,-21.17843,71.3824
100.0,221503.0,-34.12083,71.398
215.44346900318823,260268.8,-22.64439,71.3844
464.15888336127773,181011.3,-16.86208,71.374
1000.0,125094.7,-27.68505,71.3732
2154.4346900318824,114720.7,-31.25875,71.3626
4641.588833612777,63636.35,-52.21964,71.3682
10000.0,42606.49,-61.46352,71.3618
