Frequency,Impedance,Phase Angle,Temperature (Dry Bath)
10.0,8940.44,-25.7926,70.7579
21.544346900318832,7287.835,-22.53721,70.772
46.41588833612777,6121.521,-19.4886,70.7508
100.0,5263.745,-16.61764,70.7568
215.44346900318823,4666.762,-14.11435,70.7594
464.15888336127773,4200.555,-12.24053,70.7493
1000.0,3776.397,-11.1621,70.7422
2154.4346900318824,3514.609,-9.116295,70.7317
4641.588833612777,3315.278,-9.157932,70.7549
10000.0,3115.328,-9.810999,70.7527
