Frequency,Impedance,Phase Angle,Temperature (Dry Bath)
10.0,4515888.0,-34.20009,70.4936
21.544346900318832,6489224.0,-24.93409,70.5047
46.41588833612777,7243095.0,-2.14888,70.5033
100.0,1418022.0,-11.88445,70.5035
215.44346900318823,1922341.0,-109.0889,70.5029
464.15888336127773,483605.4,-113.0116,70.5037
1000.0,223586.6,-41.01869,70.5059
2154.4346900318824,219706.9,-48.58786,70.5012
4641.588833612777,228658.5,-85.48143,70.5048
10000.0,62961.33,-92.20793,70.5105
