Frequency,Impedance,Phase Angle,Temperature (Dry Bath)
10.0,8384654.0,-26.79491,71.2723
21.544346900318832,3190285.0,-0.4109256,71.2761
46.41588833612777,4607894.0,-23.35391,71.2776
100.0,808591.5,34.68803,71.2739
215.44346900318823,2060577.0,47.61286,71.2817
464.15888336127773,630609.6,-56.60449,71.2697
1000.0,389666.5,-85.93718,71.2755
2154.4346900318824,264002.8,-62.29614,71.2728
4641.588833612777,121924.3,-78.57565,71.2676
10000.0,69223.4,-81.18558,71.2704
