Frequency,Impedance,Phase Angle,Temperature (Dry Bath)
10.0,4887453.0,-15.96553,70.9261
21.544346900318832,4910730.0,-6.108618,70.937
46.41588833612777,4583081.0,-27.37859,70.9311
100.0,661968.4,-35.42716,70.9202
215.44346900318823,3435065.0,-30.07253,70.9463
464.15888336127773,392965.6,-13.45321,70.9232
1000.0,341978.3,175.0619,70.9293
2154.4346900318824,187913.5,-90.61966,70.9227
4641.588833612777,160983.5,-83.02166,70.93
10000.0,60414.41,-88.73124,70.9169
