Frequency,Impedance,Phase Angle,Temperature (Dry Bath)
10.0,5866807.0,-3.477751,71.1968
21.544346900318832,4575352.0,-24.91935,71.1989
46.41588833612777,6111097.0,-29.44928,71.2014
100.0,466795.5,138.4572,71.1943
215.44346900318823,1942079.0,-130.2957,71.2016
464.15888336127773,732197.9,-14.8068,71.2033
1000.0,677058.9,-9.712992,71.2004
2154.4346900318824,682846.4,-72.39893,71.2063
4641.588833612777,112019.3,-77.06783,71.197
10000.0,53342.42,-84.93414,71.1945
