Frequency,Impedance,Phase Angle,Temperature (Dry Bath)
10.0,5275107.0,-13.97849,70.8386
21.544346900318832,6824630.0,-13.38426,70.8292
46.41588833612777,3192564.0,-23.58389,70.8251
100.0,724600.9,147.1905,70.8335
215.44346900318823,652289.8,-17.32712,70.855
464.15888336127773,992647.8,-16.5427,70.8411
1000.0,464717.9,-91.46831,70.8411
2154.4346900318824,163038.5,-82.41189,70.832
4641.588833612777,106087.4,-79.27005,70.835
10000.0,45715.31,-87.69091,70.8243
