Frequency,Impedance,Phase Angle,Temperature (Dry Bath)
10.0,3510658.0,-8.056333,71.3864
21.544346900318832,4024675.0,-28.04649,71.368
46.41588833612777,5357947.0,-8.94505,71.3738
100.0,337040.4,-90.81545,71.3885
215.44346900318823,565764.0,-73.82729,71.3649
464.15888336127773,1168517.0,-144.5464,71.3713
1000.0,367218.4,-9.094461,71.3649
2154.4346900318824,409105.2,-116.732,71.3726
4641.588833612777,259810.3,-99.60897,71.3642
10000.0,119882.1,-89.28222,71.3548
