Frequency,Impedance,Phase Angle,Temperature (Dry Bath)
10.0,9553.97,-26.16627,70.9543
21.544346900318832,7816.313,-21.94992,70.9554
46.41588833612777,6638.651,-18.22041,70.9388
100.0,5768.858,-15.24212,70.9611
215.44346900318823,5251.549,-12.47969,70.9479
464.15888336127773,4769.673,-10.17663,70.9455
1000.0,4403.027,-9.215507,70.9404
2154.4346900318824,4125.339,-8.147294,70.9536
4641.588833612777,3935.583,-7.300708,70.9517
10000.0,3801.506,-8.435095,70.9423
