Frequency,Impedance,Phase Angle,Temperature (Dry Bath)
10.0,253310.2,-14.67203,71.0851
21.544346900318832,225462.4,-14.26109,71.1013
46.41588833612777,195766.0,-14.80398,71.0945
100.0,142740.2,-17.77093,71.081
215.44346900318823,197462.7,-17.58651,71.097
464.15888336127773,145122.8,-16.70648,71.0755
1000.0,137021.1,-14.75801,71.0785
2154.4346900318824,96655.82,-45.58429,71.0809
4641.588833612777,95266.68,-20.35374,71.08
10000.0,54125.99,-48.43283,71.0871
