Frequency,Impedance,Phase Angle,Temperature (Dry Bath)
10.0,3208839.0,17.69064,71.2669
21.544346900318832,6744872.0,1.831078,71.2695
46.41588833612777,5486434.0,-17.26205,71.2796
100.0,405564.3,1.585762,71.2594
215.44346900318823,2822035.0,108.2272,71.2672
464.15888336127773,1609478.0,55.38257,71.2842
1000.0,4101028.0,-82.51408,71.2518
2154.4346900318824,995057.8,-19.65877,71.2503
4641.588833612777,356338.1,-104.4374,71.2414
10000.0,160195.3,-72.71182,71.2491
