Frequency,Impedance,Phase Angle,Temperature (Dry Bath)
10.0,201754.3,-20.37628,71.2834
21.544346900318832,167537.6,-19.05862,71.2713
46.41588833612777,144750.8,-17.72892,71.2637
100.0,131461.5,-6.291401,71.2686
215.44346900318823,41611.0,-49.00335,71.2641
464.15888336127773,122780.3,-27.11498,71.2777
1000.0,93465.97,-21.57279,71.2756
2154.4346900318824,66876.98,-30.86964,71.27
4641.588833612777,55423.3,-34.50924,71.2747
10000.0,34911.81,-55.30063,71.2603
