Frequency,Impedance,Phase Angle,Temperature (Dry Bath)
10.0,4520782.0,-16.53208,71.1372
21.544346900318832,4554991.0,-14.71472,71.134
46.41588833612777,4396974.0,-12.9531,71.1209
100.0,1979223.0,17.73284,71.1267
215.44346900318823,863608.0,-46.81454,71.1394
464.15888336127773,1215148.0,-41.69701,71.1374
1000.0,744783.0,-159.4275,71.1254
2154.4346900318824,174568.3,-87.93021,71.1199
4641.588833612777,141281.8,-93.22705,71.132
10000.0,63969.41,-85.70121,71.1181
