Frequency,Impedance,Phase Angle,Temperature (Dry Bath)
10.0,14062.83,-18.0978,71.3032
21.544346900318832,12275.26,-16.80524,71.299
46.41588833612777,10771.43,-16.26875,71.2833
100.0,9554.92,-16.52224,71.3011
215.44346900318823,8436.588,-14.37501,71.3117
464.15888336127773,7488.05,-13.49215,71.3028
1000.0,6658.275,-12.64169,71.2877
2154.4346900318824,6086.563,-11.18243,71.2969
4641.588833612777,5598.795,-10.58511,71.2984
10000.0,5324.843,-11.26981,71.3096
