Frequency,Impedance,Phase Angle,Temperature (Dry Bath)
10.0,3126036.0,-2.274464,70.9494
21.544346900318832,2521910.0,-18.14874,70.9541
46.41588833612777,2296452.0,-25.63297,70.9657
100.0,662786.5,-48.22593,70.9554
215.44346900318823,576412.9,-69.64474,70.9604
464.15888336127773,532525.4,-97.4864,70.9656
1000.0,539091.0,-31.75646,70.9609
2154.4346900318824,250292.7,-91.33005,70.9581
4641.588833612777,107482.8,-83.27013,70.9469
10000.0,58294.16,-87.95803,70.9514
