Frequency,Impedance,Phase Angle,Temperature (Dry Bath)
10.0,11556660.0,26.62213,71.3701
21.544346900318832,4079570.0,15.58627,71.3681
46.41588833612777,4977090.0,-26.32249,71.387
100.0,791033.7,-9.232482,71.3698
215.44346900318823,497623.2,-93.4131,71.3733
464.15888336127773,770101.6,80.28475,71.3776
1000.0,784529.0,-79.69951,71.378
2154.4346900318824,575746.5,-92.84049,71.4079
4641.588833612777,187294.5,-81.51812,71.3823
10000.0,120414.1,-83.96057,71.3956
