Frequency,Impedance,Phase Angle,Temperature (Dry Bath)
10.0,10134640.0,12.14189,71.1801
21.544346900318832,7184894.0,-10.33717,71.1746
46.41588833612777,4356072.0,-20.48988,71.1795
100.0,843327.5,-105.611,71.174
215.44346900318823,738671.1,111.7051,71.1683
464.15888336127773,534724.2,-93.86042,71.1755
1000.0,396122.9,-82.5659,71.1868
2154.4346900318824,337252.8,-70.2325,71.1875
4641.588833612777,216381.6,-95.23359,71.1671
10000.0,67892.52,-83.61825,71.1808
