Frequency,Impedance,Phase Angle,Temperature (Dry Bath)
10.0,268477.2,-14.88366,70.9134
21.544346900318832,235664.2,-15.9166,70.9201
46.41588833612777,207889.0,-15.98638,70.9292
100.0,161316.7,-15.73619,70.9308
215.44346900318823,180541.2,4.911388,70.9201
464.15888336127773,152278.7,8.584533,70.9281
1000.0,114090.4,-1.340269,70.9233
2154.4346900318824,112080.3,-5.577036,70.9355
4641.588833612777,68791.81,-31.7229,70.9216
10000.0,68551.76,-46.65893,70.9332
