Frequency,Impedance,Phase Angle,Temperature (Dry Bath)
10.0,15535280.0,64.23922,71.4234
21.544346900318832,5929284.0,-30.59838,71.4371
46.41588833612777,5080761.0,-19.0714,71.4201
100.0,689796.1,48.35147,71.4239
215.44346900318823,34985.07,129.4468,71.4372
464.15888336127773,358927.6,-37.58396,71.4234
1000.0,453545.9,-55.63201,71.4188
2154.4346900318824,263727.6,-96.15134,71.4121
4641.588833612777,129343.4,-85.05199,71.4178
10000.0,55187.44,-82.9814,71.4155
