Frequency,Impedance,Phase Angle,Temperature (Dry Bath)
10.0,4540808.0,-16.13546,71.3094
21.544346900318832,5938332.0,-24.95626,71.3154
46.41588833612777,4109756.0,-20.9308,71.3041
100.0,457448.8,10.2241,71.304
215.44346900318823,971895.3,147.0957,71.2951
464.15888336127773,1754131.0,-118.2303,71.3002
1000.0,320121.3,-59.48841,71.3072
2154.4346900318824,277800.5,-71.96921,71.3069
4641.588833612777,138517.2,-87.96343,71.2964
10000.0,75284.21,-85.65361,71.3116
