Frequency,Impedance,Phase Angle,Temperature (Dry Bath)
10.0,6126788.0,-27.2465,71.2631
21.544346900318832,2890834.0,7.565711,71.2553
46.41588833612777,4169260.0,-25.78699,71.2571
100.0,510816.5,167.3104,71.2656
215.44346900318823,696240.7,-24.50967,71.2618
464.15888336127773,1555965.0,94.28537,71.2574
1000.0,806031.0,-108.5975,71.2577
2154.4346900318824,251537.0,-83.88786,71.2711
4641.588833612777,128345.5,-97.59237,71.2762
10000.0,55620.58,-84.45948,71.2724
