Frequency,Impedance,Phase Angle,Temperature (Dry Bath)
10.0,13044.39,-30.14679,70.7939
21.544346900318832,10343.78,-27.3876,70.7712
46.41588833612777,8355.93,-24.66221,70.7924
100.0,6767.565,-22.464,70.7782
215.44346900318823,5795.238,-18.79423,70.7863
464.15888336127773,5032.692,-15.84415,70.8033
1000.0,4441.949,-12.81947,70.7952
2154.4346900318824,4074.739,-10.48845,70.7792
4641.588833612777,3860.367,-10.28167,70.794
10000.0,3602.519,-9.877715,70.7905
