Frequency,Impedance,Phase Angle,Temperature (Dry Bath)
10.0,3076076.0,4.226083,71.4399
21.544346900318832,5758889.0,-12.61344,71.4216
46.41588833612777,4819585.0,2.689302,71.4384
100.0,2635810.0,-107.4278,71.4351
215.44346900318823,1787760.0,-168.6042,71.448
464.15888336127773,1033108.0,-105.3644,71.4419
1000.0,1241213.0,-63.87833,71.4355
2154.4346900318824,438685.2,-108.9383,71.4344
4641.588833612777,307332.9,-87.86682,71.4391
10000.0,138767.5,-88.34816,71.4334
