Frequency,Impedance,Phase Angle,Temperature (Dry Bath)
10.0,4208256.0,7.98852,71.2353
21.544346900318832,4208536.0,-13.60643,71.2431
46.41588833612777,5178545.0,-19.1809,71.2377
100.0,551249.0,38.17779,71.2586
215.44346900318823,387452.9,132.927,71.2435
464.15888336127773,724461.0,-134.9912,71.2319
1000.0,575753.4,-14.57091,71.2233
2154.4346900318824,213737.7,-82.61509,71.2242
4641.588833612777,130642.1,-80.90375,71.2425
10000.0,67367.25,-102.8166,71.2279
