Frequency,Impedance,Phase Angle,Temperature (Dry Bath)
10.0,6335854.0,23.30057,71.3983
21.544346900318832,8685003.0,-35.94431,71.3773
46.41588833612777,4158752.0,-36.55377,71.392
100.0,917696.0,-42.49902,71.3919
215.44346900318823,783251.4,-133.4448,71.3852
464.15888336127773,791458.3,-57.00299,71.3886
1000.0,334660.1,-63.57975,71.3923
2154.4346900318824,209341.2,-84.33682,71.3759
4641.588833612777,124589.7,-79.30742,71.3799
10000.0,60500.2,-87.11442,71.373
