Frequency,Impedance,Phase Angle,Temperature (Dry Bath)
10.0,8633602.0,-21.93324,71.1731
21.544346900318832,4451472.0,-12.43558,71.1756
46.41588833612777,5185508.0,-22.86846,71.1943
100.0,3931905.0,112.2407,71.1876
215.44346900318823,887708.5,47.50269,71.1708
464.15888336127773,436363.0,-66.68177,71.1636
1000.0,563830.9,-64.99761,71.1879
2154.4346900318824,290874.6,-86.07499,71.1644
4641.588833612777,135567.6,-78.13451,71.1955
10000.0,61658.94,-86.77537,71.1781
