Frequency,Impedance,Phase Angle,Temperature (Dry Bath)
10.0,5649510.0,4.934216,71.2032
21.544346900318832,7036826.0,-68.8693,71.2141
46.41588833612777,5178584.0,-38.3183,71.211
100.0,1064281.0,11.00035,71.1949
215.44346900318823,940749.1,145.5755,71.1993
464.15888336127773,463999.9,40.04088,71.2267
1000.0,332410.6,-7.905288,71.225
2154.4346900318824,195466.5,-87.76994,71.1845
4641.588833612777,183533.8,-81.23854,71.209
10000.0,68059.19,-90.39531,71.1955
