Frequency,Impedance,Phase Angle,Temperature (Dry Bath)
10.0,14980400.0,11.84474,71.3118
21.544346900318832,6803107.0,-7.093033,71.3043
46.41588833612777,4241093.0,-19.78871,71.3061
100.0,1096061.0,-62.31353,71.2989
215.44346900318823,17139.27,-99.19692,71.3058
464.15888336127773,4230052.0,-140.9279,71.2904
1000.0,552229.0,-80.40383,71.3072
2154.4346900318824,351234.9,-98.91547,71.3082
4641.588833612777,138790.5,-91.03488,71.2969
10000.0,57219.31,-86.04226,71.3154
