Frequency,Impedance,Phase Angle,Temperature (Dry Bath)
10.0,4161586.0,1.458039,29.1069
21.544346900318832,4994105.0,2.006,29.1509
46.41588833612777,5024784.0,-19.32495,29.1947
100.0,2337519.0,-80.72737,28.9604
215.44346900318823,1204651.0,-84.32126,28.7027
464.15888336127773,1061075.0,-94.87887,28.7774
1000.0,2315394.0,26.27252,28.7078
2154.4346900318824,376838.2,-64.76371,28.6197
4641.588833612777,345121.5,-78.71031,28.7563
10000.0,146561.5,-87.40639,28.5295
