Frequency,Impedance,Phase Angle,Temperature (Dry Bath)
10.0,4440605.0,-9.307016,70.9585
21.544346900318832,8453085.0,-17.01948,70.9671
46.41588833612777,4587336.0,-29.90616,70.9547
100.0,330576.5,-86.72456,70.9601
215.44346900318823,995140.3,-72.87697,70.9613
464.15888336127773,1356048.0,-131.4765,70.9582
1000.0,385482.2,-51.32406,70.9538
2154.4346900318824,233559.3,-74.91748,70.9539
4641.588833612777,125592.1,-70.51654,70.9714
10000.0,73363.89,-82.58135,70.9675
