Frequency,Impedance,Phase Angle,Temperature (Dry Bath)
10.0,5809796.0,-9.237279,70.9739
21.544346900318832,6210125.0,-18.94948,70.9537
46.41588833612777,4955443.0,-27.85878,70.9512
100.0,261502.6,89.31325,70.9657
215.44346900318823,625889.4,-90.21835,70.9669
464.15888336127773,767989.9,-111.4067,70.9568
1000.0,253913.1,-74.62893,70.9639
2154.4346900318824,292894.3,-82.90168,70.9652
4641.588833612777,132053.8,-81.95435,70.9606
10000.0,56491.72,-85.8132,70.9601
