Frequency,Impedance,Phase Angle,Temperature (Dry Bath)
10.0,24669.35,-20.55866,71.3508
21.544346900318832,20972.18,-18.00824,71.3572
46.41588833612777,18198.23,-15.78069,71.3439
100.0,16238.59,-13.07525,71.3431
215.44346900318823,43368.31,-52.91556,71.3488
464.15888336127773,13269.82,-11.22395,71.3603
1000.0,12701.13,-9.484324,71.3496
2154.4346900318824,11606.52,-10.90115,71.3401
4641.588833612777,10880.0,-10.62568,71.3439
10000.0,10596.23,-15.00236,71.3629
