Frequency,Impedance,Phase Angle,Temperature (Dry Bath)
10.0,34264.74,-13.70796,70.9441
21.544346900318832,31113.36,-11.72032,70.9441
46.41588833612777,28786.2,-10.65294,70.9491
100.0,25501.53,-10.82212,70.9334
215.44346900318823,25104.0,-10.54646,70.9516
464.15888336127773,22173.17,-11.69225,70.9502
1000.0,21891.84,-7.696937,70.9403
2154.4346900318824,19977.1,-10.20588,70.9561
4641.588833612777,17880.72,-16.3383,70.9263
10000.0,16457.33,-20.8061,70.9418
