Frequency,Impedance,Phase Angle,Temperature (Dry Bath)
10.0,102653.4,-14.05754,71.3437
21.544346900318832,91782.17,-13.61214,71.3185
46.41588833612777,82878.13,-11.91248,71.3522
100.0,67037.5,-7.752436,71.3467
215.44346900318823,61534.1,-8.111941,71.3377
464.15888336127773,58743.04,-9.874641,71.3539
1000.0,61393.92,-21.0561,71.3547
2154.4346900318824,54690.24,-26.4182,71.3473
4641.588833612777,39168.41,-40.78573,71.3343
10000.0,26054.02,-54.43671,71.3461
