Frequency,Impedance,Phase Angle,Temperature (Dry Bath)
10.0,5911.966,-24.74237,70.9078
21.544346900318832,4874.688,-21.72752,70.9044
46.41588833612777,4121.733,-19.07037,70.9029
100.0,3558.286,-16.258,70.9091
215.44346900318823,3145.701,-14.40127,70.9051
464.15888336127773,2817.699,-12.4413,70.9137
1000.0,2588.66,-10.28497,70.9123
2154.4346900318824,2369.275,-9.141208,70.9152
4641.588833612777,2232.764,-8.251517,70.9149
10000.0,2111.334,-8.482774,70.9141
