Frequency,Impedance,Phase Angle,Temperature (Dry Bath)
10.0,3783069.0,8.839762,71.054
21.544346900318832,5820580.0,14.45164,71.06
46.41588833612777,4932279.0,-27.84042,71.0814
100.0,862788.2,-29.34571,71.0519
215.44346900318823,479098.1,59.68641,71.0747
464.15888336127773,942408.0,-144.2834,71.0628
1000.0,131275.9,78.2517,71.059
2154.4346900318824,761375.0,21.02186,71.0741
4641.588833612777,193158.1,-103.0906,71.0527
10000.0,122826.9,-86.57792,71.0571
