Frequency,Impedance,Phase Angle,Temperature (Dry Bath)
10.0,150202.0,-10.22751,71.1836
21.544346900318832,138319.2,-9.359376,71.1949
46.41588833612777,129727.3,-8.957796,71.1802
100.0,117578.3,-15.11211,71.1738
215.44346900318823,117530.6,-14.98086,71.1649
464.15888336127773,123129.5,-11.01082,71.1727
1000.0,88655.48,-14.25914,71.1867
2154.4346900318824,86274.51,-21.43218,71.1754
4641.588833612777,63715.81,-52.91398,71.1777
10000.0,41371.6,-60.37831,71.1836
