Frequency,Impedance,Phase Angle,Temperature (Dry Bath)
10.0,4694360.0,-8.304245,71.2765
21.544346900318832,5508779.0,-1.045234,71.2671
46.41588833612777,4206673.0,-35.2927,71.2882
100.0,361408.1,-42.73967,71.2766
215.44346900318823,806497.9,-58.6092,71.2702
464.15888336127773,3290769.0,-80.19174,71.2742
1000.0,338610.8,179.8992,71.2636
2154.4346900318824,220058.1,-94.22515,71.2702
4641.588833612777,127952.4,-72.98059,71.2645
10000.0,61645.43,-84.36145,71.2657
