Frequency,Impedance,Phase Angle,Temperature (Dry Bath)
10.0,4957.62,-34.36268,70.9064
21.544346900318832,3780.309,-28.90429,70.8983
46.41588833612777,3051.864,-23.5621,70.9013
100.0,2575.18,-19.01804,70.906
215.44346900318823,2248.876,-15.7485,70.9236
464.15888336127773,2002.689,-12.93507,70.8996
1000.0,1818.809,-11.19463,70.9154
2154.4346900318824,1673.373,-9.685166,70.9142
4641.588833612777,1572.149,-8.522399,70.8983
10000.0,1478.567,-7.712473,70.9099
