Frequency,Impedance,Phase Angle,Temperature (Dry Bath)
10.0,6758151.0,9.790518,71.2063
21.544346900318832,4500786.0,-0.367886,71.184
46.41588833612777,5313967.0,-2.624917,71.2124
100.0,518297.5,15.13734,71.1939
215.44346900318823,1831103.0,-81.62245,71.1955
464.15888336127773,1619906.0,-146.8496,71.1772
1000.0,1532210.0,-103.0508,71.1969
2154.4346900318824,475579.0,-95.35977,71.2022
4641.588833612777,369250.1,-89.23191,71.2192
10000.0,133452.4,-79.33527,71.2008
