Frequency,Impedance,Phase Angle,Temperature (Dry Bath)
10.0,4673271.0,-1.507699,71.2908
21.544346900318832,5673610.0,27.39859,71.2936
46.41588833612777,6321417.0,-45.40281,71.2905
100.0,593257.7,114.9811,71.2888
215.44346900318823,958038.8,60.06018,71.2798
464.15888336127773,401158.6,-23.27536,71.2722
1000.0,769823.4,-150.7766,71.289
2154.4346900318824,666047.2,-113.141,71.276
4641.588833612777,353837.4,-41.45444,71.285
10000.0,181371.0,-73.95955,71.2828
