Frequency,Impedance,Phase Angle,Temperature (Dry Bath)
10.0,5520411.0,10.59396,71.0706
21.544346900318832,9916476.0,46.38805,71.0902
46.41588833612777,6144514.0,-14.40001,71.0855
100.0,468186.8,62.90133,71.0858
215.44346900318823,1283721.0,37.4991,71.079
464.15888336127773,389351.8,-44.79455,71.0888
1000.0,274881.1,-114.7834,71.0894
2154.4346900318824,1054503.0,106.7107,71.0868
4641.588833612777,252860.9,-4.700679,71.101
10000.0,162146.1,-60.53775,71.0908
