Frequency,Impedance,Phase Angle,Temperature (Dry Bath)
10.0,43364.24,-16.61321,70.7321
21.544346900318832,38019.24,-15.04777,70.7181
46.41588833612777,33741.3,-13.45096,70.7408
100.0,30059.49,-12.12167,70.7299
215.44346900318823,27284.02,-10.85689,70.7272
464.15888336127773,26254.51,-10.34167,70.7314
1000.0,24552.89,-7.198695,70.7249
2154.4346900318824,21599.55,-10.09007,70.7249
4641.588833612777,21250.83,-18.00589,70.7085
10000.0,18091.65,-23.80445,70.7159
