Frequency,Impedance,Phase Angle,Temperature (Dry Bath)
10.0,33597.64,-10.79508,70.9547
21.544346900318832,31328.27,-9.395385,70.9474
46.41588833612777,29271.56,-8.674134,70.9611
100.0,27970.84,-7.555887,70.9594
215.44346900318823,24900.0,-6.441001,70.9556
464.15888336127773,23189.43,-10.58194,70.9635
1000.0,22241.55,-10.23001,70.9476
2154.4346900318824,21178.67,-12.1758,70.9503
4641.588833612777,19365.34,-15.05316,70.9521
10000.0,17701.36,-24.12893,70.9507
