Frequency,Impedance,Phase Angle,Temperature (Dry Bath)
10.0,3540.078,-31.59571,71.1432
21.544346900318832,2788.518,-26.3616,71.1259
46.41588833612777,2290.743,-21.62539,71.123
100.0,1958.356,-17.43014,71.1507
215.44346900318823,1730.625,-13.81188,71.1604
464.15888336127773,1572.407,-10.74377,71.1385
1000.0,1453.924,-8.791492,71.1476
2154.4346900318824,1368.241,-7.133558,71.1378
4641.588833612777,1298.951,-5.960102,71.1413
10000.0,1252.034,-5.554004,71.1492
