Frequency,Impedance,Phase Angle,Temperature (Dry Bath)
10.0,4198651.0,13.9178,71.0602
21.544346900318832,3686999.0,-23.3712,71.0782
46.41588833612777,2734409.0,-13.79996,71.087
100.0,660418.4,177.937,71.0785
215.44346900318823,555585.1,-161.4209,71.0639
464.15888336127773,1272589.0,93.82892,71.0773
1000.0,509491.0,-68.00911,71.0741
2154.4346900318824,229583.7,-90.78923,71.0632
4641.588833612777,105254.6,-83.29027,71.0585
10000.0,74754.29,-84.48661,71.0726
