Frequency,Impedance,Phase Angle,Temperature (Dry Bath)
10.0,6990.948,-35.83695,70.6828
21.544346900318832,5287.161,-31.09494,70.6783
46.41588833612777,4162.863,-26.58221,70.6824
100.0,3400.724,-22.21869,70.6797
215.44346900318823,2886.778,-18.48215,70.6899
464.15888336127773,2521.372,-15.2056,70.6969
1000.0,2233.743,-12.73224,70.6984
2154.4346900318824,2030.563,-11.15067,70.7053
4641.588833612777,1883.661,-9.346023,70.663
10000.0,1763.074,-9.008995,70.6784
