Frequency,Impedance,Phase Angle,Temperature (Dry Bath)
10.0,24695.58,-20.31131,71.2484
21.544346900318832,21137.38,-17.9533,71.2493
46.41588833612777,18330.46,-15.71365,71.2422
100.0,16097.49,-13.02847,71.248
215.44346900318823,14589.15,-13.18165,71.2617
464.15888336127773,13548.47,-9.81999,71.2475
1000.0,12616.34,-9.29343,71.2558
2154.4346900318824,11718.76,-8.962069,71.2368
4641.588833612777,11033.4,-10.1902,71.2501
10000.0,10312.54,-15.73155,71.2512
