Frequency,Impedance,Phase Angle,Temperature (Dry Bath)
10.0,3977381.0,-0.6788232,70.9749
21.544346900318832,7925664.0,6.066357,70.9762
46.41588833612777,4042347.0,-16.38512,70.9769
100.0,1080987.0,-22.14052,70.9882
215.44346900318823,910845.8,0.9711504,70.9696
464.15888336127773,221645.2,-100.3155,70.9772
1000.0,1160565.0,-30.1086,70.9886
2154.4346900318824,229478.5,-72.37863,70.9661
4641.588833612777,151502.4,-76.07682,70.9749
10000.0,64511.7,-83.7336,70.977
