Frequency,Impedance,Phase Angle,Temperature (Dry Bath)
10.0,11325.93,-25.62407,71.3037
21.544346900318832,9244.97,-22.69669,71.2866
46.41588833612777,7726.207,-19.95885,71.3011
100.0,6661.372,-16.91872,71.3109
215.44346900318823,5755.952,-15.2877,71.3167
464.15888336127773,5183.609,-13.3265,71.2948
1000.0,4724.715,-12.02413,71.2945
2154.4346900318824,4290.946,-9.947719,71.3115
4641.588833612777,4007.8,-8.941243,71.285
10000.0,3789.982,-10.85563,71.3063
