Frequency,Impedance,Phase Angle,Temperature (Dry Bath)
10.0,5995108.0,33.80143,71.3195
21.544346900318832,4307837.0,-11.66359,71.3331
46.41588833612777,4936201.0,-31.88126,71.3337
100.0,909285.2,117.4173,71.3233
215.44346900318823,450492.0,-107.6815,71.3412
464.15888336127773,972498.4,-75.26335,71.3304
1000.0,551126.3,-86.08292,71.3401
2154.4346900318824,255425.7,-89.96496,71.3248
4641.588833612777,257032.4,-105.5549,71.3298
10000.0,178008.4,-75.45683,71.3324
