Frequency,Impedance,Phase Angle,Temperature (Dry Bath)
10.0,23764.13,-21.11501,71.4454
21.544346900318832,20010.5,-18.3627,71.4136
46.41588833612777,17394.18,-15.52405,71.4228
100.0,15560.6,-11.46231,71.4284
215.44346900318823,9513.037,-60.5983,71.43
464.15888336127773,13223.38,-9.065832,71.4239
1000.0,12249.75,-8.988345,71.4079
2154.4346900318824,11407.64,-8.501142,71.4183
4641.588833612777,11115.31,-11.00478,71.3898
10000.0,10072.11,-15.46635,71.391
