Frequency,Impedance,Phase Angle,Temperature (Dry Bath)
10.0,8083630.0,-27.89237,71.1159
21.544346900318832,5845788.0,-11.80923,71.1343
46.41588833612777,5641562.0,0.9134585,71.1091
100.0,1254618.0,21.69274,71.1238
215.44346900318823,654116.7,26.44304,71.1222
464.15888336127773,426271.2,-4.179773,71.1041
1000.0,339695.4,130.0533,71.1238
2154.4346900318824,327614.2,-101.214,71.1169
4641.588833612777,185301.1,-70.46938,71.1086
10000.0,139029.6,-70.4081,71.1097
