Frequency,Impedance,Phase Angle,Temperature (Dry Bath)
10.0,5001132.0,-18.41244,71.528
21.544346900318832,6821013.0,-29.27088,71.5211
46.41588833612777,3137281.0,-5.261472,71.5156
100.0,654100.0,-19.33351,71.5166
215.44346900318823,1040250.0,40.9343,71.5124
464.15888336127773,1851085.0,-33.90381,71.5153
1000.0,1423324.0,-51.22472,71.5157
2154.4346900318824,354467.3,-103.5584,71.5201
4641.588833612777,293544.8,-88.49101,71.5019
10000.0,141573.2,-85.99522,71.5216
