Frequency,Impedance,Phase Angle,Temperature (Dry Bath)
10.0,5625228.0,-18.41366,71.0916
21.544346900318832,3733163.0,-12.46799,71.0682
46.41588833612777,5694915.0,6.119066,71.0643
100.0,1131473.0,65.20864,71.0621
215.44346900318823,982608.5,116.5895,71.053
464.15888336127773,4547029.0,124.5113,71.0544
1000.0,524739.1,-62.0009,71.0506
2154.4346900318824,2030678.0,-59.71712,71.0577
4641.588833612777,194414.0,-60.97877,71.0571
10000.0,168864.8,-82.25923,71.0519
