Frequency,Impedance,Phase Angle,Temperature (Dry Bath)
10.0,85538.62,-12.21212,72.242
21.544346900318832,78392.49,-10.6664,72.2311
46.41588833612777,72423.74,-9.096931,72.2145
100.0,79433.3,-5.390942,72.2387
215.44346900318823,67491.62,-13.28197,72.226
464.15888336127773,62471.03,-5.564934,72.2262
1000.0,62542.42,-9.163912,72.2292
2154.4346900318824,51479.6,-12.01293,72.2299
4641.588833612777,48617.28,-12.64261,72.2272
10000.0,42434.74,-24.19022,72.2359
