Frequency,Impedance,Phase Angle,Temperature (Dry Bath)
10.0,285924.6,-14.87922,70.9795
21.544346900318832,249385.0,-15.40394,70.9749
46.41588833612777,217454.9,-14.56194,70.9943
100.0,115309.7,-27.72205,70.9938
215.44346900318823,166463.0,-30.69433,71.0054
464.15888336127773,126786.5,-0.9908115,71.0054
1000.0,161129.4,-43.03749,71.0032
2154.4346900318824,111824.2,-48.5352,71.0093
4641.588833612777,86026.09,-68.3466,71.0142
10000.0,95545.57,-40.55446,71.0067
