Frequency,Impedance,Phase Angle,Temperature (Dry Bath)
10.0,5699339.0,-11.67756,71.019
21.544346900318832,4340921.0,-4.185013,71.023
46.41588833612777,5012178.0,-56.36885,71.022
100.0,630452.0,-40.03608,71.0209
215.44346900318823,1508152.0,-132.9741,71.0076
464.15888336127773,352749.7,-42.16725,71.0227
1000.0,450714.0,-68.06955,71.0293
2154.4346900318824,227402.6,-110.8863,71.0148
4641.588833612777,129335.7,-86.50947,71.0293
10000.0,59758.04,-83.1766,71.0097
