Frequency,Impedance,Phase Angle,Temperature (Dry Bath)
10.0,4443679.0,-3.70618,71.2724
21.544346900318832,4156468.0,-20.62336,71.2676
46.41588833612777,4752716.0,-45.2382,71.2711
100.0,495471.0,-14.97929,71.2774
215.44346900318823,627269.5,103.0035,71.2723
464.15888336127773,611775.4,-67.67919,71.2714
1000.0,979637.6,-137.176,71.288
2154.4346900318824,196666.7,-83.84738,71.275
4641.588833612777,188497.1,-97.78888,71.2845
10000.0,61233.26,-90.50442,71.2775
