Frequency,Impedance,Phase Angle,Temperature (Dry Bath)
10.0,3270671.0,-17.328,71.3906
21.544346900318832,3235152.0,-43.81365,71.384
46.41588833612777,3071137.0,-29.89276,71.4046
100.0,339796.0,-71.25826,71.3972
215.44346900318823,1247420.0,19.06163,71.3952
464.15888336127773,1219880.0,-37.71699,71.4008
1000.0,412246.5,-100.2111,71.4009
2154.4346900318824,216573.9,-80.9492,71.3995
4641.588833612777,136126.0,-88.45862,71.399
10000.0,67292.24,-78.99241,71.3991
