Frequency,Impedance,Phase Angle,Temperature (Dry Bath)
10.0,3543573.0,-13.46844,70.5956
21.544346900318832,4925482.0,-33.34819,70.6042
46.41588833612777,4617500.0,-11.20377,70.5972
100.0,5818178.0,151.8553,70.6035
215.44346900318823,573612.4,-26.4335,70.604
464.15888336127773,510581.5,-58.62855,70.5941
1000.0,594925.9,-34.39377,70.6206
2154.4346900318824,462755.1,-74.48144,70.6063
4641.588833612777,137038.7,-92.83028,70.597
10000.0,64079.86,-83.96329,70.6068
