Frequency,Impedance,Phase Angle,Temperature (Dry Bath)
10.0,34713.29,-11.45585,70.5504
21.544346900318832,32230.76,-9.924825,70.5488
46.41588833612777,30133.09,-9.217865,70.5519
100.0,28198.95,-10.42349,70.5657
215.44346900318823,25932.25,-10.7826,70.5516
464.15888336127773,23576.53,-11.02331,70.5419
1000.0,22833.79,-10.92581,70.5452
2154.4346900318824,21993.54,-11.70185,70.5377
4641.588833612777,18999.58,-15.09464,70.535
10000.0,18522.64,-23.33217,70.5377
