Frequency,Impedance,Phase Angle,Temperature (Dry Bath)
10.0,6852946.0,0.654862,71.1309
21.544346900318832,4027623.0,8.638814,71.1556
46.41588833612777,5614336.0,-15.46436,71.1427
100.0,943184.4,-20.88123,71.1457
215.44346900318823,716168.7,-52.06061,71.1353
464.15888336127773,1300807.0,-81.88206,71.1308
1000.0,449473.8,-49.26882,71.1227
2154.4346900318824,327441.8,-99.55283,71.1376
4641.588833612777,207722.4,-85.52479,71.149
10000.0,64655.53,-78.39384,71.1337
