Frequency,Impedance,Phase Angle,Temperature (Dry Bath)
10.0,8203693.0,-9.985162,71.2896
21.544346900318832,7406987.0,-20.21459,71.2771
46.41588833612777,3533188.0,-5.763142,71.2912
100.0,235694.9,2.52152,71.3021
215.44346900318823,18286.7,-160.6251,71.2728
464.15888336127773,389124.7,-71.90655,71.2759
1000.0,528022.8,-72.46922,71.2831
2154.4346900318824,243917.6,-84.84495,71.2941
4641.588833612777,144548.0,-85.38021,71.2855
10000.0,55345.3,-80.57952,71.281
