Frequency,Impedance,Phase Angle,Temperature (Dry Bath)
10.0,4227928.0,-16.11031,70.6737
21.544346900318832,7884107.0,-19.67131,70.6934
46.41588833612777,4678800.0,-25.94625,70.6876
100.0,579123.9,-16.14522,70.695
215.44346900318823,1089810.0,-75.35506,70.6954
464.15888336127773,512439.5,-51.61856,70.6761
1000.0,445981.0,-108.9562,70.6837
2154.4346900318824,321914.4,-91.41548,70.6637
4641.588833612777,126488.0,-88.09656,70.6864
10000.0,55722.26,-92.83173,70.6788
