Frequency,Impedance,Phase Angle,Temperature (Dry Bath)
10.0,5760954.0,-2.714836,71.4677
21.544346900318832,4345612.0,-19.57894,71.4774
46.41588833612777,7681125.0,11.75884,71.4689
100.0,1893880.0,100.4012,71.4796
215.44346900318823,1115102.0,-4.592683,71.456
464.15888336127773,1298703.0,44.37032,71.4711
1000.0,3158373.0,-130.1379,71.4719
2154.4346900318824,861022.1,-137.8368,71.4625
4641.588833612777,374422.2,-79.70389,71.4588
10000.0,134909.4,-83.61306,71.4694
