Frequency,Impedance,Phase Angle,Temperature (Dry Bath)
10.0,11545920.0,-55.40648,71.3289
21.544346900318832,4395216.0,-14.18604,71.3029
46.41588833612777,7617892.0,-25.58987,71.3219
100.0,1593836.0,35.88041,71.3212
215.44346900318823,1279556.0,103.0963,71.3202
464.15888336127773,570217.7,-43.5941,71.3127
1000.0,2757951.0,0.2779328,71.3125
2154.4346900318824,546973.1,-99.78556,71.3129
4641.588833612777,259993.3,-68.9439,71.3151
10000.0,126971.8,-82.74732,71.3341
