Frequency,Impedance,Phase Angle,Temperature (Dry Bath)
10.0,4811928.0,18.88543,71.1907
21.544346900318832,4825424.0,-1.125364,71.2067
46.41588833612777,4647485.0,-15.76505,71.2052
100.0,878655.0,-107.5846,71.2029
215.44346900318823,796038.8,-84.39673,71.2046
464.15888336127773,539429.7,-0.396825,71.2084
1000.0,679544.6,-58.87255,71.2178
2154.4346900318824,258281.8,-83.47156,71.2068
4641.588833612777,118078.7,-84.7903,71.2211
10000.0,59267.48,-88.67773,71.1894
