Frequency,Impedance,Phase Angle,Temperature (Dry Bath)
10.0,5078769.0,10.85409,70.6959
21.544346900318832,4632305.0,6.047723,70.7002
46.41588833612777,3795916.0,-8.260539,70.6956
100.0,423420.6,-10.57456,70.6962
215.44346900318823,1898664.0,-12.67256,70.7053
464.15888336127773,1481312.0,-14.95453,70.6839
1000.0,494729.7,-83.92129,70.6927
2154.4346900318824,248683.8,-86.40598,70.6875
4641.588833612777,137037.4,-87.47137,70.6977
10000.0,60937.05,-82.85426,70.7018
