Frequency,Impedance,Phase Angle,Temperature (Dry Bath)
10.0,136702.9,-14.18803,71.0698
21.544346900318832,122355.8,-12.68614,71.0515
46.41588833612777,111398.4,-11.94894,71.0713
100.0,91104.09,-12.692,71.0719
215.44346900318823,91161.8,-5.080023,71.087
464.15888336127773,84202.21,-14.32866,71.067
1000.0,75598.13,-21.04998,71.0851
2154.4346900318824,77690.7,-17.10872,71.0625
4641.588833612777,55299.43,-33.07153,71.0641
10000.0,47587.57,-48.67377,71.0744
