Frequency,Impedance,Phase Angle,Temperature (Dry Bath)
10.0,7182756.0,9.930718,71.1714
21.544346900318832,9748684.0,-6.501301,71.169
46.41588833612777,4106926.0,-15.09316,71.1974
100.0,558642.3,-121.3151,71.1748
215.44346900318823,1742893.0,-76.64348,71.1753
464.15888336127773,941350.9,-1.360123,71.198
1000.0,549610.8,-39.1511,71.1784
2154.4346900318824,223489.1,-84.71759,71.1882
4641.588833612777,116045.2,-91.03012,71.193
10000.0,75231.48,-83.49015,71.1828
