Frequency,Impedance,Phase Angle,Temperature (Dry Bath)
10.0,11615.07,-24.23301,71.5404
21.544346900318832,9476.141,-24.33171,71.5377
46.41588833612777,7663.597,-24.14623,71.5474
100.0,6195.315,-23.21889,71.5367
215.44346900318823,5108.403,-21.54302,71.5316
464.15888336127773,4245.578,-18.82983,71.5231
1000.0,3623.54,-17.26048,71.5225
2154.4346900318824,3175.432,-15.27875,71.5412
4641.588833612777,2833.759,-13.39493,71.5425
10000.0,2561.045,-12.66277,71.535
