Frequency,Impedance,Phase Angle,Temperature (Dry Bath)
10.0,28321.26,-19.52834,71.2484
21.544346900318832,200752.9,-15.13069,71.249
46.41588833612777,177107.5,-15.98917,71.2394
100.0,199895.7,-24.05678,71.2603
215.44346900318823,104331.1,-22.41214,71.254
464.15888336127773,131268.8,-20.74405,71.2377
1000.0,100124.5,-30.26484,71.2545
2154.4346900318824,85121.77,-36.03295,71.2488
4641.588833612777,54617.36,-38.6023,71.2381
10000.0,39264.67,-55.98784,71.2481
