Frequency,Impedance,Phase Angle,Temperature (Dry Bath)
10.0,5334380.0,-19.45947,70.9921
21.544346900318832,4790943.0,14.04142,70.9966
46.41588833612777,6715460.0,-13.14538,70.9996
100.0,608224.6,111.1008,71.0132
215.44346900318823,519368.1,-131.3594,70.9869
464.15888336127773,637672.7,35.79648,71.0008
1000.0,510886.1,-146.0002,70.9927
2154.4346900318824,728051.7,-65.89773,70.9769
4641.588833612777,155491.4,-80.7116,70.9766
10000.0,76911.07,-86.748,70.9933
