Frequency,Impedance,Phase Angle,Temperature (Dry Bath)
10.0,243278.3,-23.89271,71.2608
21.544346900318832,195238.5,-21.76709,71.2802
46.41588833612777,165639.0,-20.02213,71.2705
100.0,110344.2,-14.00576,71.2529
215.44346900318823,101486.8,-18.94011,71.2759
464.15888336127773,92716.9,-24.59033,71.2478
1000.0,100475.1,-18.66103,71.2586
2154.4346900318824,68637.27,-36.46672,71.264
4641.588833612777,59321.6,-42.50545,71.2468
10000.0,40912.12,-56.42167,71.2599
