Frequency,Impedance,Phase Angle,Temperature (Dry Bath)
10.0,4457023.0,-11.0715,71.1541
21.544346900318832,8616165.0,19.0377,71.1693
46.41588833612777,4353746.0,-23.95856,71.1475
100.0,516282.0,45.35034,71.1589
215.44346900318823,1263952.0,-60.2462,71.1527
464.15888336127773,607315.6,-77.35027,71.149
1000.0,813290.7,-100.891,71.1621
2154.4346900318824,396139.6,-88.268,71.1481
4641.588833612777,115116.4,-86.01439,71.1612
10000.0,65891.42,-91.03024,71.1613
