Frequency,Impedance,Phase Angle,Temperature (Dry Bath)
10.0,4528180.0,-4.783025,70.9934
21.544346900318832,3677594.0,-28.99576,70.9992
46.41588833612777,4644951.0,-13.1795,71.0038
100.0,478335.3,37.25615,71.0117
215.44346900318823,432858.5,-116.1151,70.9969
464.15888336127773,731491.9,-88.49684,71.0119
1000.0,2040394.0,121.6569,70.9966
2154.4346900318824,239950.5,-60.96533,70.9885
4641.588833612777,157678.7,-82.80282,70.9953
10000.0,63257.18,-83.64507,71.005
