Frequency,Impedance,Phase Angle,Temperature (Dry Bath)
10.0,3796236.0,-10.3432,71.1482
21.544346900318832,4922298.0,-34.24993,71.1299
46.41588833612777,3472342.0,-32.81969,71.1505
100.0,563526.2,-145.8467,71.1494
215.44346900318823,1074688.0,-46.52046,71.1548
464.15888336127773,676116.8,-8.1208,71.1338
1000.0,349333.7,-124.9411,71.1503
2154.4346900318824,503128.8,-71.26296,71.1483
4641.588833612777,169722.5,-65.05495,71.1485
10000.0,183416.0,-93.2038,71.1548
