Frequency,Impedance,Phase Angle,Temperature (Dry Bath)
10.0,7431.152,-36.60345,71.2935
21.544346900318832,5563.385,-32.28718,71.2531
46.41588833612777,4332.639,-28.07669,71.2875
100.0,3463.24,-23.91076,71.2974
215.44346900318823,2916.635,-20.11482,71.2777
464.15888336127773,2523.78,-16.08855,71.2867
1000.0,2239.726,-13.4442,71.2786
2154.4346900318824,2022.866,-11.37383,71.2828
4641.588833612777,1861.359,-9.770817,71.3012
10000.0,1743.771,-9.071588,71.2847
