Frequency,Impedance,Phase Angle,Temperature (Dry Bath)
10.0,5387011.0,-17.94331,71.4978
21.544346900318832,2865562.0,-18.16873,71.494
46.41588833612777,4236180.0,-36.89359,71.4842
100.0,1048739.0,-1.909912,71.4958
215.44346900318823,605664.4,-109.7202,71.4886
464.15888336127773,2631705.0,-108.9053,71.4824
1000.0,194190.6,-114.563,71.4908
2154.4346900318824,252931.9,-88.70736,71.4788
4641.588833612777,97853.06,-77.37733,71.4838
10000.0,65625.7,-83.98297,71.4921
