Frequency,Impedance,Phase Angle,Temperature (Dry Bath)
10.0,3603.078,-31.1336,71.2591
21.544346900318832,2852.111,-25.95485,71.2364
46.41588833612777,2351.638,-21.28544,71.2563
100.0,2006.963,-17.26622,71.2783
215.44346900318823,1795.306,-13.5002,71.2811
464.15888336127773,1625.224,-10.86234,71.2639
1000.0,1498.753,-8.690715,71.2666
2154.4346900318824,1407.853,-7.288387,71.2557
4641.588833612777,1343.147,-6.316733,71.2684
10000.0,1291.542,-5.484683,71.2526
