Frequency,Impedance,Phase Angle,Temperature (Dry Bath)
10.0,1207662.0,-17.76548,71.2125
21.544346900318832,1129505.0,-19.41682,71.2249
46.41588833612777,898878.6,-18.77352,71.2106
100.0,399511.7,-73.21777,71.2241
215.44346900318823,524660.3,-42.17217,71.1983
464.15888336127773,478987.4,-35.87658,71.201
1000.0,328573.5,-73.96734,71.2069
2154.4346900318824,205325.9,-94.904,71.1952
4641.588833612777,111041.5,-65.37474,71.2065
10000.0,61483.77,-79.59644,71.2179
