Frequency,Impedance,Phase Angle,Temperature (Dry Bath)
10.0,527536.1,-16.032,71.3114
21.544346900318832,486643.7,-17.06474,71.3135
46.41588833612777,383170.0,-12.06668,71.3105
100.0,180544.8,-14.50007,71.309
215.44346900318823,16575.15,-115.0218,71.3035
464.15888336127773,236453.9,6.810162,71.3051
1000.0,160919.2,-38.74207,71.3048
2154.4346900318824,135690.5,-40.77401,71.302
4641.588833612777,120274.5,-50.57061,71.3153
10000.0,52969.62,-66.89813,71.2982
