Frequency,Impedance,Phase Angle,Temperature (Dry Bath)
10.0,5492789.0,-3.572142,70.9082
21.544346900318832,3715819.0,6.108231,70.9112
46.41588833612777,4931138.0,-27.49423,70.9133
100.0,727188.0,-121.4901,70.9098
215.44346900318823,689904.8,41.04582,70.9187
464.15888336127773,553171.5,-80.66669,70.9253
1000.0,401860.7,-88.83218,70.9099
2154.4346900318824,209190.2,-111.8144,70.9118
4641.588833612777,106247.8,-80.45965,70.9091
10000.0,60679.9,-87.00009,70.9246
