Frequency,Impedance,Phase Angle,Temperature (Dry Bath)
10.0,5846932.0,-5.382857,70.8025
21.544346900318832,3997895.0,0.9909843,70.7805
46.41588833612777,3724026.0,-33.54356,70.791
100.0,519338.2,112.5232,70.7694
215.44346900318823,2343202.0,119.4151,70.7969
464.15888336127773,1193830.0,-72.7426,70.788
1000.0,304966.1,-78.83279,70.793
2154.4346900318824,435256.1,-117.615,70.7738
4641.588833612777,124431.6,-85.93029,70.7836
10000.0,62302.45,-85.54078,70.8094
