Frequency,Impedance,Phase Angle,Temperature (Dry Bath)
10.0,3812552.0,-9.857052,71.0081
21.544346900318832,2892825.0,-1.422934,71.0212
46.41588833612777,2743407.0,-20.89847,71.0231
100.0,681832.7,-83.47493,71.009
215.44346900318823,589264.7,-49.50195,71.0183
464.15888336127773,1409715.0,-159.2459,71.0313
1000.0,450517.1,-45.38096,71.023
2154.4346900318824,411841.8,-87.55771,71.0245
4641.588833612777,141422.2,-95.11678,71.0235
10000.0,75707.22,-83.37787,71.0291
