Frequency,Impedance,Phase Angle,Temperature (Dry Bath)
10.0,3772289.0,-10.53377,70.2676
21.544346900318832,7292683.0,9.925289,70.2743
46.41588833612777,4754244.0,-25.56741,70.276
100.0,1025156.0,-36.639,70.2574
215.44346900318823,367209.0,-15.98725,70.2607
464.15888336127773,950461.9,4.406853,70.2661
1000.0,371257.0,-88.31562,70.2687
2154.4346900318824,223473.1,-79.74004,70.2623
4641.588833612777,103221.0,-100.1627,70.2612
10000.0,55593.07,-87.5783,70.2611
