Frequency,Impedance,Phase Angle,Temperature (Dry Bath)
10.0,18095.71,-22.63856,71.5127
21.544346900318832,15002.78,-21.39973,71.5077
46.41588833612777,12517.18,-19.94275,71.4999
100.0,10827.76,-18.8741,71.5036
215.44346900318823,9210.786,-15.08778,71.4804
464.15888336127773,8214.81,-12.76862,71.5154
1000.0,7473.88,-10.90521,71.4941
2154.4346900318824,6952.65,-10.76932,71.5102
4641.588833612777,6325.042,-9.485351,71.5058
10000.0,6026.556,-10.32069,71.5059
