Frequency,Impedance,Phase Angle,Temperature (Dry Bath)
10.0,23698.67,-19.67575,70.9805
21.544346900318832,20321.3,-17.46621,70.9809
46.41588833612777,17697.71,-15.57459,70.9842
100.0,15512.48,-13.50433,70.9765
215.44346900318823,13858.48,-12.83625,70.9785
464.15888336127773,12767.06,-11.23225,70.9704
1000.0,12014.63,-9.270327,70.9739
2154.4346900318824,11065.33,-9.786009,70.9759
4641.588833612777,10291.51,-12.41311,70.9539
10000.0,9690.846,-14.80594,70.9743
