Frequency,Impedance,Phase Angle,Temperature (Dry Bath)
10.0,961629.5,-30.62951,71.3533
21.544346900318832,712846.3,-25.13056,71.364
46.41588833612777,615432.8,-22.6676,71.3656
100.0,802801.3,-64.11275,71.3584
215.44346900318823,428855.3,-25.37645,71.3614
464.15888336127773,369207.9,-40.36042,71.3442
1000.0,157003.4,-83.86427,71.3628
2154.4346900318824,197850.9,-53.41672,71.3484
4641.588833612777,108390.2,-72.02129,71.3473
10000.0,61764.62,-74.34477,71.3506
