Frequency,Impedance,Phase Angle,Temperature (Dry Bath)
10.0,5411401.0,4.24216,71.3973
21.544346900318832,5418261.0,-13.54287,71.3962
46.41588833612777,4249878.0,-29.83456,71.3988
100.0,3731893.0,-50.84362,71.3877
215.44346900318823,659436.7,-1.685419,71.4018
464.15888336127773,510784.4,-125.0231,71.3891
1000.0,1358845.0,-14.39751,71.4019
2154.4346900318824,433939.0,-79.70444,71.3974
4641.588833612777,173213.1,-79.94955,71.3969
10000.0,69413.02,-86.73864,71.3853
