Frequency,Impedance,Phase Angle,Temperature (Dry Bath)
10.0,4685650.0,-13.28434,70.9135
21.544346900318832,6756981.0,-27.49011,70.9339
46.41588833612777,3728725.0,-38.7968,70.9221
100.0,471009.6,172.1538,70.9219
215.44346900318823,2231613.0,52.34648,70.9302
464.15888336127773,379626.4,-74.9271,70.9197
1000.0,617102.3,-82.30069,70.9086
2154.4346900318824,245091.7,-78.24183,70.9149
4641.588833612777,144976.4,-99.68579,70.9282
10000.0,59016.77,-87.09366,70.9134
