Frequency,Impedance,Phase Angle,Temperature (Dry Bath)
10.0,28161.13,-29.71564,71.4392
21.544346900318832,22064.1,-27.94664,71.4407
46.41588833612777,17479.62,-25.95207,71.4428
100.0,14514.83,-24.50683,71.4461
215.44346900318823,11497.49,-19.74849,71.4388
464.15888336127773,10043.65,-19.73242,71.4394
1000.0,8615.221,-15.89086,71.4475
2154.4346900318824,7798.237,-13.37902,71.4444
4641.588833612777,7219.177,-12.09942,71.4441
10000.0,6582.438,-13.84284,71.4351
