Frequency,Impedance,Phase Angle,Temperature (Dry Bath)
10.0,16797.67,-23.2564,71.3983
21.544346900318832,13892.88,-21.77771,71.4144
46.41588833612777,11637.13,-20.03451,71.401
100.0,9977.341,-18.25383,71.3976
215.44346900318823,8650.197,-16.54684,71.3886
464.15888336127773,7552.853,-13.04376,71.3989
1000.0,6921.157,-11.13394,71.3975
2154.4346900318824,6294.105,-10.17463,71.3969
4641.588833612777,5765.033,-9.992353,71.3867
10000.0,5456.323,-10.15347,71.3858
