Frequency,Impedance,Phase Angle,Temperature (Dry Bath)
10.0,58542.4,-11.09917,28.6623
21.544346900318832,54207.98,-9.470392,28.4234
46.41588833612777,50581.57,-7.727937,28.6704
100.0,47913.5,-8.752909,28.4746
215.44346900318823,46739.16,-6.893316,28.7222
464.15888336127773,53495.8,-2.523893,28.5376
1000.0,41976.98,-6.452436,28.7132
2154.4346900318824,41626.51,-9.224627,28.7037
4641.588833612777,39954.15,-15.31054,28.679
10000.0,32584.28,-24.21792,28.531
