Frequency,Impedance,Phase Angle,Temperature (Dry Bath)
10.0,7004551.0,29.67548,71.3688
21.544346900318832,4144993.0,-11.86243,71.3785
46.41588833612777,4222001.0,-21.85168,71.3615
100.0,261008.3,-47.39377,71.3662
215.44346900318823,614919.3,-98.21136,71.3538
464.15888336127773,694294.8,-127.7198,71.3687
1000.0,321829.0,-77.55473,71.3692
2154.4346900318824,258974.8,-83.85215,71.3598
4641.588833612777,128100.5,-84.84259,71.3576
10000.0,67777.69,-88.30352,71.3572
