Frequency,Impedance,Phase Angle,Temperature (Dry Bath)
10.0,4155142.0,-3.409826,71.4009
21.544346900318832,3976292.0,6.7645,71.4011
46.41588833612777,2239599.0,-17.52672,71.4151
100.0,1020777.0,-147.3909,71.4061
215.44346900318823,21923.63,-81.29944,71.4086
464.15888336127773,866589.8,-7.455314,71.413
1000.0,700923.6,-40.48838,71.412
2154.4346900318824,274031.6,-78.14491,71.4107
4641.588833612777,128922.9,-88.78865,71.399
10000.0,74835.52,-92.87732,71.4054
