Frequency,Impedance,Phase Angle,Temperature (Dry Bath)
10.0,91313.12,-18.76666,71.436
21.544346900318832,78871.44,-17.86285,71.4425
46.41588833612777,68029.9,-17.48746,71.4516
100.0,56586.61,-18.52947,71.4528
215.44346900318823,52132.22,-15.76796,71.4491
464.15888336127773,44094.89,-16.73894,71.4434
1000.0,40947.31,-16.57865,71.4387
2154.4346900318824,35038.83,-15.28466,71.4482
4641.588833612777,31009.92,-19.15142,71.4447
10000.0,27952.75,-20.78687,71.4499
