Frequency,Impedance,Phase Angle,Temperature (Dry Bath)
10.0,4801563.0,2.615067,70.2585
21.544346900318832,4705191.0,-4.082872,70.2835
46.41588833612777,3331354.0,-43.50739,70.2878
100.0,1198044.0,-147.7787,70.287
215.44346900318823,1224765.0,94.54407,70.2667
464.15888336127773,1118387.0,-60.20162,70.2809
1000.0,345975.6,41.90883,70.297
2154.4346900318824,209476.4,-90.90889,70.2709
4641.588833612777,160738.7,-63.66433,70.2838
10000.0,67832.26,-83.35055,70.2834
