Frequency,Impedance,Phase Angle,Temperature (Dry Bath)
10.0,55108.62,-17.97459,70.5106
21.544346900318832,48302.66,-15.9985,70.5179
46.41588833612777,42309.92,-14.79747,70.5215
100.0,34124.78,-13.4457,70.5102
215.44346900318823,34770.66,-15.19443,70.5208
464.15888336127773,32464.2,-13.13815,70.5185
1000.0,28045.58,-9.299481,70.5261
2154.4346900318824,26473.61,-14.00742,70.5208
4641.588833612777,23901.12,-19.59079,70.5259
10000.0,21249.49,-27.32677,70.5011
