Frequency,Impedance,Phase Angle,Temperature (Dry Bath)
10.0,946031.2,-10.21942,71.0847
21.544346900318832,915086.8,-5.169587,71.0791
46.41588833612777,827875.7,-7.03523,71.0884
100.0,1378877.0,-126.1539,71.0841
215.44346900318823,1805628.0,-102.7519,71.085
464.15888336127773,574665.4,-5.985404,71.0784
1000.0,279653.9,-80.57448,71.0828
2154.4346900318824,436284.6,-62.59033,71.0649
4641.588833612777,252537.5,-18.43381,71.0819
10000.0,90835.9,-72.64561,71.0843
