Frequency,Impedance,Phase Angle,Temperature (Dry Bath)
10.0,17036.68,-17.8896,71.3391
21.544346900318832,14862.5,-16.60093,71.3362
46.41588833612777,13100.64,-15.8977,71.3295
100.0,11603.06,-14.4972,71.3573
215.44346900318823,10325.79,-14.22657,71.3171
464.15888336127773,9063.32,-14.43757,71.3313
1000.0,8222.567,-11.67751,71.3426
2154.4346900318824,7406.014,-11.44882,71.3294
4641.588833612777,7100.986,-7.634501,71.3399
10000.0,6387.706,-10.34942,71.3443
