Frequency,Impedance,Phase Angle,Temperature (Dry Bath)
10.0,3751928.0,-4.789311,71.5588
21.544346900318832,8819735.0,9.992206,71.566
46.41588833612777,4427184.0,-17.9149,71.5848
100.0,1239795.0,3.829629,71.5638
215.44346900318823,3758171.0,132.8508,71.5571
464.15888336127773,786409.6,-64.54715,71.5747
1000.0,849650.2,-99.96439,71.5539
2154.4346900318824,998368.6,-90.84617,71.5631
4641.588833612777,223257.4,-93.17726,71.562
10000.0,102466.5,-86.4345,71.5589
