Frequency,Impedance,Phase Angle,Temperature (Dry Bath)
10.0,8602944.0,5.127305,71.4259
21.544346900318832,5018969.0,-17.37695,71.4396
46.41588833612777,6025527.0,-17.33485,71.4271
100.0,977700.9,-69.09121,71.4393
215.44346900318823,1422828.0,-0.2828893,71.4326
464.15888336127773,1337944.0,171.129,71.4193
1000.0,808542.8,-71.68489,71.4167
2154.4346900318824,615545.1,-88.04497,71.4128
4641.588833612777,350333.7,-91.80145,71.421
10000.0,143823.4,-92.57719,71.4089
