Frequency,Impedance,Phase Angle,Temperature (Dry Bath)
10.0,14808.76,-19.51832,71.1172
21.544346900318832,12760.27,-16.7806,71.1243
46.41588833612777,11250.29,-14.56824,71.1411
100.0,9988.744,-13.1524,71.1334
215.44346900318823,9222.028,-11.60432,71.1423
464.15888336127773,8531.468,-11.38537,71.1452
1000.0,7849.438,-9.323546,71.121
2154.4346900318824,7326.825,-9.804325,71.1345
4641.588833612777,6712.514,-9.955903,71.1298
10000.0,6322.104,-13.05689,71.1431
