Frequency,Impedance,Phase Angle,Temperature (Dry Bath)
10.0,4061057.0,-5.228916,70.3771
21.544346900318832,7168933.0,-15.75726,70.3826
46.41588833612777,3639518.0,-33.54659,70.3705
100.0,810039.9,-58.16715,70.3612
215.44346900318823,1855571.0,-71.04219,70.3617
464.15888336127773,438772.5,107.81,70.3617
1000.0,228451.3,-27.36897,70.3599
2154.4346900318824,300980.5,-45.65792,70.3644
4641.588833612777,120945.5,-99.25342,70.364
10000.0,61993.0,-84.47915,70.3647
