Frequency,Impedance,Phase Angle,Temperature (Dry Bath)
10.0,861311.6,-10.66634,72.0963
21.544346900318832,972470.5,-9.70093,72.1335
46.41588833612777,873508.9,-6.592392,72.1064
100.0,897249.3,-154.4465,72.1118
215.44346900318823,448719.3,-6.881504,72.1038
464.15888336127773,474547.9,40.7844,72.1141
1000.0,407910.9,-18.32726,72.1244
2154.4346900318824,210256.6,-59.02419,72.127
4641.588833612777,217275.1,-41.91238,72.0895
10000.0,121317.2,-67.84731,72.1084
