Frequency,Impedance,Phase Angle,Temperature (Dry Bath)
10.0,18483.6,-24.16481,71.652
21.544346900318832,15048.16,-24.14535,71.6359
46.41588833612777,12250.61,-23.61746,71.6737
100.0,9986.042,-23.1204,71.6667
215.44346900318823,8478.962,-21.0662,71.662
464.15888336127773,7123.561,-19.5318,71.662
1000.0,6091.036,-18.95575,71.6652
2154.4346900318824,5186.379,-17.80487,71.6634
4641.588833612777,4495.369,-16.87796,71.6554
10000.0,3899.05,-15.9075,71.6702
