Frequency,Impedance,Phase Angle,Temperature (Dry Bath)
10.0,8132825.0,-45.18371,71.4367
21.544346900318832,4208242.0,-6.942397,71.4625
46.41588833612777,3279209.0,-29.26094,71.4617
100.0,1835494.0,-113.8297,71.4373
215.44346900318823,808203.8,49.99735,71.4331
464.15888336127773,1790187.0,-140.4128,71.4309
1000.0,307605.1,-35.31659,71.4232
2154.4346900318824,232316.8,-89.48029,71.4386
4641.588833612777,136204.2,-80.04923,71.4495
10000.0,51535.11,-89.16389,71.4309
