Frequency,Impedance,Phase Angle,Temperature (Dry Bath)
10.0,12951.23,-27.71573,71.1493
21.544346900318832,10345.65,-25.28299,71.1319
46.41588833612777,8443.308,-22.58393,71.1419
100.0,7097.509,-20.14668,71.1473
215.44346900318823,6108.646,-17.86575,71.149
464.15888336127773,5303.113,-15.40256,71.14
1000.0,4611.378,-14.01738,71.1518
2154.4346900318824,4272.335,-12.38063,71.1431
4641.588833612777,3887.921,-11.8838,71.1512
10000.0,3551.918,-12.41424,71.1556
