Frequency,Impedance,Phase Angle,Temperature (Dry Bath)
10.0,4268426.0,10.10784,71.696
21.544346900318832,6976516.0,1.434425,71.6966
46.41588833612777,6387504.0,-28.1269,71.6928
100.0,1752711.0,-74.42627,71.7019
215.44346900318823,788677.6,-167.2632,71.674
464.15888336127773,263324.2,64.66941,71.6748
1000.0,324451.5,7.910124,71.6885
2154.4346900318824,599346.1,-47.63987,71.6814
4641.588833612777,263932.7,-116.8911,71.6959
10000.0,278848.6,-120.0401,71.7057
