Frequency,Impedance,Phase Angle,Temperature (Dry Bath)
10.0,4211826.0,-30.34921,71.3238
21.544346900318832,2704655.0,-13.803,71.3287
46.41588833612777,2764612.0,-29.63319,71.3227
100.0,5956016.0,-53.49109,71.3258
215.44346900318823,1548548.0,63.8853,71.3309
464.15888336127773,911261.6,-23.0176,71.325
1000.0,572216.6,-176.4436,71.3361
2154.4346900318824,231149.5,-77.70063,71.3335
4641.588833612777,166634.8,-78.1164,71.3438
10000.0,71027.43,-83.26135,71.3297
