Frequency,Impedance,Phase Angle,Temperature (Dry Bath)
10.0,1608832.0,-27.87872,70.9637
21.544346900318832,1335985.0,-22.8724,70.9578
46.41588833612777,1086662.0,-21.78605,70.9665
100.0,346387.8,0.5271397,70.9507
215.44346900318823,483105.7,-44.99419,70.951
464.15888336127773,583511.4,-48.11097,70.9748
1000.0,296063.4,-65.88851,70.9498
2154.4346900318824,248107.3,-77.11112,70.9572
4641.588833612777,118801.0,-74.83065,70.9724
10000.0,58319.16,-80.97274,70.9759
