Frequency,Impedance,Phase Angle,Temperature (Dry Bath)
10.0,4029627.0,2.956365,71.3698
21.544346900318832,3413428.0,-16.38063,71.349
46.41588833612777,3804279.0,-40.79262,71.3517
100.0,621722.3,-24.3548,71.3569
215.44346900318823,14995.03,91.1648,71.3628
464.15888336127773,7023479.0,-161.2218,71.3533
1000.0,450021.5,-53.28921,71.364
2154.4346900318824,672817.7,-91.70096,71.3638
4641.588833612777,134534.8,-81.57678,71.367
10000.0,70680.19,-83.43598,71.3513
