Frequency,Impedance,Phase Angle,Temperature (Dry Bath)
10.0,10748850.0,-10.06659,70.9856
21.544346900318832,4324357.0,-1.804227,70.9882
46.41588833612777,4267214.0,-30.90019,70.992
100.0,332705.4,1.0378,70.9717
215.44346900318823,2017667.0,176.9517,70.9727
464.15888336127773,744706.4,-87.99669,70.9853
1000.0,751073.3,-63.19329,70.979
2154.4346900318824,203945.8,-90.46018,70.986
4641.588833612777,190575.1,-67.38542,70.9733
10000.0,65723.29,-84.49337,70.9593
