Frequency,Impedance,Phase Angle,Temperature (Dry Bath)
10.0,5428888.0,-41.23378,71.2643
21.544346900318832,3117450.0,5.900275,71.2737
46.41588833612777,4983256.0,-5.990569,71.2635
100.0,5434938.0,-28.45555,71.291
215.44346900318823,785559.4,-43.95638,71.2656
464.15888336127773,674440.1,-4.516421,71.2614
1000.0,787771.1,-5.920977,71.2739
2154.4346900318824,994733.5,-72.05559,71.2558
4641.588833612777,435525.6,-93.51089,71.258
10000.0,153388.1,-61.6499,71.2653
