Frequency,Impedance,Phase Angle,Temperature (Dry Bath)
10.0,4616002.0,-2.325331,71.3087
21.544346900318832,2981816.0,-3.245932,71.2823
46.41588833612777,5373575.0,-14.48341,71.2821
100.0,448480.6,24.24633,71.2887
215.44346900318823,7445881.0,47.05587,71.2951
464.15888336127773,425100.0,-70.99448,71.2955
1000.0,884415.1,-101.7927,71.2937
2154.4346900318824,698675.2,-81.20186,71.3026
4641.588833612777,210035.7,-95.68341,71.2881
10000.0,146999.4,-79.32102,71.29
