Frequency,Impedance,Phase Angle,Temperature (Dry Bath)
10.0,3905427.0,-0.9077696,71.8735
21.544346900318832,6076788.0,44.37917,71.8807
46.41588833612777,4408024.0,-31.55123,71.8784
100.0,281127.0,-140.3013,71.8684
215.44346900318823,264623.6,-124.5229,71.8607
464.15888336127773,376831.7,-0.3528045,71.8701
1000.0,1120470.0,-119.6533,71.8623
2154.4346900318824,752498.8,-23.41293,71.866
4641.588833612777,304288.7,-58.55715,71.8611
10000.0,149063.2,-92.89515,71.8669
