Frequency,Impedance,Phase Angle,Temperature (Dry Bath)
10.0,4979475.0,-6.351442,71.2531
21.544346900318832,4559951.0,-27.30465,71.2713
46.41588833612777,4483372.0,-22.71292,71.2501
100.0,5321717.0,54.17325,71.2524
215.44346900318823,636558.0,158.0237,71.2514
464.15888336127773,954937.6,84.3059,71.2663
1000.0,831840.5,1.748021,71.2768
2154.4346900318824,764091.9,-55.30224,71.2464
4641.588833612777,147614.6,-80.08373,71.2685
10000.0,109105.8,-83.30787,71.2887
