Frequency,Impedance,Phase Angle,Temperature (Dry Bath)
10.0,2078232.0,-24.82077,71.6436
21.544346900318832,2278199.0,-12.08889,71.6417
46.41588833612777,1682522.0,-14.47512,71.6559
100.0,466054.4,33.92293,71.6516
215.44346900318823,231259.8,8.914213,71.6495
464.15888336127773,522140.5,-100.4954,71.6515
1000.0,413381.0,22.36859,71.6531
2154.4346900318824,206365.9,-114.1328,71.6586
4641.588833612777,168973.3,-96.66001,71.6576
10000.0,75553.09,-87.78813,71.6531
