Frequency,Impedance,Phase Angle,Temperature (Dry Bath)
10.0,215868.0,-15.10266,71.3103
21.544346900318832,191854.6,-15.86119,71.3345
46.41588833612777,170917.3,-13.87978,71.3347
100.0,176538.4,4.03362,71.3107
215.44346900318823,200062.4,-30.11041,71.327
464.15888336127773,127785.7,-13.92347,71.3159
1000.0,92446.83,-6.288263,71.3206
2154.4346900318824,82780.27,-7.577948,71.3186
4641.588833612777,76534.58,-37.9365,71.3198
10000.0,72525.16,-56.8375,71.3235
