Frequency,Impedance,Phase Angle,Temperature (Dry Bath)
10.0,1503179.0,9.725683,71.2919
21.544346900318832,1325847.0,-6.344498,71.303
46.41588833612777,1128974.0,-13.42693,71.2857
100.0,220887.1,-8.762468,71.2908
215.44346900318823,63215.57,-68.22909,71.2987
464.15888336127773,385164.9,-18.83991,71.2914
1000.0,479477.8,-52.41525,71.3019
2154.4346900318824,306866.8,-92.54392,71.2962
4641.588833612777,137404.0,-77.19538,71.2857
10000.0,62484.78,-82.08805,71.2939
