Frequency,Impedance,Phase Angle,Temperature (Dry Bath)
10.0,39070.01,-13.43036,71.3225
21.544346900318832,35173.5,-12.10669,71.3311
46.41588833612777,31970.34,-11.08343,71.3193
100.0,28339.95,-10.71457,71.324
215.44346900318823,27133.6,-8.976647,71.3146
464.15888336127773,25219.14,-8.313257,71.3328
1000.0,23252.26,-8.256514,71.3353
2154.4346900318824,21301.49,-8.688733,71.3216
4641.588833612777,21967.42,-8.425702,71.3301
10000.0,20629.45,-11.23451,71.3406
