Frequency,Impedance,Phase Angle,Temperature (Dry Bath)
10.0,130811.0,-9.869363,70.8337
21.544346900318832,123076.0,-8.180142,70.8291
46.41588833612777,115945.0,-7.131589,70.8292
100.0,102191.2,0.8431903,70.8234
215.44346900318823,103418.2,9.199765,70.8504
464.15888336127773,114552.1,-6.609334,70.8504
1000.0,87602.32,-4.378134,70.8397
2154.4346900318824,87376.43,-23.11622,70.8607
4641.588833612777,76151.28,-36.94771,70.8327
10000.0,52543.32,-51.27,70.8428
