Frequency,Impedance,Phase Angle,Temperature (Dry Bath)
10.0,10522.44,-25.94681,71.5313
21.544346900318832,8558.513,-22.94012,71.5179
46.41588833612777,7152.84,-20.08929,71.5164
100.0,6088.162,-17.45694,71.5188
215.44346900318823,5446.165,-14.91463,71.5269
464.15888336127773,4801.904,-13.10003,71.5244
1000.0,4293.948,-10.77989,71.517
2154.4346900318824,4013.921,-9.703356,71.5244
4641.588833612777,3727.454,-9.451192,71.5065
10000.0,3531.872,-10.0389,71.5245
