Frequency,Impedance,Phase Angle,Temperature (Dry Bath)
10.0,89143.32,-12.24572,72.0155
21.544346900318832,81068.59,-10.45242,72.001
46.41588833612777,74975.11,-9.614919,72.0105
100.0,75490.53,-8.925906,72.0085
215.44346900318823,73518.53,-6.387342,72.0154
464.15888336127773,63635.74,-8.664974,72.0142
1000.0,63564.16,-18.04952,71.9992
2154.4346900318824,63985.11,-7.614001,72.0053
4641.588833612777,65057.18,-13.73001,71.9976
10000.0,46625.66,-35.84197,72.0019
