Frequency,Impedance,Phase Angle,Temperature (Dry Bath)
10.0,238245.9,-15.81627,71.1327
21.544346900318832,213458.7,-14.89814,71.1326
46.41588833612777,187786.7,-15.48364,71.1278
100.0,195568.8,-9.294103,71.1168
215.44346900318823,188314.1,4.127109,71.1395
464.15888336127773,111077.0,-8.471076,71.1365
1000.0,108617.9,-12.47311,71.1201
2154.4346900318824,111503.8,-28.32202,71.1403
4641.588833612777,115295.1,-21.32845,71.144
10000.0,76761.02,-29.22893,71.1271
