Frequency,Impedance,Phase Angle,Temperature (Dry Bath)
10.0,3415462.0,-13.83721,71.288
21.544346900318832,3567590.0,-3.928721,71.2756
46.41588833612777,2642586.0,-26.31706,71.2844
100.0,554847.0,-42.70911,71.2871
215.44346900318823,571002.0,50.60406,71.2777
464.15888336127773,652217.4,-2.284696,71.2838
1000.0,288800.0,-80.18589,71.2914
2154.4346900318824,303236.6,-81.89089,71.2856
4641.588833612777,158099.9,-94.81716,71.2765
10000.0,70397.32,-88.28915,71.29
