Frequency,Impedance,Phase Angle,Temperature (Dry Bath)
10.0,5912844.0,1.336933,71.3001
21.544346900318832,4594224.0,-3.205211,71.2752
46.41588833612777,5507617.0,-23.41375,71.2944
100.0,3399144.0,82.59939,71.2958
215.44346900318823,754070.9,-102.2347,71.3118
464.15888336127773,938792.2,-93.0678,71.3005
1000.0,1073395.0,-131.7144,71.2906
2154.4346900318824,224099.9,-74.62924,71.2864
4641.588833612777,149305.9,-76.69261,71.2719
10000.0,62127.87,-83.5329,71.2832
