Frequency,Impedance,Phase Angle,Temperature (Dry Bath)
10.0,4437516.0,-14.12072,70.8479
21.544346900318832,6666533.0,-23.91285,70.8447
46.41588833612777,4863075.0,-23.79453,70.8428
100.0,878074.7,-113.6638,70.8451
215.44346900318823,7508233.0,-86.52426,70.8463
464.15888336127773,1380238.0,-69.29372,70.8609
1000.0,925758.3,-38.10872,70.8478
2154.4346900318824,202339.3,-84.00485,70.8593
4641.588833612777,105820.3,-70.94444,70.856
10000.0,55097.67,-84.63053,70.8567
