Frequency,Impedance,Phase Angle,Temperature (Dry Bath)
10.0,5843384.0,3.45471,71.2768
21.544346900318832,6622110.0,-9.545729,71.2832
46.41588833612777,5449970.0,-19.29355,71.2925
100.0,433051.8,-74.67739,71.2933
215.44346900318823,613018.9,-16.0984,71.2649
464.15888336127773,931965.8,-80.6475,71.2613
1000.0,319546.0,-82.18941,71.292
2154.4346900318824,498458.7,-66.71258,71.2733
4641.588833612777,161206.8,-96.13754,71.2714
10000.0,61790.86,-87.03982,71.2879
