Frequency,Impedance,Phase Angle,Temperature (Dry Bath)
10.0,9890719.0,-2.915681,71.0143
21.544346900318832,8021339.0,-13.18349,71.0064
46.41588833612777,5344983.0,-2.201896,71.0162
100.0,1050867.0,-105.631,71.0182
215.44346900318823,532496.3,-62.70338,71.0117
464.15888336127773,1435298.0,154.4852,71.0075
1000.0,216558.9,-51.75118,71.0065
2154.4346900318824,396781.1,-131.4146,71.0143
4641.588833612777,156579.9,-91.16282,71.0161
10000.0,149105.2,-91.4326,71.0199
