Frequency,Impedance,Phase Angle,Temperature (Dry Bath)
10.0,599805.5,-4.88203,71.512
21.544346900318832,544107.7,-5.859629,71.5133
46.41588833612777,531081.9,-6.566617,71.5037
100.0,761787.9,22.00963,71.5127
215.44346900318823,381035.0,12.41864,71.5114
464.15888336127773,405193.0,-13.97938,71.5147
1000.0,548461.6,-27.29909,71.5201
2154.4346900318824,354601.6,-61.42907,71.5116
4641.588833612777,140153.5,-69.14941,71.5084
10000.0,106305.2,-71.40902,71.5068
