Frequency,Impedance,Phase Angle,Temperature (Dry Bath)
10.0,1059769.0,-10.82862,71.0218
21.544346900318832,1031161.0,-2.489422,71.0069
46.41588833612777,902005.7,-9.501124,70.999
100.0,396633.8,-10.89889,71.0234
215.44346900318823,267874.2,56.3663,71.0109
464.15888336127773,1252760.0,-28.88797,71.018
1000.0,599743.1,-20.68196,70.9985
2154.4346900318824,237928.5,-75.32099,71.0199
4641.588833612777,285159.4,-47.87331,71.0089
10000.0,141904.0,-64.40934,71.0076
