Frequency,Impedance,Phase Angle,Temperature (Dry Bath)
10.0,3973102.0,6.938917,70.9651
21.544346900318832,4913787.0,5.10359,70.9555
46.41588833612777,5209724.0,-6.926993,70.9681
100.0,1253415.0,-64.78308,70.9625
215.44346900318823,1022534.0,103.7386,70.9699
464.15888336127773,297203.9,71.98915,70.977
1000.0,185325.8,-84.39859,70.9528
2154.4346900318824,208039.3,-91.1884,70.948
4641.588833612777,2242929.0,-95.99489,70.9674
10000.0,135841.8,-81.66292,70.9604
