Frequency,Impedance,Phase Angle,Temperature (Dry Bath)
10.0,142775.1,-19.08361,71.2188
21.544346900318832,122121.9,-18.48616,71.2039
46.41588833612777,106509.8,-18.1518,71.2266
100.0,73030.17,-15.35023,71.2298
215.44346900318823,95793.06,-32.79748,71.2269
464.15888336127773,75578.32,-23.75514,71.2441
1000.0,56276.52,-21.32141,71.2276
2154.4346900318824,55496.94,-25.3578,71.2287
4641.588833612777,39809.25,-37.0183,71.2326
10000.0,29380.27,-46.08562,71.226
