Frequency,Impedance,Phase Angle,Temperature (Dry Bath)
10.0,4273073.0,-25.96482,71.7611
21.544346900318832,7805077.0,-22.08584,71.7532
46.41588833612777,5193110.0,-0.1893042,71.7569
100.0,322443.4,16.1144,71.7452
215.44346900318823,1088074.0,167.6971,71.7475
464.15888336127773,1407641.0,65.64037,71.7456
1000.0,258499.1,-173.6478,71.7332
2154.4346900318824,213752.6,-90.83263,71.7486
4641.588833612777,215591.2,-77.17884,71.7431
10000.0,224519.5,-79.91187,71.7432
