Frequency,Impedance,Phase Angle,Temperature (Dry Bath)
10.0,7006978.0,10.8608,71.209
21.544346900318832,5724163.0,6.322932,71.2109
46.41588833612777,3670998.0,-23.6748,71.2329
100.0,491810.0,137.0225,71.2259
215.44346900318823,932239.7,-89.5055,71.2273
464.15888336127773,521322.6,-69.22128,71.2326
1000.0,156491.6,-70.86532,71.215
2154.4346900318824,900343.0,-109.8725,71.2414
4641.588833612777,479002.6,-102.3647,71.2393
10000.0,178082.6,-84.47052,71.2295
