Frequency,Impedance,Phase Angle,Temperature (Dry Bath)
10.0,5331825.0,-9.265226,70.4603
21.544346900318832,3797300.0,-6.556046,70.4662
46.41588833612777,4544044.0,-26.8465,70.4745
100.0,1422265.0,119.6909,70.4728
215.44346900318823,301097.6,-37.76087,70.486
464.15888336127773,477223.2,-37.53776,70.4709
1000.0,489623.7,-64.4615,70.4895
2154.4346900318824,272173.6,-90.40482,70.4811
4641.588833612777,159032.7,-76.16972,70.4744
10000.0,65395.36,-81.38943,70.4823
