Frequency,Impedance,Phase Angle,Temperature (Dry Bath)
10.0,15617.37,-23.86019,71.38
21.544346900318832,12698.39,-24.13293,71.3781
46.41588833612777,10315.22,-23.62593,71.3817
100.0,8468.181,-21.90372,71.3818
215.44346900318823,7101.101,-20.19912,71.3841
464.15888336127773,6022.399,-18.64219,71.3892
1000.0,5217.217,-17.1187,71.3833
2154.4346900318824,4495.522,-15.34239,71.3778
4641.588833612777,4020.573,-14.85243,71.386
10000.0,3581.92,-13.98664,71.3813
