Frequency,Impedance,Phase Angle,Temperature (Dry Bath)
10.0,2965283.0,-4.124691,71.2036
21.544346900318832,3175462.0,-2.989682,71.1987
46.41588833612777,4128529.0,-14.44901,71.2129
100.0,415590.6,79.52448,71.2047
215.44346900318823,616610.1,129.2803,71.1988
464.15888336127773,906662.7,-37.29111,71.1987
1000.0,1185325.0,-105.9759,71.2247
2154.4346900318824,216991.0,-96.01237,71.2106
4641.588833612777,99475.76,-85.69382,71.2089
10000.0,50390.58,-85.30981,71.2122
