Frequency,Impedance,Phase Angle,Temperature (Dry Bath)
10.0,1331742.0,-24.59516,71.0779
21.544346900318832,1097566.0,-25.15744,71.074
46.41588833612777,940899.1,-21.6379,71.0589
100.0,306377.1,-17.79183,71.0746
215.44346900318823,476190.3,-31.99781,71.0714
464.15888336127773,416748.0,-8.036314,71.0764
1000.0,372808.2,-66.08273,71.0683
2154.4346900318824,199179.1,-69.65969,71.0761
4641.588833612777,115880.8,-78.26219,71.0689
10000.0,60692.86,-80.09143,71.0664
