Frequency,Impedance,Phase Angle,Temperature (Dry Bath)
10.0,3478156.0,-2.933632,29.7284
21.544346900318832,2589935.0,-4.893139,29.7226
46.41588833612777,2224623.0,-12.11516,29.7296
100.0,898309.0,-50.16632,29.5203
215.44346900318823,706071.1,-119.2289,29.7103
464.15888336127773,766336.3,10.49279,29.0751
1000.0,1083351.0,55.49966,29.673
2154.4346900318824,395065.1,-85.81331,29.78
4641.588833612777,228854.3,-84.16445,29.7578
10000.0,97193.8,-86.65415,29.8557
