Frequency,Impedance,Phase Angle,Temperature (Dry Bath)
10.0,5738950.0,-5.150909,71.6747
21.544346900318832,6632809.0,1.973835,71.6892
46.41588833612777,5017176.0,-16.60611,71.6934
100.0,668197.6,20.65114,71.6941
215.44346900318823,1975901.0,55.58794,71.6759
464.15888336127773,867956.3,-30.91271,71.6925
1000.0,1003079.0,-127.4617,71.683
2154.4346900318824,608858.1,-134.7505,71.6917
4641.588833612777,300070.6,-77.62368,71.6897
10000.0,133651.1,-83.81964,71.6872
