Frequency,Impedance,Phase Angle,Temperature (Dry Bath)
10.0,6070353.0,31.39887,71.0205
21.544346900318832,4365681.0,22.17591,70.9973
46.41588833612777,6078973.0,-21.24616,70.9869
100.0,769024.5,-44.10087,70.9928
215.44346900318823,405989.0,2.834256,71.0046
464.15888336127773,1281650.0,128.4792,70.9996
1000.0,386732.8,29.91317,70.9862
2154.4346900318824,685359.1,-98.7863,71.0084
4641.588833612777,281514.7,-122.7192,70.9916
10000.0,429725.3,-110.9046,71.015
