Frequency,Impedance,Phase Angle,Temperature (Dry Bath)
10.0,6645287.0,16.05819,71.1552
21.544346900318832,6104057.0,-38.32707,71.1569
46.41588833612777,3853780.0,-34.22874,71.1543
100.0,615451.6,-18.83066,71.161
215.44346900318823,1044867.0,50.12489,71.1636
464.15888336127773,782882.8,45.55591,71.1574
1000.0,588402.3,-4.977484,71.1519
2154.4346900318824,205273.6,-80.60568,71.1517
4641.588833612777,111349.8,-95.07307,71.1634
10000.0,55047.62,-82.88263,71.1693
