Frequency,Impedance,Phase Angle,Temperature (Dry Bath)
10.0,5241772.0,-23.31644,69.7773
21.544346900318832,3515581.0,-5.334305,69.7639
46.41588833612777,4928666.0,-21.06543,69.7776
100.0,385436.4,161.8751,69.7784
215.44346900318823,845052.6,-19.78511,69.7925
464.15888336127773,563127.3,-160.0455,69.7792
1000.0,367406.1,88.86993,69.7742
2154.4346900318824,542172.6,-94.83456,69.7799
4641.588833612777,119148.4,-95.6289,69.7697
10000.0,66982.17,-95.17737,69.779
