Frequency,Impedance,Phase Angle,Temperature (Dry Bath)
10.0,7900029.0,-22.65178,70.6402
21.544346900318832,6212798.0,-0.3725463,70.6622
46.41588833612777,3944660.0,-24.50202,70.6628
100.0,932975.6,8.288336,70.6723
215.44346900318823,1116820.0,-39.36353,70.6629
464.15888336127773,932807.8,-149.3517,70.6585
1000.0,1110673.0,167.8821,70.6572
2154.4346900318824,217096.0,-104.6473,70.6712
4641.588833612777,142413.5,-81.89704,70.6452
10000.0,59448.45,-88.77365,70.6598
