Frequency,Impedance,Phase Angle,Temperature (Dry Bath)
10.0,282044.4,-17.67408,71.3501
21.544346900318832,241995.7,-16.11537,71.3765
46.41588833612777,208334.1,-17.23889,71.3582
100.0,274549.2,-17.58014,71.3519
215.44346900318823,149493.6,-9.975315,71.3599
464.15888336127773,119487.8,-22.1196,71.356
1000.0,111372.1,-29.7951,71.3524
2154.4346900318824,106984.1,-31.25162,71.3659
4641.588833612777,69726.96,-44.00212,71.3557
10000.0,50729.75,-66.39679,71.3674
