Frequency,Impedance,Phase Angle,Temperature (Dry Bath)
10.0,6213451.0,-8.034818,70.729
21.544346900318832,3841062.0,-1.883971,70.7287
46.41588833612777,5160506.0,-21.57699,70.7045
100.0,761069.0,-0.9261172,70.7027
215.44346900318823,2325235.0,63.13258,70.7062
464.15888336127773,566120.6,-34.25963,70.7058
1000.0,770100.7,-45.25059,70.7081
2154.4346900318824,654218.3,-119.6689,70.7064
4641.588833612777,123161.3,-100.6501,70.6925
10000.0,66868.78,-83.44364,70.7072
