Frequency,Impedance,Phase Angle,Temperature (Dry Bath)
10.0,14790.33,-19.36854,71.0909
21.544346900318832,12777.78,-16.64322,71.1102
46.41588833612777,11267.64,-14.59716,71.1059
100.0,10125.19,-12.97122,71.0876
215.44346900318823,9151.172,-12.32616,71.0914
464.15888336127773,8005.058,-9.593942,71.1036
1000.0,7812.388,-9.228773,71.1026
2154.4346900318824,7338.997,-9.493888,71.1038
4641.588833612777,6759.59,-11.20813,71.0889
10000.0,6241.621,-12.94017,71.0842
