Frequency,Impedance,Phase Angle,Temperature (Dry Bath)
10.0,111937.6,-27.91001,72.2287
21.544346900318832,88794.28,-28.08144,72.2261
46.41588833612777,70041.5,-28.37788,72.2189
100.0,64140.13,-21.42426,72.2293
215.44346900318823,43461.53,-33.25578,72.2262
464.15888336127773,33747.79,-31.06042,72.2129
1000.0,24557.9,-31.43636,72.2068
2154.4346900318824,20148.75,-28.90079,72.2062
4641.588833612777,14441.8,-23.91475,72.2198
10000.0,12320.05,-21.9312,72.2102
