Frequency,Impedance,Phase Angle,Temperature (Dry Bath)
10.0,8957378.0,-12.00693,71.3176
21.544346900318832,4765445.0,-12.01089,71.3117
46.41588833612777,5643743.0,-63.79563,71.3135
100.0,982142.4,41.96028,71.3183
215.44346900318823,57276.12,138.642,71.3018
464.15888336127773,709860.1,-18.46105,71.3079
1000.0,427582.2,-93.40734,71.2946
2154.4346900318824,559040.3,-95.98918,71.2976
4641.588833612777,149840.0,-91.45924,71.3045
10000.0,58423.43,-77.34594,71.3233
