Frequency,Impedance,Phase Angle,Temperature (Dry Bath)
10.0,4186021.0,2.300031,71.3281
21.544346900318832,3994161.0,9.596369,71.2941
46.41588833612777,4614824.0,5.234975,71.3159
100.0,1756016.0,125.7845,71.3023
215.44346900318823,1347002.0,155.8568,71.2927
464.15888336127773,604831.1,-35.61158,71.3141
1000.0,650324.2,-2.00638,71.3103
2154.4346900318824,466222.9,-53.08164,71.2953
4641.588833612777,322391.4,-88.9774,71.2983
10000.0,119028.8,-81.83517,71.3047
