Frequency,Impedance,Phase Angle,Temperature (Dry Bath)
10.0,7273.247,-25.60214,70.2189
21.544346900318832,5946.52,-22.4934,70.204
46.41588833612777,5008.086,-19.5468,70.2349
100.0,4304.863,-16.93235,70.2257
215.44346900318823,3832.816,-14.56876,70.2062
464.15888336127773,3423.509,-12.59403,70.2273
1000.0,3084.587,-10.57761,70.2415
2154.4346900318824,2871.861,-9.044237,70.2383
4641.588833612777,2691.84,-8.380518,70.2348
10000.0,2553.899,-8.8721,70.2422
