Frequency,Impedance,Phase Angle,Temperature (Dry Bath)
10.0,863412.9,-6.933045,71.3232
21.544346900318832,841105.5,-5.089943,71.3282
46.41588833612777,846787.0,-5.164814,71.3285
100.0,844777.2,27.63035,71.3211
215.44346900318823,368396.4,5.745394,71.3183
464.15888336127773,444359.4,-8.531912,71.3202
1000.0,268345.0,-42.04309,71.3146
2154.4346900318824,371940.7,-21.16204,71.3056
4641.588833612777,253924.1,-68.07554,71.331
10000.0,98639.61,-83.8494,71.3198
