Frequency,Impedance,Phase Angle,Temperature (Dry Bath)
10.0,5064841.0,-5.231149,71.5154
21.544346900318832,6181121.0,23.58253,71.5226
46.41588833612777,4505042.0,-7.805935,71.5112
100.0,962852.4,77.11331,71.517
215.44346900318823,824455.4,-5.397189,71.5255
464.15888336127773,4412184.0,115.9751,71.5104
1000.0,807032.3,11.76859,71.5289
2154.4346900318824,1456619.0,-50.68369,71.5259
4641.588833612777,276117.8,-76.08271,71.5294
10000.0,195525.8,-87.13213,71.5114
