Frequency,Impedance,Phase Angle,Temperature (Dry Bath)
10.0,15348.36,-18.1328,71.1312
21.544346900318832,13411.81,-16.7763,71.1389
46.41588833612777,11765.29,-15.98399,71.1341
100.0,10120.25,-13.74707,71.144
215.44346900318823,9204.087,-13.8964,71.1326
464.15888336127773,8348.548,-12.85482,71.1322
1000.0,7496.785,-11.49749,71.1363
2154.4346900318824,6797.01,-11.79338,71.144
4641.588833612777,6271.528,-10.34244,71.1376
10000.0,5893.602,-12.17118,71.1353
