Frequency,Impedance,Phase Angle,Temperature (Dry Bath)
10.0,203029.1,-14.58537,28.8255
21.544346900318832,182955.8,-14.64423,28.7992
46.41588833612777,161286.5,-13.34494,28.8607
100.0,130872.9,-5.479968,28.7318
215.44346900318823,130432.1,-16.64747,28.9391
464.15888336127773,119178.3,-10.9083,28.9485
1000.0,95486.69,-12.77958,28.8472
2154.4346900318824,100143.0,-13.64001,28.8018
4641.588833612777,85524.83,-30.46986,28.7229
10000.0,62273.42,-41.34655,28.8138
