Frequency,Impedance,Phase Angle,Temperature (Dry Bath)
10.0,8431472.0,10.45934,71.2189
21.544346900318832,4783330.0,-10.43505,71.2169
46.41588833612777,4376721.0,-4.08482,71.221
100.0,5462601.0,126.9966,71.2179
215.44346900318823,985207.1,-123.7147,71.2011
464.15888336127773,854831.6,-29.10309,71.2032
1000.0,1217745.0,-116.2437,71.2
2154.4346900318824,766577.2,-97.0922,71.1886
4641.588833612777,128417.5,-61.46593,71.1762
10000.0,166907.6,-90.1714,71.1899
