Frequency,Impedance,Phase Angle,Temperature (Dry Bath)
10.0,5315977.0,-10.28011,71.3336
21.544346900318832,6404744.0,-25.26856,71.3426
46.41588833612777,4286880.0,-22.82748,71.3356
100.0,1608064.0,146.8216,71.321
215.44346900318823,2619926.0,-10.97219,71.3292
464.15888336127773,849325.3,-22.58846,71.3389
1000.0,531691.7,-76.11406,71.3303
2154.4346900318824,202094.5,-67.98374,71.3447
4641.588833612777,133668.2,-83.95717,71.3263
10000.0,66173.14,-86.33754,71.3217
