Frequency,Impedance,Phase Angle,Temperature (Dry Bath)
10.0,3582149.0,-12.68708,71.2009
21.544346900318832,3564738.0,-6.290473,71.2049
46.41588833612777,4154200.0,-34.16265,71.2038
100.0,435359.2,63.19656,71.2037
215.44346900318823,627824.8,-3.444324,71.2034
464.15888336127773,967429.4,6.052166,71.2099
1000.0,579611.7,-97.51631,71.1967
2154.4346900318824,217277.4,-74.47318,71.2036
4641.588833612777,108628.5,-79.36633,71.2103
10000.0,54879.79,-87.48943,71.2014
