Frequency,Impedance,Phase Angle,Temperature (Dry Bath)
10.0,6947466.0,-3.352477,71.1637
21.544346900318832,3479581.0,-6.369515,71.1625
46.41588833612777,4344558.0,-2.415707,71.1533
100.0,1664296.0,-152.3154,71.1583
215.44346900318823,1672278.0,-48.15592,71.1574
464.15888336127773,803394.3,13.50668,71.1608
1000.0,209191.0,-60.47753,71.1578
2154.4346900318824,310398.9,-112.5183,71.1652
4641.588833612777,133743.1,-88.20857,71.1612
10000.0,71815.62,-92.64312,71.1775
