Frequency,Impedance,Phase Angle,Temperature (Dry Bath)
10.0,5158994.0,13.86919,70.657
21.544346900318832,3831908.0,-17.79151,70.6583
46.41588833612777,4226266.0,-4.125356,70.6437
100.0,325273.3,33.93227,70.6697
215.44346900318823,1959247.0,-138.1891,70.6575
464.15888336127773,1647215.0,-30.75935,70.6477
1000.0,359333.7,-69.96065,70.6619
2154.4346900318824,183451.4,-91.77723,70.6542
4641.588833612777,150650.5,-81.28305,70.6605
10000.0,57759.72,-82.50994,70.6414
