Frequency,Impedance,Phase Angle,Temperature (Dry Bath)
10.0,24379.0,-20.01466,71.2953
21.544346900318832,20848.35,-17.66491,71.3048
46.41588833612777,18144.96,-15.71032,71.2954
100.0,16115.74,-13.6663,71.2951
215.44346900318823,14563.58,-11.09243,71.3018
464.15888336127773,13004.63,-10.61484,71.3025
1000.0,12556.28,-9.762355,71.2985
2154.4346900318824,11324.94,-10.1632,71.2958
4641.588833612777,10703.96,-12.35386,71.309
10000.0,9876.892,-15.22822,71.2977
