Frequency,Impedance,Phase Angle,Temperature (Dry Bath)
10.0,4189675.0,7.886943,70.6384
21.544346900318832,5653093.0,-11.35528,70.6333
46.41588833612777,3774430.0,-46.8082,70.6438
100.0,602218.5,-68.66413,70.6612
215.44346900318823,387570.9,-116.0817,70.6516
464.15888336127773,1282030.0,-85.38959,70.6596
1000.0,543510.8,-9.482894,70.6326
2154.4346900318824,206484.5,-90.77302,70.6439
4641.588833612777,111605.3,-78.48234,70.6274
10000.0,45497.05,-85.38539,70.636
