Frequency,Impedance,Phase Angle,Temperature (Dry Bath)
10.0,4797986.0,-4.142861,29.2823
21.544346900318832,5696802.0,4.216647,29.2656
46.41588833612777,5733431.0,-3.439434,29.356
100.0,796746.5,20.34683,29.3912
215.44346900318823,1496430.0,-43.23045,28.991
464.15888336127773,756764.7,-77.92346,28.9217
1000.0,1062537.0,40.0921,29.0213
2154.4346900318824,579453.3,-82.24097,28.6635
4641.588833612777,296370.2,-90.96451,28.7114
10000.0,165953.6,-88.70071,28.9919
