Frequency,Impedance,Phase Angle,Temperature (Dry Bath)
10.0,192767.0,-14.98628,72.2142
21.544346900318832,168547.1,-15.06126,72.2199
46.41588833612777,153593.3,-14.65251,72.1971
100.0,119462.0,9.968311,72.1818
215.44346900318823,139749.9,-16.03779,72.208
464.15888336127773,101597.0,-19.39892,72.1928
1000.0,95450.69,-23.41779,72.2146
2154.4346900318824,101696.9,-18.77222,72.2339
4641.588833612777,78820.36,-20.34424,72.2195
10000.0,62830.98,-9.561966,72.2292
