Frequency,Impedance,Phase Angle,Temperature (Dry Bath)
10.0,385303.0,-24.30508,71.0282
21.544346900318832,313904.1,-21.4641,71.0204
46.41588833612777,273052.9,-20.81167,71.0078
100.0,117813.6,-1.792649,71.0243
215.44346900318823,232726.3,-18.86278,71.0336
464.15888336127773,165330.5,-20.14638,71.0047
1000.0,138247.3,-39.67504,71.0316
2154.4346900318824,126234.6,-46.35737,71.0115
4641.588833612777,72801.94,-59.45701,71.0213
10000.0,42781.53,-69.21127,71.0271
