Frequency,Impedance,Phase Angle,Temperature (Dry Bath)
10.0,12929590.0,2.502638,71.541
21.544346900318832,12009390.0,31.54505,71.5302
46.41588833612777,5656996.0,-13.96068,71.5308
100.0,606026.1,-66.82889,71.5518
215.44346900318823,15028220.0,114.3086,71.5565
464.15888336127773,1230842.0,-93.9114,71.5457
1000.0,1279481.0,-50.85887,71.542
2154.4346900318824,650901.7,-125.6009,71.5331
4641.588833612777,250552.4,-80.36317,71.5378
10000.0,163391.2,-67.3295,71.5433
