Frequency,Impedance,Phase Angle,Temperature (Dry Bath)
10.0,6102685.0,-15.94519,71.3236
21.544346900318832,5367384.0,-33.53422,71.311
46.41588833612777,6008375.0,-5.101117,71.3032
100.0,314291.4,-66.44619,71.3153
215.44346900318823,818294.5,-88.00564,71.3106
464.15888336127773,738103.6,-65.99192,71.3143
1000.0,518002.3,-44.87168,71.3101
2154.4346900318824,293078.5,-84.08053,71.3135
4641.588833612777,106500.0,-94.98942,71.3118
10000.0,61906.34,-86.87179,71.32
