Frequency,Impedance,Phase Angle,Temperature (Dry Bath)
10.0,6688.426,-25.39744,70.5839
21.544346900318832,5480.587,-22.38237,70.5754
46.41588833612777,4615.651,-19.51653,70.5732
100.0,3973.129,-17.07623,70.5909
215.44346900318823,3492.331,-14.49376,70.5773
464.15888336127773,3143.462,-12.3239,70.5695
1000.0,2835.733,-10.83452,70.5826
2154.4346900318824,2639.881,-9.10311,70.5762
4641.588833612777,2474.164,-8.395254,70.5732
10000.0,2334.791,-8.555985,70.5775
