Frequency,Impedance,Phase Angle,Temperature (Dry Bath)
10.0,7509055.0,4.539129,71.2862
21.544346900318832,8020821.0,19.98761,71.2914
46.41588833612777,5218135.0,14.61436,71.2852
100.0,838846.2,-124.3291,71.3113
215.44346900318823,3678192.0,60.73554,71.2888
464.15888336127773,713036.6,50.94734,71.2981
1000.0,271970.7,-131.9163,71.2806
2154.4346900318824,982880.9,-32.89521,71.3002
4641.588833612777,230068.5,-53.21118,71.2891
10000.0,215215.5,-58.21291,71.2893
