Frequency,Impedance,Phase Angle,Temperature (Dry Bath)
10.0,2705858.0,-10.85922,71.2716
21.544346900318832,2069306.0,-13.34295,71.2803
46.41588833612777,1681691.0,-12.94017,71.2856
100.0,2429904.0,-8.655747,71.2625
215.44346900318823,47433.5,13.0123,71.2667
464.15888336127773,1512149.0,5.508041,71.2688
1000.0,248729.7,-117.8218,71.2763
2154.4346900318824,307817.2,-62.21756,71.2865
4641.588833612777,120992.6,-74.54296,71.2815
10000.0,56822.5,-85.28615,71.2598
