Frequency,Impedance,Phase Angle,Temperature (Dry Bath)
10.0,5073278.0,-6.134787,71.1378
21.544346900318832,3809272.0,-2.727235,71.1189
46.41588833612777,5144784.0,-4.234028,71.1235
100.0,722909.2,-77.40467,71.1075
215.44346900318823,7821969.0,-61.49127,71.1205
464.15888336127773,330884.2,-72.25603,71.1186
1000.0,1373348.0,-52.57832,71.1172
2154.4346900318824,317495.5,-87.24519,71.1226
4641.588833612777,159674.4,-86.76373,71.1079
10000.0,64360.23,-85.72218,71.1354
