Frequency,Impedance,Phase Angle,Temperature (Dry Bath)
10.0,3489135.0,-18.12101,71.2709
21.544346900318832,4659023.0,-35.42168,71.2491
46.41588833612777,2504324.0,-31.81478,71.2696
100.0,942678.2,96.90525,71.2584
215.44346900318823,862692.4,-17.41955,71.2553
464.15888336127773,917424.0,-71.45599,71.2572
1000.0,619850.4,-63.33481,71.2647
2154.4346900318824,202526.6,-106.2563,71.2654
4641.588833612777,151599.9,-89.62,71.2644
10000.0,66919.39,-85.00513,71.2559
