Frequency,Impedance,Phase Angle,Temperature (Dry Bath)
10.0,3314146.0,4.654731,71.3459
21.544346900318832,5073854.0,3.030432,71.3477
46.41588833612777,4513372.0,-10.5544,71.3538
100.0,1340803.0,-106.1119,71.3581
215.44346900318823,486431.3,-17.74403,71.3467
464.15888336127773,2366687.0,-66.34701,71.3775
1000.0,406830.2,73.76704,71.3534
2154.4346900318824,249991.5,-126.362,71.3569
4641.588833612777,199940.2,-72.00026,71.3554
10000.0,53980.71,-86.96641,71.3567
