Frequency,Impedance,Phase Angle,Temperature (Dry Bath)
10.0,3669417.0,11.50988,71.3874
21.544346900318832,5298273.0,-0.0413377,71.3933
46.41588833612777,6398746.0,-15.32748,71.3943
100.0,1700566.0,62.47955,71.3915
215.44346900318823,655453.0,-95.27337,71.3793
464.15888336127773,948965.9,-47.58828,71.3693
1000.0,1196020.0,-26.73352,71.3947
2154.4346900318824,615155.3,-32.49374,71.3705
4641.588833612777,255478.7,-93.9384,71.366
10000.0,150779.5,-84.26903,71.3811
