Frequency,Impedance,Phase Angle,Temperature (Dry Bath)
10.0,104290.6,-13.48873,71.2269
21.544346900318832,95591.35,-12.16103,71.2259
46.41588833612777,85865.27,-11.30077,71.2213
100.0,75168.95,-6.664828,71.2273
215.44346900318823,67820.0,-12.63375,71.2252
464.15888336127773,69060.8,-12.55104,71.2281
1000.0,68033.3,-12.58192,71.2063
2154.4346900318824,53091.46,-14.92764,71.2278
4641.588833612777,51560.01,-28.83718,71.2256
10000.0,38194.3,-41.10593,71.2346
