Frequency,Impedance,Phase Angle,Temperature (Dry Bath)
10.0,30063.24,-11.51304,70.9191
21.544346900318832,27757.5,-9.2052,70.9267
46.41588833612777,26092.71,-7.662911,70.9253
100.0,24705.62,-3.437768,70.9296
215.44346900318823,23727.17,-4.108508,70.9244
464.15888336127773,23062.95,-8.736817,70.9251
1000.0,21370.69,-6.580149,70.9352
2154.4346900318824,21046.58,-9.896742,70.9224
4641.588833612777,19502.0,-14.22099,70.9261
10000.0,16680.97,-23.40984,70.9329
