Frequency,Impedance,Phase Angle,Temperature (Dry Bath)
10.0,2466680.0,-21.60804,70.9639
21.544346900318832,1894778.0,-16.9327,70.9714
46.41588833612777,2129626.0,-2.919479,70.9851
100.0,692346.0,116.541,70.9728
215.44346900318823,1417843.0,-96.12781,70.9674
464.15888336127773,685097.7,23.10767,70.9724
1000.0,234082.3,-4.563698,70.9797
2154.4346900318824,278127.3,-68.52733,70.9741
4641.588833612777,1297874.0,-56.94814,70.9855
10000.0,89026.0,-93.19826,70.9852
