Frequency,Impedance,Phase Angle,Temperature (Dry Bath)
10.0,27256.63,-21.38065,72.1962
21.544346900318832,22681.34,-22.67308,72.2089
46.41588833612777,18611.08,-23.92071,72.2176
100.0,14748.65,-23.60118,72.2024
215.44346900318823,12500.83,-26.18693,72.2076
464.15888336127773,9699.284,-26.62293,72.2044
1000.0,7466.216,-27.12461,72.2096
2154.4346900318824,6145.451,-26.49861,72.1969
4641.588833612777,4810.124,-24.05483,72.2075
10000.0,3964.44,-21.16137,72.1942
