Frequency,Impedance,Phase Angle,Temperature (Dry Bath)
10.0,4421021.0,-8.985237,70.8342
21.544346900318832,4290827.0,-25.07028,70.8161
46.41588833612777,5502870.0,-23.15561,70.8271
100.0,289844.3,23.27253,70.841
215.44346900318823,814084.1,-85.19625,70.8431
464.15888336127773,735457.8,-164.8213,70.8245
1000.0,313666.5,-99.12109,70.8444
2154.4346900318824,264621.9,-91.01997,70.8394
4641.588833612777,115794.1,-84.86594,70.8426
10000.0,58372.73,-84.97207,70.8311
