Frequency,Impedance,Phase Angle,Temperature (Dry Bath)
10.0,10706.96,-26.67521,71.1842
21.544346900318832,8410.788,-27.67097,71.1745
46.41588833612777,6560.691,-27.40903,71.2007
100.0,5197.602,-25.76292,71.1806
215.44346900318823,4127.446,-24.38215,71.17
464.15888336127773,3399.508,-21.1925,71.1856
1000.0,2867.831,-18.6552,71.176
2154.4346900318824,2481.657,-15.9425,71.1791
4641.588833612777,2183.24,-13.72567,71.1808
10000.0,1983.073,-12.55689,71.1783
