Frequency,Impedance,Phase Angle,Temperature (Dry Bath)
10.0,5720289.0,0.3869158,71.1577
21.544346900318832,5354840.0,-3.174358,71.1658
46.41588833612777,6352313.0,-19.86001,71.1681
100.0,637324.1,23.95518,71.1657
215.44346900318823,840699.4,-61.87576,71.1482
464.15888336127773,2802774.0,-121.5841,71.1585
1000.0,383758.4,-119.659,71.1569
2154.4346900318824,212186.7,-100.4484,71.1657
4641.588833612777,132737.0,-78.04225,71.1632
10000.0,63981.95,-89.25379,71.1753
