Frequency,Impedance,Phase Angle,Temperature (Dry Bath)
10.0,9900.611,-25.72709,70.6354
21.544346900318832,8075.335,-22.55849,70.634
46.41588833612777,6768.404,-19.60138,70.6335
100.0,5849.321,-16.86682,70.6215
215.44346900318823,5183.473,-14.28727,70.6404
464.15888336127773,4613.276,-12.36078,70.6549
1000.0,4180.048,-10.88242,70.643
2154.4346900318824,3882.784,-9.884625,70.6546
4641.588833612777,3635.289,-9.246041,70.6167
10000.0,3402.398,-10.02642,70.6436
