Frequency,Impedance,Phase Angle,Temperature (Dry Bath)
10.0,5250905.0,-8.751182,70.8959
21.544346900318832,4042615.0,-13.37317,70.8946
46.41588833612777,5606422.0,-36.05419,70.9019
100.0,1138459.0,107.543,70.9068
215.44346900318823,496404.3,-115.7756,70.9132
464.15888336127773,700042.2,-67.14049,70.8884
1000.0,583041.6,-14.00313,70.8916
2154.4346900318824,269441.2,-101.4634,70.8946
4641.588833612777,110011.7,-82.68073,70.9011
10000.0,58715.49,-82.8573,70.8951
