Frequency,Impedance,Phase Angle,Temperature (Dry Bath)
10.0,154418.1,-13.32323,71.2303
21.544346900318832,139523.9,-12.94518,71.2108
46.41588833612777,126422.1,-12.63479,71.2229
100.0,136253.2,-6.201701,71.2214
215.44346900318823,151985.0,-8.866628,71.2205
464.15888336127773,81424.23,-18.24563,71.2126
1000.0,74777.12,-20.58312,71.2098
2154.4346900318824,102553.1,-15.85049,71.2458
4641.588833612777,58495.62,-18.18588,71.2304
10000.0,57708.73,-32.81712,71.2431
