Frequency,Impedance,Phase Angle,Temperature (Dry Bath)
10.0,30183.63,-21.14998,71.7711
21.544346900318832,25191.28,-22.25462,71.7651
46.41588833612777,20739.06,-23.70818,71.7483
100.0,17057.69,-26.04291,71.7623
215.44346900318823,13445.4,-24.62139,71.7687
464.15888336127773,10340.71,-28.33213,71.7529
1000.0,8260.581,-30.26197,71.7588
2154.4346900318824,6271.383,-26.94231,71.7637
4641.588833612777,5103.078,-23.89414,71.7406
10000.0,4200.368,-21.64609,71.7635
