Frequency,Impedance,Phase Angle,Temperature (Dry Bath)
10.0,6164286.0,-0.2350605,70.987
21.544346900318832,4184482.0,-29.80414,70.9806
46.41588833612777,5397639.0,-15.83688,70.9833
100.0,1078177.0,140.8084,70.9885
215.44346900318823,748724.7,38.69045,70.9826
464.15888336127773,460527.4,-170.706,70.9931
1000.0,367944.3,-139.2143,71.0036
2154.4346900318824,194676.4,-78.86428,70.987
4641.588833612777,117380.8,-82.13814,70.9905
10000.0,70148.43,-84.56746,70.974
