Frequency,Impedance,Phase Angle,Temperature (Dry Bath)
10.0,24065.36,-20.86637,71.3419
21.544346900318832,20426.01,-18.20775,71.3306
46.41588833612777,17698.94,-15.67614,71.335
100.0,14821.57,-13.08621,71.3293
215.44346900318823,14337.89,-9.531566,71.3356
464.15888336127773,13055.87,-9.565507,71.335
1000.0,12289.23,-9.848098,71.3473
2154.4346900318824,11763.89,-8.664633,71.3396
4641.588833612777,10851.01,-10.92276,71.3321
10000.0,10334.21,-15.79194,71.3404
