Frequency,Impedance,Phase Angle,Temperature (Dry Bath)
10.0,5632968.0,-14.83688,71.3266
21.544346900318832,4669948.0,-2.434837,71.3245
46.41588833612777,5286791.0,-6.800793,71.3054
100.0,431831.3,-5.749283,71.3104
215.44346900318823,2118563.0,24.08935,71.3235
464.15888336127773,889047.1,70.55284,71.3249
1000.0,1257529.0,-107.8149,71.322
2154.4346900318824,879087.9,-87.7621,71.3102
4641.588833612777,371408.5,-87.99158,71.3105
10000.0,151449.6,-87.5233,71.319
