Frequency,Impedance,Phase Angle,Temperature (Dry Bath)
10.0,225125.3,-26.00506,71.2301
21.544346900318832,180668.6,-23.57203,71.2098
46.41588833612777,147475.0,-22.01058,71.2076
100.0,111811.8,-7.489306,71.216
215.44346900318823,130831.4,-24.48251,71.1974
464.15888336127773,81876.9,-13.13892,71.2048
1000.0,83071.94,-26.5196,71.2169
2154.4346900318824,66499.72,-39.25125,71.2062
4641.588833612777,46693.07,-52.4833,71.2075
10000.0,29030.17,-62.65393,71.19
