Frequency,Impedance,Phase Angle,Temperature (Dry Bath)
10.0,5058755.0,15.84303,70.8087
21.544346900318832,4179541.0,0.131205,70.8073
46.41588833612777,3534466.0,-19.69744,70.7996
100.0,561311.7,125.4272,70.8092
215.44346900318823,1450124.0,92.34278,70.7864
464.15888336127773,868854.4,-37.91038,70.8187
1000.0,794600.8,8.97062,70.7996
2154.4346900318824,427485.1,-93.74337,70.7978
4641.588833612777,128429.7,-97.46519,70.801
10000.0,65720.31,-92.03091,70.8095
