Frequency,Impedance,Phase Angle,Temperature (Dry Bath)
10.0,3837042.0,-16.16838,71.2888
21.544346900318832,7677088.0,3.494505,71.2906
46.41588833612777,4555676.0,-15.53422,71.2745
100.0,791506.1,22.09843,71.2813
215.44346900318823,650619.0,-77.58341,71.2992
464.15888336127773,1020468.0,-68.32086,71.293
1000.0,428645.0,-35.79601,71.2929
2154.4346900318824,290988.1,-71.33025,71.3033
4641.588833612777,160507.8,-81.18084,71.2795
10000.0,64276.29,-92.1752,71.2861
