Frequency,Impedance,Phase Angle,Temperature (Dry Bath)
10.0,7014881.0,-14.9833,71.3304
21.544346900318832,5547449.0,-20.42456,71.3454
46.41588833612777,4131902.0,-43.88124,71.3398
100.0,335658.0,-86.45524,71.3465
215.44346900318823,544527.0,-55.07771,71.3287
464.15888336127773,1072677.0,-9.459173,71.3259
1000.0,242325.5,-56.28025,71.3192
2154.4346900318824,188115.3,-78.10046,71.322
4641.588833612777,76185.94,-86.08874,71.3374
10000.0,34495.14,-89.36201,71.342
