Frequency,Impedance,Phase Angle,Temperature (Dry Bath)
10.0,4977527.0,-8.647833,71.1567
21.544346900318832,5039312.0,-22.7535,71.1524
46.41588833612777,5546556.0,-18.27333,71.152
100.0,412926.6,-125.8458,71.1662
215.44346900318823,1146861.0,-74.84349,71.1741
464.15888336127773,877321.7,-48.98048,71.1485
1000.0,331772.5,-86.05823,71.1608
2154.4346900318824,336891.7,-83.10699,71.1552
4641.588833612777,112310.1,-83.70595,71.1541
10000.0,63544.74,-86.78973,71.1561
