Frequency,Impedance,Phase Angle,Temperature (Dry Bath)
10.0,66389.82,-10.49363,71.0149
21.544346900318832,61938.34,-8.4295,71.0117
46.41588833612777,58208.21,-7.338396,71.0091
100.0,52095.87,-2.133936,71.0117
215.44346900318823,57164.23,-8.699085,71.0115
464.15888336127773,50563.01,-1.870789,70.9997
1000.0,48048.99,-6.152837,71.0166
2154.4346900318824,45294.72,-15.3486,70.999
4641.588833612777,45998.06,-15.62956,71.0237
10000.0,41042.65,-19.45631,71.0164
