Frequency,Impedance,Phase Angle,Temperature (Dry Bath)
10.0,3245752.0,-13.99302,70.6658
21.544346900318832,6342910.0,-13.45215,70.6496
46.41588833612777,9533604.0,3.649971,70.6534
100.0,577531.3,-24.39492,70.6427
215.44346900318823,405916.5,-67.75939,70.6498
464.15888336127773,876415.6,-144.4579,70.6634
1000.0,401794.5,-71.2794,70.6377
2154.4346900318824,249434.8,-111.9616,70.674
4641.588833612777,99243.31,-78.64783,70.6671
10000.0,57593.77,-86.17262,70.6711
