Frequency,Impedance,Phase Angle,Temperature (Dry Bath)
10.0,109395.5,-14.38532,71.6097
21.544346900318832,97336.2,-12.62658,71.6077
46.41588833612777,89038.34,-11.35028,71.609
100.0,78790.81,-8.760693,71.6056
215.44346900318823,75335.36,-14.87815,71.6095
464.15888336127773,82156.25,-11.95151,71.6036
1000.0,58001.21,-17.45144,71.6025
2154.4346900318824,57265.78,-16.17907,71.6017
4641.588833612777,61241.1,-28.10857,71.6201
10000.0,47925.26,-39.94245,71.6153
