Frequency,Impedance,Phase Angle,Temperature (Dry Bath)
10.0,10177020.0,-14.42219,70.9407
21.544346900318832,3574562.0,-7.745395,70.9315
46.41588833612777,4873347.0,-13.61161,70.9262
100.0,3334474.0,108.9439,70.9435
215.44346900318823,518396.0,-33.80849,70.9339
464.15888336127773,1269596.0,-120.9697,70.9238
1000.0,399478.8,-71.06859,70.9522
2154.4346900318824,305243.1,-72.22213,70.9368
4641.588833612777,132457.1,-93.13325,70.9256
10000.0,69506.16,-78.96316,70.9384
