Frequency,Impedance,Phase Angle,Temperature (Dry Bath)
10.0,12036.16,-25.49993,71.1788
21.544346900318832,9826.941,-22.70912,71.2138
46.41588833612777,8199.942,-20.08975,71.1808
100.0,6908.248,-16.9328,71.1929
215.44346900318823,6054.444,-15.06145,71.2125
464.15888336127773,5431.218,-13.42266,71.1904
1000.0,4950.258,-10.89137,71.2032
2154.4346900318824,4598.4,-9.895494,71.1779
4641.588833612777,4223.351,-9.681161,71.2031
10000.0,4017.489,-10.8272,71.1885
