Frequency,Impedance,Phase Angle,Temperature (Dry Bath)
10.0,5129505.0,14.38166,71.3909
21.544346900318832,5122792.0,-28.30088,71.4022
46.41588833612777,5454823.0,-22.40682,71.3877
100.0,1028419.0,-53.82096,71.3804
215.44346900318823,1026822.0,6.835211,71.3776
464.15888336127773,775691.2,-69.96874,71.385
1000.0,263965.9,-78.25231,71.3928
2154.4346900318824,203407.5,-84.00105,71.3948
4641.588833612777,107708.0,-71.85175,71.3959
10000.0,65929.55,-89.98742,71.3763
