Frequency,Impedance,Phase Angle,Temperature (Dry Bath)
10.0,32706.26,-14.41938,71.6081
21.544346900318832,29082.2,-12.97809,71.6324
46.41588833612777,26330.0,-11.78328,71.6034
100.0,24224.78,-11.91206,71.6232
215.44346900318823,22349.41,-10.45933,71.6133
464.15888336127773,20343.34,-10.4739,71.6086
1000.0,19016.7,-10.40467,71.6092
2154.4346900318824,17482.37,-12.10035,71.5984
4641.588833612777,16323.43,-12.00746,71.6267
10000.0,14786.35,-16.71292,71.6145
