Frequency,Impedance,Phase Angle,Temperature (Dry Bath)
10.0,7254304.0,-12.6657,70.9593
21.544346900318832,6003620.0,-9.248321,70.9463
46.41588833612777,7207984.0,-34.04479,70.9423
100.0,1065888.0,11.49191,70.9527
215.44346900318823,844471.0,-9.881355,70.9374
464.15888336127773,2555542.0,102.2588,70.9513
1000.0,394127.5,-64.81039,70.9506
2154.4346900318824,245669.6,-68.67949,70.9405
4641.588833612777,119608.0,-82.4072,70.9465
10000.0,57687.71,-84.64888,70.9591
