Frequency,Impedance,Phase Angle,Temperature (Dry Bath)
10.0,7158416.0,-22.76665,70.4818
21.544346900318832,6173863.0,-43.79484,70.4873
46.41588833612777,6055652.0,-56.77176,70.4824
100.0,671606.8,-46.12827,70.4852
215.44346900318823,1028609.0,109.0087,70.49
464.15888336127773,2365851.0,-116.1199,70.493
1000.0,235583.8,-81.44443,70.508
2154.4346900318824,282067.7,-63.38551,70.4966
4641.588833612777,104114.8,-80.60165,70.4805
10000.0,60082.74,-82.78862,70.4762
