Frequency,Impedance,Phase Angle,Temperature (Dry Bath)
10.0,4121511.0,3.67458,70.9106
21.544346900318832,5034672.0,-19.75183,70.9106
46.41588833612777,4583513.0,-26.42139,70.9061
100.0,1102102.0,-103.3113,70.9175
215.44346900318823,654379.5,-106.9852,70.9069
464.15888336127773,843842.9,45.85973,70.9188
1000.0,290804.6,-48.36512,70.9169
2154.4346900318824,177186.2,-94.37944,70.9019
4641.588833612777,118522.3,-96.74424,70.9157
10000.0,53469.7,-87.18966,70.909
