Frequency,Impedance,Phase Angle,Temperature (Dry Bath)
10.0,6071645.0,18.10239,71.5422
21.544346900318832,4707764.0,-3.743456,71.522
46.41588833612777,5621242.0,-7.288895,71.5295
100.0,743234.6,12.33794,71.5335
215.44346900318823,1879975.0,-105.5453,71.5147
464.15888336127773,3604459.0,-90.58147,71.5145
1000.0,1668690.0,44.7663,71.5376
2154.4346900318824,740295.6,-78.32115,71.5277
4641.588833612777,265917.7,-103.1774,71.5179
10000.0,175109.7,-94.2727,71.5112
