Frequency,Impedance,Phase Angle,Temperature (Dry Bath)
10.0,7966548.0,-24.96937,70.8885
21.544346900318832,3961291.0,-5.415661,70.8851
46.41588833612777,5046568.0,-40.18572,70.8856
100.0,532699.9,-48.74448,70.8955
215.44346900318823,863549.1,31.36851,70.8836
464.15888336127773,1470241.0,-133.8551,70.8934
1000.0,333955.4,-100.6859,70.8816
2154.4346900318824,723357.9,-131.3036,70.8847
4641.588833612777,101882.7,-77.21848,70.8659
10000.0,51582.95,-89.97858,70.8751
