Frequency,Impedance,Phase Angle,Temperature (Dry Bath)
10.0,245400.4,-15.66761,71.1023
21.544346900318832,209669.3,-14.9711,71.1107
46.41588833612777,187701.5,-14.80061,71.1203
100.0,160376.6,-6.088293,71.0971
215.44346900318823,149050.6,-17.62693,71.1049
464.15888336127773,138741.8,-20.09872,71.1103
1000.0,92184.05,1.993963,71.0953
2154.4346900318824,79697.61,-13.14329,71.1087
4641.588833612777,102836.9,-30.80358,71.0961
10000.0,74669.72,-38.56507,71.1051
