Frequency,Impedance,Phase Angle,Temperature (Dry Bath)
10.0,6577166.0,13.12379,70.5679
21.544346900318832,3611832.0,-5.378318,70.581
46.41588833612777,4652511.0,-16.33178,70.5736
100.0,1710858.0,-30.75335,70.5904
215.44346900318823,2803608.0,-23.02807,70.5742
464.15888336127773,356243.5,-75.88453,70.5655
1000.0,297640.1,-45.82687,70.5662
2154.4346900318824,304434.1,-72.86773,70.5765
4641.588833612777,119850.4,-77.42653,70.5833
10000.0,59445.3,-94.58194,70.5828
