Frequency,Impedance,Phase Angle,Temperature (Dry Bath)
10.0,14903.49,-19.60324,71.0432
21.544346900318832,12814.17,-16.80842,71.0369
46.41588833612777,11294.83,-14.58111,71.0384
100.0,9977.953,-11.9493,71.0173
215.44346900318823,9147.353,-11.03645,71.0292
464.15888336127773,8501.698,-10.00459,71.0491
1000.0,7848.234,-9.193866,71.0513
2154.4346900318824,7341.285,-9.411687,71.0357
4641.588833612777,6784.967,-10.82841,71.0335
10000.0,6468.875,-12.6945,71.0297
