Frequency,Impedance,Phase Angle,Temperature (Dry Bath)
10.0,3841134.0,-2.56229,70.4769
21.544346900318832,4367316.0,-17.54483,70.4772
46.41588833612777,3713989.0,-25.28346,70.4887
100.0,592086.7,-16.77647,70.4625
215.44346900318823,1158459.0,2.551467,70.4895
464.15888336127773,661601.9,-12.48222,70.454
1000.0,1831054.0,-109.0247,70.4534
2154.4346900318824,269861.0,-69.09559,70.4629
4641.588833612777,130811.7,-90.05499,70.4514
10000.0,64847.89,-91.69716,70.4459
