Frequency,Impedance,Phase Angle,Temperature (Dry Bath)
10.0,20377.78,-19.60915,71.0763
21.544346900318832,17550.74,-17.57209,71.0594
46.41588833612777,15291.01,-15.55574,71.0669
100.0,13377.22,-14.00035,71.0859
215.44346900318823,12061.07,-11.97073,71.0902
464.15888336127773,10985.72,-12.49712,71.0783
1000.0,10110.14,-9.462224,71.0765
2154.4346900318824,9423.596,-10.70178,71.0853
4641.588833612777,8951.57,-10.93863,71.0921
10000.0,8364.027,-14.1793,71.0791
