Frequency,Impedance,Phase Angle,Temperature (Dry Bath)
10.0,2592423.0,-13.53376,71.1309
21.544346900318832,2922959.0,-10.40084,71.1254
46.41588833612777,2186683.0,-5.72378,71.1436
100.0,507991.9,-46.6277,71.1411
215.44346900318823,626036.8,156.3925,71.1337
464.15888336127773,1635912.0,-2.028725,71.1334
1000.0,251428.2,-113.4715,71.1453
2154.4346900318824,456303.9,25.54708,71.1241
4641.588833612777,569006.9,-67.98547,71.1242
10000.0,104689.3,-73.61716,71.1382
