Frequency,Impedance,Phase Angle,Temperature (Dry Bath)
10.0,56460.9,-18.23143,70.5942
21.544346900318832,49540.91,-16.43938,70.5758
46.41588833612777,43769.08,-15.33135,70.5712
100.0,37197.48,-10.5179,70.5858
215.44346900318823,34644.64,-13.03474,70.5885
464.15888336127773,30834.01,-10.85157,70.5889
1000.0,30774.53,-12.54361,70.5957
2154.4346900318824,26955.83,-15.86692,70.5951
4641.588833612777,23519.54,-18.28607,70.5901
10000.0,20040.6,-26.31861,70.5875
