Frequency,Impedance,Phase Angle,Temperature (Dry Bath)
10.0,26586.91,-13.8594,70.3277
21.544346900318832,24132.45,-11.27843,70.3405
46.41588833612777,22282.27,-9.53457,70.3234
100.0,19930.14,-10.07574,70.3431
215.44346900318823,18769.98,-6.279641,70.3357
464.15888336127773,18162.46,-3.205453,70.3408
1000.0,17772.28,-6.648156,70.3474
2154.4346900318824,16868.13,-8.92657,70.3555
4641.588833612777,15956.49,-10.01807,70.3528
10000.0,14758.19,-21.36367,70.3807
