Frequency,Impedance,Phase Angle,Temperature (Dry Bath)
10.0,12611.45,-41.24243,71.1762
21.544346900318832,8922.286,-38.55842,71.1526
46.41588833612777,6450.255,-34.71952,71.1616
100.0,4868.776,-29.70096,71.1715
215.44346900318823,3859.443,-24.36608,71.1616
464.15888336127773,3238.61,-20.15201,71.1493
1000.0,2799.566,-16.68142,71.1514
2154.4346900318824,2474.364,-13.98732,71.157
4641.588833612777,2213.253,-12.27989,71.1538
10000.0,2063.696,-10.09246,71.1722
