Frequency,Impedance,Phase Angle,Temperature (Dry Bath)
10.0,7426015.0,-4.736864,70.9862
21.544346900318832,7103527.0,-34.28606,71.0
46.41588833612777,5261791.0,-13.31274,71.0048
100.0,1127867.0,94.83628,70.9952
215.44346900318823,781715.0,-25.78,70.9965
464.15888336127773,621829.5,80.73827,70.9982
1000.0,141246.5,-163.7969,71.0096
2154.4346900318824,184018.7,-60.49313,70.9905
4641.588833612777,247709.1,-32.93658,70.997
10000.0,197934.3,-64.64807,70.9971
