Frequency,Impedance,Phase Angle,Temperature (Dry Bath)
10.0,5427267.0,-6.464924,71.1887
21.544346900318832,5807392.0,-35.49141,71.17
46.41588833612777,7333597.0,-14.29131,71.1767
100.0,912772.2,168.9665,71.1744
215.44346900318823,1147164.0,-81.8498,71.1799
464.15888336127773,1801346.0,-167.9329,71.1831
1000.0,340634.6,-75.16564,71.1661
2154.4346900318824,196821.7,-73.27606,71.172
4641.588833612777,147968.1,-86.63052,71.1618
10000.0,62804.18,-83.48312,71.1637
