Frequency,Impedance,Phase Angle,Temperature (Dry Bath)
10.0,5326487.0,-0.8410377,70.4952
21.544346900318832,8862299.0,-17.79917,70.4998
46.41588833612777,3963420.0,-29.84147,70.5181
100.0,272720.1,35.49905,70.5195
215.44346900318823,600544.8,122.783,70.5126
464.15888336127773,412286.2,-11.77922,70.5093
1000.0,397855.5,-39.93882,70.4915
2154.4346900318824,292082.6,-75.60224,70.5011
4641.588833612777,129833.6,-78.06564,70.5186
10000.0,45083.43,-90.26099,70.5051
