Frequency,Impedance,Phase Angle,Temperature (Dry Bath)
10.0,5020929.0,-28.36278,71.3773
21.544346900318832,7260668.0,2.349658,71.376
46.41588833612777,5891539.0,-28.60079,71.3662
100.0,721984.9,-175.5336,71.3643
215.44346900318823,28493.96,-68.75261,71.3468
464.15888336127773,670434.1,-41.68346,71.3753
1000.0,790682.1,-99.54384,71.3891
2154.4346900318824,279868.4,-112.507,71.3693
4641.588833612777,156781.8,-75.64281,71.3942
10000.0,67315.14,-79.66174,71.3774
