Frequency,Impedance,Phase Angle,Temperature (Dry Bath)
10.0,13344.49,-27.69533,70.9663
21.544346900318832,10629.61,-25.14715,70.9606
46.41588833612777,8695.864,-22.4483,70.9748
100.0,7425.27,-19.33043,70.9718
215.44346900318823,6272.675,-17.33934,70.9712
464.15888336127773,5527.652,-15.23304,70.9734
1000.0,4884.034,-12.83294,70.9732
2154.4346900318824,4394.912,-12.67711,70.9635
4641.588833612777,4033.118,-12.20832,70.9743
10000.0,3678.165,-13.43904,70.9639
