Frequency,Impedance,Phase Angle,Temperature (Dry Bath)
10.0,4586972.0,4.078838,70.4776
21.544346900318832,3348039.0,-40.92974,70.478
46.41588833612777,6533563.0,-35.46635,70.481
100.0,352615.1,-69.06369,70.4681
215.44346900318823,578681.0,-42.20435,70.4818
464.15888336127773,222650.1,-125.7778,70.4896
1000.0,623778.0,-105.6758,70.4795
2154.4346900318824,162148.9,-78.8354,70.4916
4641.588833612777,136861.7,-85.66473,70.5018
10000.0,64930.14,-96.69745,70.4805
