Frequency,Impedance,Phase Angle,Temperature (Dry Bath)
10.0,4306331.0,-5.414817,70.8043
21.544346900318832,5621211.0,-12.28883,70.8018
46.41588833612777,3996600.0,-31.30086,70.8163
100.0,723947.0,-64.05311,70.8128
215.44346900318823,1775403.0,-64.90164,70.797
464.15888336127773,976972.9,-148.7437,70.8063
1000.0,354514.6,-69.2452,70.8053
2154.4346900318824,222775.8,-104.7476,70.8027
4641.588833612777,108460.1,-82.09074,70.8032
10000.0,52308.31,-82.90446,70.7988
