Frequency,Impedance,Phase Angle,Temperature (Dry Bath)
10.0,4326037.0,-10.62467,71.0717
21.544346900318832,6248515.0,18.62036,71.06
46.41588833612777,6961086.0,-19.4735,71.0712
100.0,686076.7,-71.12468,71.0698
215.44346900318823,636281.9,44.66424,71.0633
464.15888336127773,1442654.0,-83.29539,71.0779
1000.0,479368.7,-136.6611,71.0721
2154.4346900318824,236647.0,-71.36275,71.0579
4641.588833612777,139597.4,-86.55631,71.0678
10000.0,71291.06,-87.22628,71.0693
