Frequency,Impedance,Phase Angle,Temperature (Dry Bath)
10.0,4468108.0,-40.17705,70.9769
21.544346900318832,3055669.0,-33.18151,71.0061
46.41588833612777,2408838.0,-38.0141,70.9932
100.0,593311.9,10.4214,70.9925
215.44346900318823,1669279.0,-29.34636,70.9945
464.15888336127773,643114.6,-43.7157,70.996
1000.0,635171.1,-17.21852,70.9881
2154.4346900318824,275353.8,-37.13634,70.9943
4641.588833612777,135232.3,-73.37716,70.9924
10000.0,66277.8,-83.73086,71.0101
