Frequency,Impedance,Phase Angle,Temperature (Dry Bath)
10.0,12397.43,-23.54504,71.0748
21.544346900318832,10380.2,-19.94055,71.0999
46.41588833612777,8941.496,-16.8839,71.071
100.0,7823.594,-13.01968,71.0962
215.44346900318823,7112.437,-12.66148,71.0757
464.15888336127773,6526.729,-10.555,71.0774
1000.0,6014.734,-10.05394,71.0627
2154.4346900318824,5574.651,-8.782727,71.0916
4641.588833612777,5251.62,-8.904405,71.0863
10000.0,4946.214,-11.61688,71.0823
