Frequency,Impedance,Phase Angle,Temperature (Dry Bath)
10.0,2053435.0,-20.08531,70.9119
21.544346900318832,1706992.0,-18.22571,70.8967
46.41588833612777,1343535.0,-21.38397,70.8936
100.0,415412.8,-37.34667,70.9116
215.44346900318823,901859.0,-50.48154,70.935
464.15888336127773,557142.4,-113.0946,70.9025
1000.0,380337.6,-77.43235,70.9142
2154.4346900318824,182938.8,-55.04328,70.8999
4641.588833612777,119209.3,-71.59034,70.9295
10000.0,53348.55,-78.81951,70.9032
