Frequency,Impedance,Phase Angle,Temperature (Dry Bath)
10.0,2854980.0,7.660612,70.9881
21.544346900318832,2905613.0,-33.65343,70.9746
46.41588833612777,2615499.0,-35.58952,70.9905
100.0,2087153.0,-52.98886,70.9837
215.44346900318823,1643264.0,-54.77996,70.9821
464.15888336127773,1467625.0,-126.1965,70.9767
1000.0,839500.3,-170.9379,70.9858
2154.4346900318824,334284.8,-89.00528,70.9787
4641.588833612777,114799.2,-80.87149,70.981
10000.0,60207.45,-87.69621,70.9849
