Frequency,Impedance,Phase Angle,Temperature (Dry Bath)
10.0,3766631.0,6.980727,71.2083
21.544346900318832,3688344.0,-15.7601,71.2039
46.41588833612777,3021031.0,-19.86871,71.2156
100.0,901606.6,133.8643,71.2211
215.44346900318823,843125.2,-75.81181,71.2164
464.15888336127773,506906.2,-71.85481,71.227
1000.0,1778482.0,-100.7836,71.2002
2154.4346900318824,296321.7,-39.2597,71.2141
4641.588833612777,224332.5,-77.88619,71.2108
10000.0,92897.67,-88.43202,71.2197
