Frequency,Impedance,Phase Angle,Temperature (Dry Bath)
10.0,42890.62,-15.15775,71.4931
21.544346900318832,38569.24,-13.06901,71.491
46.41588833612777,35505.68,-11.89369,71.4947
100.0,34326.39,-10.65867,71.4891
215.44346900318823,29583.06,-10.53585,71.4862
464.15888336127773,27449.19,-9.261206,71.4891
1000.0,26697.84,-12.77487,71.4909
2154.4346900318824,22506.53,-12.18145,71.4839
4641.588833612777,21241.07,-18.26749,71.4846
10000.0,19875.46,-24.26206,71.4957
