Frequency,Impedance,Phase Angle,Temperature (Dry Bath)
10.0,6424148.0,22.62144,71.4384
21.544346900318832,3530149.0,-13.39142,71.4381
46.41588833612777,4296983.0,-21.75714,71.4296
100.0,707720.9,-53.22675,71.4388
215.44346900318823,2873443.0,-0.4127944,71.427
464.15888336127773,2256623.0,-38.67592,71.4412
1000.0,403999.0,-80.60148,71.4403
2154.4346900318824,452050.8,-57.44473,71.4539
4641.588833612777,268030.1,-67.96075,71.4432
10000.0,92507.85,-86.41073,71.4484
