Frequency,Impedance,Phase Angle,Temperature (Dry Bath)
10.0,150408.3,-9.894731,71.2759
21.544346900318832,137385.9,-8.978651,71.2429
46.41588833612777,132591.0,-8.483493,71.2785
100.0,108420.1,1.349811,71.2921
215.44346900318823,127234.3,-26.76525,71.2638
464.15888336127773,136066.7,-6.008532,71.2771
1000.0,101309.0,-15.51671,71.2693
2154.4346900318824,104258.5,-30.80424,71.2609
4641.588833612777,66002.93,-38.8794,71.2583
10000.0,40934.88,-62.22114,71.2688
