Frequency,Impedance,Phase Angle,Temperature (Dry Bath)
10.0,4345708.0,-9.896194,70.4118
21.544346900318832,4417452.0,4.493203,70.3967
46.41588833612777,7802764.0,-28.80167,70.4053
100.0,422950.0,106.9281,70.3947
215.44346900318823,640372.0,177.9349,70.3892
464.15888336127773,630133.7,-143.0688,70.3976
1000.0,2119368.0,-20.00817,70.389
2154.4346900318824,341159.8,-75.97162,70.3858
4641.588833612777,257769.2,-87.10037,70.3929
10000.0,133285.0,-67.89927,70.3814
