Frequency,Impedance,Phase Angle,Temperature (Dry Bath)
10.0,1923998.0,-18.10739,71.8521
21.544346900318832,2301329.0,-11.79152,71.8577
46.41588833612777,1706062.0,-15.45818,71.8492
100.0,636396.0,-0.06148019,71.8705
215.44346900318823,412995.8,-80.41998,71.8529
464.15888336127773,245706.7,-38.6714,71.8473
1000.0,451531.1,-154.2815,71.8539
2154.4346900318824,449959.1,-114.7845,71.8579
4641.588833612777,201299.9,-102.1009,71.8771
10000.0,147331.4,-98.9842,71.8697
