Frequency,Impedance,Phase Angle,Temperature (Dry Bath)
10.0,5070.646,-34.67705,70.9593
21.544346900318832,3857.658,-29.1582,70.9535
46.41588833612777,3108.475,-23.77792,70.9522
100.0,2624.238,-18.87294,70.9515
215.44346900318823,2299.527,-15.87152,70.9407
464.15888336127773,2039.142,-13.29534,70.9371
1000.0,1843.764,-11.10808,70.9439
2154.4346900318824,1699.004,-9.554573,70.951
4641.588833612777,1582.667,-8.621335,70.9532
10000.0,1502.273,-7.770236,70.9597
