Frequency,Impedance,Phase Angle,Temperature (Dry Bath)
10.0,6950064.0,0.4885596,72.0196
21.544346900318832,4726912.0,-6.081051,72.0026
46.41588833612777,4872682.0,12.592,72.0207
100.0,1438313.0,-5.588893,71.9988
215.44346900318823,536425.8,-123.2638,72.0139
464.15888336127773,528562.6,-33.61383,71.9999
1000.0,597186.3,-141.1715,72.0007
2154.4346900318824,419850.3,-143.1575,72.0012
4641.588833612777,193832.5,-108.4571,72.0136
10000.0,147895.2,-67.41451,71.9939
