Frequency,Impedance,Phase Angle,Temperature (Dry Bath)
10.0,11849.58,-21.16078,70.6577
21.544346900318832,10099.19,-18.12561,70.6717
46.41588833612777,8809.765,-15.97718,70.6735
100.0,7910.159,-13.46304,70.6647
215.44346900318823,7040.665,-13.12144,70.6629
464.15888336127773,6414.046,-10.95526,70.6575
1000.0,5815.696,-10.51776,70.6794
2154.4346900318824,5467.566,-9.288043,70.6742
4641.588833612777,5058.96,-9.325559,70.6637
10000.0,4714.08,-10.78,70.6648
