Frequency,Impedance,Phase Angle,Temperature (Dry Bath)
10.0,903873.6,-28.51025,71.2717
21.544346900318832,779313.6,-25.08876,71.2741
46.41588833612777,619909.0,-22.31634,71.2847
100.0,1422938.0,74.13901,71.2723
215.44346900318823,377894.2,-42.85501,71.267
464.15888336127773,365986.3,-7.700669,71.2702
1000.0,265457.7,-50.04008,71.2793
2154.4346900318824,187125.4,-31.31032,71.2793
4641.588833612777,107425.3,-63.04097,71.2909
10000.0,58986.4,-80.6873,71.2669
