Frequency,Impedance,Phase Angle,Temperature (Dry Bath)
10.0,166365.8,-14.35693,71.1704
21.544346900318832,148246.4,-11.99556,71.1647
46.41588833612777,137029.3,-11.86916,71.171
100.0,114286.7,-4.851701,71.1634
215.44346900318823,101431.2,-14.04845,71.1584
464.15888336127773,98339.86,-10.18295,71.1569
1000.0,105697.7,-14.28676,71.1565
2154.4346900318824,85358.84,-23.99679,71.1526
4641.588833612777,66085.0,-34.99671,71.1574
10000.0,46427.32,-53.40969,71.166
