Frequency,Impedance,Phase Angle,Temperature (Dry Bath)
10.0,4180840.0,-21.36001,71.1601
21.544346900318832,3717684.0,-32.21797,71.1598
46.41588833612777,3723753.0,-11.36563,71.1606
100.0,349845.2,49.63414,71.1592
215.44346900318823,913180.2,-105.2058,71.1612
464.15888336127773,437249.4,-45.61581,71.1595
1000.0,302989.2,-134.339,71.1569
2154.4346900318824,533077.8,-74.68185,71.1549
4641.588833612777,133741.8,-91.96327,71.1493
10000.0,52700.89,-89.73623,71.151
