Frequency,Impedance,Phase Angle,Temperature (Dry Bath)
10.0,11864.44,-33.92167,70.6802
21.544346900318832,8989.834,-31.13461,70.6879
46.41588833612777,6962.772,-28.1063,70.682
100.0,5509.399,-24.65871,70.6702
215.44346900318823,4561.755,-20.67074,70.6786
464.15888336127773,3903.649,-16.7066,70.6917
1000.0,3429.575,-13.78023,70.704
2154.4346900318824,3138.077,-11.03029,70.6875
4641.588833612777,2913.653,-9.507245,70.6954
10000.0,2753.666,-9.299359,70.6865
