Frequency,Impedance,Phase Angle,Temperature (Dry Bath)
10.0,148665.8,-9.98554,71.1849
21.544346900318832,138562.7,-9.467883,71.1931
46.41588833612777,131222.1,-9.996354,71.1918
100.0,161681.2,-12.90453,71.1931
215.44346900318823,101264.6,-23.69799,71.1859
464.15888336127773,108415.1,-13.92592,71.1762
1000.0,101604.9,-19.0881,71.1874
2154.4346900318824,85006.7,-22.07198,71.1946
4641.588833612777,62822.6,-51.24759,71.1942
10000.0,40761.42,-61.98987,71.1918
