Frequency,Impedance,Phase Angle,Temperature (Dry Bath)
10.0,3945055.0,-3.564067,70.9316
21.544346900318832,3152145.0,-2.048286,70.9309
46.41588833612777,4220715.0,-24.60052,70.9241
100.0,574081.6,-24.14701,70.9165
215.44346900318823,413859.9,-47.25392,70.9343
464.15888336127773,380504.1,-138.9388,70.9399
1000.0,293490.2,-98.49291,70.9199
2154.4346900318824,281785.8,-54.88511,70.9171
4641.588833612777,135466.5,-84.81787,70.9268
10000.0,65331.88,-83.08727,70.9223
