Frequency,Impedance,Phase Angle,Temperature (Dry Bath)
10.0,369304.3,-25.81686,71.1233
21.544346900318832,300649.3,-22.03509,71.1374
46.41588833612777,249583.8,-20.94698,71.1372
100.0,212242.8,-26.63758,71.16
215.44346900318823,151041.9,-15.58593,71.1418
464.15888336127773,158663.4,-20.75995,71.1299
1000.0,162436.7,-31.51694,71.1377
2154.4346900318824,133362.6,-34.5329,71.1437
4641.588833612777,62929.93,-55.6592,71.1387
10000.0,45611.87,-67.89191,71.1392
