Frequency,Impedance,Phase Angle,Temperature (Dry Bath)
10.0,4225814.0,-28.81112,71.4803
21.544346900318832,3926860.0,-19.31832,71.4691
46.41588833612777,5693492.0,-4.517388,71.4585
100.0,2181904.0,133.2099,71.4688
215.44346900318823,668061.0,156.9089,71.4813
464.15888336127773,1405374.0,114.8964,71.4658
1000.0,421850.6,-20.89513,71.4753
2154.4346900318824,539843.2,-107.2945,71.457
4641.588833612777,324144.0,-57.57143,71.4693
10000.0,118180.5,-92.54619,71.4727
