Frequency,Impedance,Phase Angle,Temperature (Dry Bath)
10.0,565986.2,-4.285889,71.3939
21.544346900318832,574934.3,-5.352917,71.3632
46.41588833612777,555566.5,-4.376072,71.3864
100.0,312018.1,23.78161,71.3794
215.44346900318823,417517.9,-22.58089,71.3853
464.15888336127773,287077.8,-23.66804,71.4008
1000.0,489940.6,-29.75567,71.3835
2154.4346900318824,283547.3,-31.7034,71.3872
4641.588833612777,213314.9,-66.11301,71.3845
10000.0,104612.0,-78.28327,71.389
