Frequency,Impedance,Phase Angle,Temperature (Dry Bath)
10.0,18754.64,-22.96993,71.2013
21.544346900318832,15330.3,-24.4899,71.1965
46.41588833612777,12297.37,-25.72319,71.1965
100.0,9825.329,-26.27469,71.1989
215.44346900318823,7719.963,-25.06176,71.1992
464.15888336127773,6338.444,-23.42004,71.2047
1000.0,5108.973,-22.58444,71.196
2154.4346900318824,4296.628,-20.67186,71.1906
4641.588833612777,3617.703,-18.27511,71.2038
10000.0,3196.848,-17.02027,71.209
