Frequency,Impedance,Phase Angle,Temperature (Dry Bath)
10.0,110773.3,-14.93799,71.5082
21.544346900318832,99199.12,-13.43636,71.5071
46.41588833612777,89422.73,-12.16083,71.4937
100.0,78488.65,-15.95783,71.5086
215.44346900318823,72692.43,-5.49708,71.5193
464.15888336127773,63208.24,-9.99287,71.4981
1000.0,60991.87,-8.982051,71.491
2154.4346900318824,58361.57,-8.693954,71.504
4641.588833612777,54982.93,-24.56799,71.4889
10000.0,49194.1,-32.3957,71.5142
