Frequency,Impedance,Phase Angle,Temperature (Dry Bath)
10.0,40545.44,-14.30755,70.6114
21.544346900318832,36662.88,-12.17599,70.6023
46.41588833612777,33744.35,-11.04773,70.6044
100.0,31512.19,-9.432884,70.5878
215.44346900318823,29841.8,-13.00396,70.6133
464.15888336127773,26995.99,-10.85038,70.6228
1000.0,24324.47,-11.43002,70.6207
2154.4346900318824,23401.59,-11.78934,70.6183
4641.588833612777,21395.78,-12.83254,70.6081
10000.0,18617.5,-24.13434,70.6087
