Frequency,Impedance,Phase Angle,Temperature (Dry Bath)
10.0,3703.68,-30.39597,71.2834
21.544346900318832,2952.594,-25.1498,71.291
46.41588833612777,2452.66,-20.49836,71.3007
100.0,2111.45,-16.38746,71.2964
215.44346900318823,1888.02,-12.94527,71.2961
464.15888336127773,1725.954,-10.34846,71.2726
1000.0,1601.537,-8.250889,71.2926
2154.4346900318824,1510.794,-6.740858,71.2852
4641.588833612777,1440.528,-5.810235,71.283
10000.0,1390.11,-5.228543,71.2961
