Frequency,Impedance,Phase Angle,Temperature (Dry Bath)
10.0,4371844.0,-15.04964,71.1564
21.544346900318832,5076956.0,-0.3246419,71.151
46.41588833612777,4056142.0,2.870678,71.1659
100.0,2710102.0,-65.09033,71.166
215.44346900318823,3016943.0,72.27653,71.1901
464.15888336127773,973422.3,3.88593,71.1754
1000.0,709603.3,-91.20339,71.1675
2154.4346900318824,583968.7,-62.19955,71.1682
4641.588833612777,334601.5,-75.26618,71.1804
10000.0,129587.2,-82.5675,71.1848
