Frequency,Impedance,Phase Angle,Temperature (Dry Bath)
10.0,5496306.0,12.66897,71.2787
21.544346900318832,6616532.0,7.97318,71.2935
46.41588833612777,3940145.0,-3.313639,71.3097
100.0,1484405.0,162.9337,71.2984
215.44346900318823,1403656.0,153.2259,71.311
464.15888336127773,418205.4,-90.24719,71.301
1000.0,562975.7,-95.43416,71.2991
2154.4346900318824,393286.1,-106.395,71.3071
4641.588833612777,243453.3,-76.80659,71.3105
10000.0,150956.3,-88.0975,71.2923
