Frequency,Impedance,Phase Angle,Temperature (Dry Bath)
10.0,5122190.0,-24.37426,71.2591
21.544346900318832,5386650.0,-31.1316,71.2482
46.41588833612777,5796549.0,-21.94664,71.2541
100.0,791897.4,-158.8026,71.2411
215.44346900318823,567626.8,48.8679,71.2488
464.15888336127773,705829.1,-100.9194,71.2629
1000.0,726741.1,174.7511,71.2549
2154.4346900318824,225494.4,-67.73434,71.2406
4641.588833612777,135343.1,-76.09076,71.2484
10000.0,65423.5,-88.42621,71.2559
