Frequency,Impedance,Phase Angle,Temperature (Dry Bath)
10.0,4529630.0,-21.65461,70.4726
21.544346900318832,4047553.0,-8.593932,70.4469
46.41588833612777,2867290.0,-39.91998,70.4742
100.0,476792.1,9.120569,70.4682
215.44346900318823,627452.4,-145.7523,70.4368
464.15888336127773,374360.3,-67.01821,70.449
1000.0,349387.2,-82.55903,70.4508
2154.4346900318824,186749.3,-72.10319,70.4383
4641.588833612777,102377.6,-85.57859,70.4385
10000.0,47077.04,-85.56487,70.4396
