Frequency,Impedance,Phase Angle,Temperature (Dry Bath)
10.0,4201136.0,-17.2604,71.1916
21.544346900318832,4073225.0,-31.13157,71.1963
46.41588833612777,4659350.0,-21.73211,71.1855
100.0,267642.5,-139.0642,71.1957
215.44346900318823,733740.2,124.0299,71.1901
464.15888336127773,786817.8,33.04954,71.1826
1000.0,663674.4,-112.0621,71.1984
2154.4346900318824,268522.5,-100.1502,71.1976
4641.588833612777,116678.6,-106.5827,71.1949
10000.0,62237.04,-82.62359,71.1928
