Frequency,Impedance,Phase Angle,Temperature (Dry Bath)
10.0,12464.15,-26.5296,71.2668
21.544346900318832,10061.72,-23.84721,71.2755
46.41588833612777,8321.791,-21.16445,71.2741
100.0,7111.839,-17.90909,71.2557
215.44346900318823,6172.525,-15.91719,71.2665
464.15888336127773,5405.299,-14.1705,71.2625
1000.0,4853.314,-13.26631,71.2695
2154.4346900318824,4402.364,-11.6746,71.2843
4641.588833612777,4030.371,-11.45549,71.2773
10000.0,3701.042,-12.03248,71.2746
