Frequency,Impedance,Phase Angle,Temperature (Dry Bath)
10.0,6104354.0,1.518511,71.1119
21.544346900318832,4710963.0,-16.80246,71.088
46.41588833612777,6078123.0,-1.578587,71.105
100.0,2518442.0,146.9684,71.108
215.44346900318823,504097.1,-100.4492,71.0984
464.15888336127773,579811.3,-60.02069,71.0987
1000.0,575463.6,-154.97,71.1086
2154.4346900318824,1143283.0,94.70897,71.1013
4641.588833612777,360625.1,-99.75048,71.0923
10000.0,157788.6,-77.13123,71.1101
