Frequency,Impedance,Phase Angle,Temperature (Dry Bath)
10.0,11416360.0,9.595006,70.8939
21.544346900318832,8500782.0,-24.36385,70.8867
46.41588833612777,5095962.0,-28.80171,70.88
100.0,491496.2,16.11952,70.8849
215.44346900318823,3468784.0,-178.601,70.8886
464.15888336127773,385414.2,-140.3676,70.8836
1000.0,443048.1,-59.47052,70.8795
2154.4346900318824,238053.6,-57.38476,70.8777
4641.588833612777,133633.5,-87.13446,70.8873
10000.0,61967.86,-93.02118,70.8898
