Frequency,Impedance,Phase Angle,Temperature (Dry Bath)
10.0,2947029.0,-10.02883,71.3082
21.544346900318832,2655506.0,-9.133086,71.3217
46.41588833612777,2421487.0,-20.82019,71.3168
100.0,1362412.0,37.14963,71.3111
215.44346900318823,416045.4,-15.55245,71.3237
464.15888336127773,755989.5,-61.85212,71.3199
1000.0,599194.0,25.32352,71.3306
2154.4346900318824,452209.6,1.613401,71.3129
4641.588833612777,178836.8,-105.6446,71.3236
10000.0,109996.2,-78.38271,71.3146
