Frequency,Impedance,Phase Angle,Temperature (Dry Bath)
10.0,247584.4,-13.63582,71.2208
21.544346900318832,217944.8,-14.61733,71.2377
46.41588833612777,192711.2,-15.90389,71.2334
100.0,156619.6,0.6853297,71.2119
215.44346900318823,182424.5,-27.98489,71.2465
464.15888336127773,149316.3,-28.04515,71.2362
1000.0,96975.85,-16.48783,71.2532
2154.4346900318824,84760.32,-32.15159,71.2281
4641.588833612777,82768.16,-35.42115,71.2408
10000.0,59356.94,-41.00102,71.2229
