Frequency,Impedance,Phase Angle,Temperature (Dry Bath)
10.0,3296000.0,-17.81698,70.369
21.544346900318832,4105407.0,2.555668,70.3682
46.41588833612777,4704459.0,-25.90491,70.3731
100.0,469437.7,-73.53167,70.382
215.44346900318823,1516415.0,7.244552,70.3819
464.15888336127773,3550602.0,-55.08052,70.3752
1000.0,781665.3,-90.92665,70.3712
2154.4346900318824,247168.9,-42.45663,70.3837
4641.588833612777,514458.0,-75.77458,70.3868
10000.0,158238.4,-96.68501,70.3839
