Frequency,Impedance,Phase Angle,Temperature (Dry Bath)
10.0,105708.3,-13.89295,71.3125
21.544346900318832,95804.31,-12.06014,71.3271
46.41588833612777,87210.77,-11.01153,71.3387
100.0,66491.25,-11.65139,71.3282
215.44346900318823,27525.91,158.8464,71.3164
464.15888336127773,67255.31,-16.72245,71.3039
1000.0,64942.3,-15.15758,71.3017
2154.4346900318824,51626.86,-22.70838,71.2948
4641.588833612777,48139.25,-26.48685,71.2962
10000.0,36966.02,-45.11102,71.3047
