Frequency,Impedance,Phase Angle,Temperature (Dry Bath)
10.0,81322.85,-36.62113,71.4101
21.544346900318832,60378.83,-32.5302,71.4054
46.41588833612777,46645.95,-28.66531,71.4121
100.0,34835.77,-24.2592,71.4126
215.44346900318823,23218.06,-58.89215,71.3985
464.15888336127773,26281.2,-18.81832,71.4224
1000.0,23690.87,-16.18305,71.4104
2154.4346900318824,20338.54,-15.87827,71.3988
4641.588833612777,18722.02,-19.59306,71.4082
10000.0,16881.64,-24.95924,71.4175
