Frequency,Impedance,Phase Angle,Temperature (Dry Bath)
10.0,132796.2,-10.04642,70.7398
21.544346900318832,124073.2,-7.576749,70.7402
46.41588833612777,117872.6,-7.443159,70.7375
100.0,105568.8,6.694695,70.7453
215.44346900318823,107261.7,-4.25583,70.7236
464.15888336127773,109476.1,-10.7755,70.7407
1000.0,106726.5,-6.225315,70.759
2154.4346900318824,93187.54,-19.39064,70.7701
4641.588833612777,74801.59,-45.57617,70.7542
10000.0,48233.58,-63.99366,70.7438
