Frequency,Impedance,Phase Angle,Temperature (Dry Bath)
10.0,4156031.0,-9.047077,71.5013
21.544346900318832,4025828.0,-11.89647,71.4844
46.41588833612777,5120224.0,-15.02821,71.4902
100.0,538401.5,24.51745,71.497
215.44346900318823,1264123.0,-13.36672,71.5126
464.15888336127773,927503.3,-70.96698,71.5182
1000.0,2520313.0,-32.29213,71.5052
2154.4346900318824,405586.3,-72.37355,71.5147
4641.588833612777,237968.5,-103.8162,71.4994
10000.0,119322.7,-82.14477,71.5029
