Frequency,Impedance,Phase Angle,Temperature (Dry Bath)
10.0,5089293.0,7.030161,72.2263
21.544346900318832,5013470.0,-2.84687,72.2423
46.41588833612777,7637843.0,-24.92303,72.2314
100.0,745568.6,9.599889,72.2365
215.44346900318823,429236.1,111.1795,72.2429
464.15888336127773,500578.4,-148.5592,72.2372
1000.0,272209.2,-37.49426,72.2521
2154.4346900318824,349003.0,-40.62062,72.2495
4641.588833612777,133305.0,-92.33841,72.2401
10000.0,155956.5,-79.0869,72.2487
