Frequency,Impedance,Phase Angle,Temperature (Dry Bath)
10.0,4253657.0,-22.21598,70.9248
21.544346900318832,4037767.0,3.861465,70.916
46.41588833612777,4295744.0,-9.552307,70.9128
100.0,1480888.0,-61.06242,70.9026
215.44346900318823,542877.9,-50.21722,70.9117
464.15888336127773,635432.3,-148.1017,70.9062
1000.0,836790.8,-135.5141,70.9227
2154.4346900318824,288002.5,-63.00079,70.9107
4641.588833612777,129382.6,-87.07736,70.9232
10000.0,57372.62,-92.13252,70.9204
