Frequency,Impedance,Phase Angle,Temperature (Dry Bath)
10.0,5425852.0,2.67735,71.1678
21.544346900318832,4949079.0,-31.672,71.1599
46.41588833612777,4933779.0,-39.19001,71.1577
100.0,366536.9,18.29503,71.1491
215.44346900318823,765569.2,144.9434,71.1595
464.15888336127773,567784.3,-98.03549,71.1589
1000.0,268957.1,-100.5025,71.1681
2154.4346900318824,190707.5,-73.89048,71.1526
4641.588833612777,139439.3,-85.20265,71.1686
10000.0,60358.09,-88.75759,71.1793
