Frequency,Impedance,Phase Angle,Temperature (Dry Bath)
10.0,8467084.0,-19.07811,71.5053
21.544346900318832,5789916.0,-11.92055,71.5198
46.41588833612777,4506741.0,5.998831,71.5035
100.0,1214706.0,-38.68374,71.507
215.44346900318823,1006515.0,6.590374,71.5122
464.15888336127773,956478.1,90.89109,71.5159
1000.0,1273863.0,81.12425,71.5258
2154.4346900318824,534926.5,-74.91951,71.5144
4641.588833612777,259539.2,-95.23967,71.5194
10000.0,164786.8,-91.44408,71.53
