Frequency,Impedance,Phase Angle,Temperature (Dry Bath)
10.0,11131750.0,5.860903,71.3071
21.544346900318832,6205608.0,-4.39612,71.3101
46.41588833612777,3395975.0,4.620898,71.3053
100.0,1916513.0,-155.5794,71.3015
215.44346900318823,24258.74,-30.25392,71.2955
464.15888336127773,404678.5,-66.84801,71.289
1000.0,305689.1,-130.4757,71.2729
2154.4346900318824,259021.3,-85.59985,71.2956
4641.588833612777,130925.4,-76.46236,71.2988
10000.0,54081.5,-87.85493,71.2886
