Frequency,Impedance,Phase Angle,Temperature (Dry Bath)
10.0,6149503.0,-15.66437,71.4757
21.544346900318832,5026342.0,-33.22629,71.4886
46.41588833612777,4425821.0,-17.56602,71.4823
100.0,1737471.0,-51.46946,71.4829
215.44346900318823,574519.7,-80.13887,71.4895
464.15888336127773,7740096.0,118.3745,71.4719
1000.0,590152.7,-109.7994,71.4779
2154.4346900318824,394808.2,-60.32089,71.4794
4641.588833612777,195841.4,-79.24977,71.4802
10000.0,109622.6,-88.35356,71.4838
