Frequency,Impedance,Phase Angle,Temperature (Dry Bath)
10.0,18548.62,-18.27263,71.388
21.544346900318832,16113.19,-17.05307,71.3991
46.41588833612777,14097.99,-16.52215,71.3949
100.0,12398.48,-16.73909,71.39
215.44346900318823,10923.02,-13.72211,71.3957
464.15888336127773,9762.167,-14.18729,71.3858
1000.0,8641.995,-12.28332,71.3946
2154.4346900318824,7903.689,-10.71143,71.3915
4641.588833612777,7253.57,-9.581767,71.3962
10000.0,6747.265,-10.51726,71.3976
