Frequency,Impedance,Phase Angle,Temperature (Dry Bath)
10.0,3904412.0,-28.15101,71.1265
21.544346900318832,4133146.0,-22.80806,71.126
46.41588833612777,5367628.0,-23.9,71.1337
100.0,624475.6,-13.99431,71.1282
215.44346900318823,911237.6,166.441,71.1501
464.15888336127773,1230025.0,-134.0696,71.13
1000.0,1215645.0,-154.0703,71.1466
2154.4346900318824,685477.5,-86.39005,71.1552
4641.588833612777,238321.2,-74.31008,71.1483
10000.0,113753.9,-83.49332,71.1448
