Frequency,Impedance,Phase Angle,Temperature (Dry Bath)
10.0,4512930.0,0.1235906,70.9588
21.544346900318832,4284992.0,-30.92842,70.9508
46.41588833612777,2901579.0,-20.91803,70.9515
100.0,481760.9,-69.78093,70.9756
215.44346900318823,1141447.0,40.44442,70.9555
464.15888336127773,560791.5,-26.50044,70.9547
1000.0,364770.0,-105.0716,70.9703
2154.4346900318824,448495.2,-76.4504,70.96
4641.588833612777,130932.2,-93.53016,70.968
10000.0,59811.73,-84.45929,70.9688
