Frequency,Impedance,Phase Angle,Temperature (Dry Bath)
10.0,5897667.0,-28.70275,70.8842
21.544346900318832,5244109.0,-7.009775,70.8749
46.41588833612777,4400790.0,-35.95793,70.9001
100.0,1128637.0,-87.00701,70.8736
215.44346900318823,870983.4,-81.34816,70.9107
464.15888336127773,605444.3,-105.0014,70.881
1000.0,461912.1,-89.81416,70.8919
2154.4346900318824,229861.6,-88.0916,70.8758
4641.588833612777,115394.8,-76.03,70.9096
10000.0,54121.66,-86.01265,70.895
