Frequency,Impedance,Phase Angle,Temperature (Dry Bath)
10.0,3017083.0,-15.26739,71.2812
21.544346900318832,4096898.0,-1.431338,71.291
46.41588833612777,4793337.0,-32.27341,71.2763
100.0,366331.7,-18.43124,71.2781
215.44346900318823,1141494.0,68.64025,71.2899
464.15888336127773,1595711.0,-26.37756,71.2704
1000.0,484943.3,-78.22513,71.2775
2154.4346900318824,489479.0,-120.5496,71.2764
4641.588833612777,169226.7,-82.83333,71.2839
10000.0,70025.84,-81.09112,71.2768
