Frequency,Impedance,Phase Angle,Temperature (Dry Bath)
10.0,710348.7,-9.954958,72.1803
21.544346900318832,719070.6,-9.88191,72.1842
46.41588833612777,650363.7,-10.34653,72.1966
100.0,308151.0,17.47926,72.1913
215.44346900318823,588981.7,-47.9158,72.1852
464.15888336127773,705575.1,-46.75162,72.2163
1000.0,252147.7,-15.58834,72.1815
2154.4346900318824,240137.3,-18.44002,72.2054
4641.588833612777,186177.9,-27.72234,72.202
10000.0,110492.2,-66.24553,72.2025
