Frequency,Impedance,Phase Angle,Temperature (Dry Bath)
10.0,5839284.0,3.05561,71.0677
21.544346900318832,5055650.0,15.8432,71.0545
46.41588833612777,4339870.0,-40.22896,71.0556
100.0,542160.9,29.54057,71.0705
215.44346900318823,442932.8,-87.10802,71.0581
464.15888336127773,1240411.0,127.6346,71.0598
1000.0,337670.6,-73.59824,71.0625
2154.4346900318824,257747.9,-81.98171,71.0629
4641.588833612777,130102.0,-81.87759,71.0644
10000.0,59821.94,-83.10323,71.0647
