Frequency,Impedance,Phase Angle,Temperature (Dry Bath)
10.0,5570007.0,-5.371066,71.5105
21.544346900318832,4223650.0,-1.285311,71.5009
46.41588833612777,5993111.0,-24.50837,71.5046
100.0,1123854.0,102.0312,71.5085
215.44346900318823,922024.0,-39.93937,71.5061
464.15888336127773,553868.6,-100.7447,71.5117
1000.0,2847921.0,-139.7519,71.522
2154.4346900318824,403100.6,-134.3852,71.5363
4641.588833612777,195216.1,-82.08271,71.5222
10000.0,138027.1,-93.85264,71.5269
