Frequency,Impedance,Phase Angle,Temperature (Dry Bath)
10.0,3471427.0,-15.03781,71.1362
21.544346900318832,4912739.0,-27.94238,71.1059
46.41588833612777,3777670.0,-19.89207,71.1155
100.0,542358.9,-132.9114,71.1418
215.44346900318823,952978.5,-13.81057,71.1261
464.15888336127773,765747.4,-140.5731,71.113
1000.0,583217.4,-62.14223,71.1346
2154.4346900318824,229082.1,-85.58877,71.1158
4641.588833612777,119536.3,-76.31174,71.1055
10000.0,58723.36,-90.88958,71.1277
