Frequency,Impedance,Phase Angle,Temperature (Dry Bath)
10.0,5090782.0,-19.13115,71.1392
21.544346900318832,3643291.0,8.184998,71.1531
46.41588833612777,4016696.0,-16.70006,71.1509
100.0,508260.2,-111.7488,71.1324
215.44346900318823,721424.8,-82.1672,71.1366
464.15888336127773,547896.3,106.5755,71.1416
1000.0,650692.1,-22.43052,71.1477
2154.4346900318824,282448.2,-67.15102,71.1381
4641.588833612777,136411.0,-85.20443,71.1491
10000.0,62806.73,-85.08733,71.1413
