Frequency,Impedance,Phase Angle,Temperature (Dry Bath)
10.0,7304.145,-36.68871,71.2254
21.544346900318832,5468.445,-32.47699,71.2239
46.41588833612777,4248.96,-28.34554,71.2189
100.0,3426.393,-24.10955,71.2213
215.44346900318823,2849.006,-20.15941,71.2163
464.15888336127773,2453.806,-16.83823,71.2229
1000.0,2171.129,-13.97353,71.2213
2154.4346900318824,1969.416,-11.36024,71.2156
4641.588833612777,1809.147,-9.551881,71.2272
10000.0,1695.311,-9.158713,71.2219
