Frequency,Impedance,Phase Angle,Temperature (Dry Bath)
10.0,4997434.0,-25.37457,70.7479
21.544346900318832,5719651.0,11.75787,70.7433
46.41588833612777,4695924.0,-28.50313,70.758
100.0,685464.6,127.3618,70.7355
215.44346900318823,927509.1,-140.5865,70.756
464.15888336127773,595368.7,-76.50682,70.7539
1000.0,186709.7,-95.82133,70.7335
2154.4346900318824,232598.4,-104.4741,70.7586
4641.588833612777,123710.0,-93.34652,70.7485
10000.0,51798.12,-83.3853,70.7329
