Frequency,Impedance,Phase Angle,Temperature (Dry Bath)
10.0,170849.4,-13.30589,71.155
21.544346900318832,153395.4,-11.94128,71.1449
46.41588833612777,139467.7,-11.7101,71.1479
100.0,106746.0,1.843037,71.1399
215.44346900318823,116197.9,-20.01286,71.1434
464.15888336127773,107079.5,-16.07359,71.1429
1000.0,87162.28,-22.8385,71.1403
2154.4346900318824,77465.19,-27.83044,71.1378
4641.588833612777,73110.3,-37.59131,71.1523
10000.0,49321.98,-52.71539,71.1479
