Frequency,Impedance,Phase Angle,Temperature (Dry Bath)
10.0,25271.2,-18.93779,71.4196
21.544346900318832,21805.26,-17.71746,71.4205
46.41588833612777,18905.9,-17.24417,71.4274
100.0,16815.69,-16.56584,71.4284
215.44346900318823,14524.9,-15.45562,71.4365
464.15888336127773,12682.71,-13.8514,71.4323
1000.0,11548.22,-12.5982,71.4187
2154.4346900318824,10499.25,-10.29063,71.4168
4641.588833612777,9617.114,-11.32564,71.4434
10000.0,9139.318,-10.36014,71.4083
