Frequency,Impedance,Phase Angle,Temperature (Dry Bath)
10.0,3893397.0,-17.45912,71.3316
21.544346900318832,5306111.0,6.389867,71.3149
46.41588833612777,4765387.0,-3.337927,71.3235
100.0,1055234.0,87.67582,71.3196
215.44346900318823,1348866.0,-174.8678,71.3289
464.15888336127773,747420.8,-30.75624,71.3187
1000.0,393359.0,-56.83117,71.329
2154.4346900318824,197834.7,-81.60239,71.3109
4641.588833612777,191690.2,-95.64371,71.3187
10000.0,127155.3,-90.24774,71.3243
