Frequency,Impedance,Phase Angle,Temperature (Dry Bath)
10.0,5809931.0,-35.84574,71.0365
21.544346900318832,4718287.0,-2.346016,71.0532
46.41588833612777,10624880.0,-21.7017,71.049
100.0,456623.1,-2.069494,71.0529
215.44346900318823,1506666.0,-38.55073,71.0579
464.15888336127773,4138106.0,-17.41575,71.0459
1000.0,670993.5,-123.281,71.0504
2154.4346900318824,402312.4,-101.1664,71.0486
4641.588833612777,180560.0,-92.40959,71.0396
10000.0,66577.5,-84.47178,71.0511
