Frequency,Impedance,Phase Angle,Temperature (Dry Bath)
10.0,4216755.0,-5.86225,72.1979
21.544346900318832,14090600.0,-12.0926,72.1893
46.41588833612777,4489129.0,-15.36955,72.1966
100.0,288036.3,14.77602,72.1887
215.44346900318823,403791.7,12.58931,72.1836
464.15888336127773,643665.0,5.011998,72.1999
1000.0,667830.7,107.2036,72.1832
2154.4346900318824,160834.5,-92.54229,72.1965
4641.588833612777,213576.9,-77.52033,72.1979
10000.0,121765.8,-66.54625,72.1946
