Frequency,Impedance,Phase Angle,Temperature (Dry Bath)
10.0,56401.72,-17.92987,70.4211
21.544346900318832,49320.21,-16.80794,70.4263
46.41588833612777,43318.62,-15.33261,70.4334
100.0,40613.38,-9.54122,70.4184
215.44346900318823,35098.46,-10.6616,70.4287
464.15888336127773,30735.23,-9.47345,70.4312
1000.0,27853.78,-13.04878,70.4322
2154.4346900318824,26262.65,-11.85078,70.4429
4641.588833612777,24156.91,-19.5543,70.4449
10000.0,20332.24,-24.86858,70.4265
