Frequency,Impedance,Phase Angle,Temperature (Dry Bath)
10.0,77545.15,-14.65777,71.7172
21.544346900318832,69387.67,-13.31386,71.719
46.41588833612777,61810.26,-12.82189,71.7153
100.0,53905.03,-8.8528,71.7103
215.44346900318823,52362.66,-9.837701,71.7133
464.15888336127773,47207.95,-11.50845,71.7163
1000.0,45659.54,-11.76632,71.7166
2154.4346900318824,40491.25,-4.731191,71.7274
4641.588833612777,36286.76,-17.24114,71.7179
10000.0,34499.98,-19.58006,71.7081
