Frequency,Impedance,Phase Angle,Temperature (Dry Bath)
10.0,6031595.0,-3.599656,71.3572
21.544346900318832,7063850.0,8.465997,71.3467
46.41588833612777,4429199.0,-14.19504,71.357
100.0,1708415.0,-88.9054,71.3487
215.44346900318823,1148493.0,10.24454,71.3321
464.15888336127773,1029744.0,-110.412,71.3415
1000.0,741940.1,153.5832,71.3404
2154.4346900318824,301374.5,-157.2901,71.3544
4641.588833612777,559334.4,-99.15687,71.3342
10000.0,138130.1,-79.4828,71.3522
