Frequency,Impedance,Phase Angle,Temperature (Dry Bath)
10.0,6798411.0,-14.1658,71.4434
21.544346900318832,4767667.0,-21.92373,71.4516
46.41588833612777,5207321.0,-23.03762,71.4375
100.0,285206.9,-70.83476,71.4358
215.44346900318823,596621.5,132.4688,71.4223
464.15888336127773,374783.8,-59.3669,71.4326
1000.0,516524.2,-90.78298,71.4364
2154.4346900318824,248413.1,-89.18436,71.4348
4641.588833612777,129695.5,-89.14527,71.4317
10000.0,66480.97,-85.60767,71.4198
