Frequency,Impedance,Phase Angle,Temperature (Dry Bath)
10.0,4569829.0,-20.32561,71.4011
21.544346900318832,4252135.0,-24.4836,71.4107
46.41588833612777,5154182.0,-16.31205,71.4115
100.0,648906.8,-57.34934,71.4008
215.44346900318823,1090181.0,-9.539463,71.3967
464.15888336127773,558250.0,-84.55774,71.4077
1000.0,508047.0,-57.27502,71.4042
2154.4346900318824,237648.4,-72.45075,71.4073
4641.588833612777,147218.4,-89.78369,71.411
10000.0,57359.09,-84.01481,71.3995
