Frequency,Impedance,Phase Angle,Temperature (Dry Bath)
10.0,5887494.0,-8.088727,71.1165
21.544346900318832,4885379.0,-33.33087,71.1006
46.41588833612777,5899141.0,-16.45007,71.1016
100.0,781164.0,178.6633,71.1072
215.44346900318823,651043.8,169.0566,71.1035
464.15888336127773,3698349.0,0.3301302,71.1142
1000.0,201156.9,10.08882,71.1111
2154.4346900318824,334961.8,-55.7529,71.1118
4641.588833612777,222756.3,-72.21849,71.0949
10000.0,117379.7,-79.0866,71.1077
