Frequency,Impedance,Phase Angle,Temperature (Dry Bath)
10.0,70247.18,-11.08303,71.2001
21.544346900318832,65490.6,-9.017093,71.1732
46.41588833612777,61198.79,-8.114866,71.1973
100.0,56292.98,-10.33838,71.1916
215.44346900318823,56544.34,-7.878229,71.2142
464.15888336127773,56078.73,-0.8818217,71.2022
1000.0,47845.9,-7.408233,71.2291
2154.4346900318824,48412.21,-4.526971,71.2104
4641.588833612777,42044.31,-15.25029,71.2108
10000.0,45188.72,-22.78113,71.2135
