Frequency,Impedance,Phase Angle,Temperature (Dry Bath)
10.0,736561.4,-28.8099,71.3803
21.544346900318832,545699.8,-25.17313,71.3753
46.41588833612777,444081.8,-24.79411,71.3852
100.0,504318.2,9.409121,71.391
215.44346900318823,376265.9,-58.74039,71.3935
464.15888336127773,303213.5,-33.55128,71.3672
1000.0,165479.6,-16.83849,71.3881
2154.4346900318824,150884.1,-38.62811,71.3733
4641.588833612777,99491.84,-49.66558,71.3821
10000.0,50226.51,-72.13284,71.3976
