Frequency,Impedance,Phase Angle,Temperature (Dry Bath)
10.0,4025161.0,26.02401,71.3196
21.544346900318832,6041893.0,6.383487,71.3069
46.41588833612777,6383405.0,-7.139349,71.3077
100.0,733030.2,-98.73332,71.3207
215.44346900318823,2147572.0,-2.693026,71.3136
464.15888336127773,340520.1,31.93642,71.2918
1000.0,201477.7,178.4946,71.2977
2154.4346900318824,650740.2,-45.98974,71.303
4641.588833612777,234970.5,-101.7128,71.3041
10000.0,130146.6,-73.3961,71.3067
