Frequency,Impedance,Phase Angle,Temperature (Dry Bath)
10.0,6070115.0,-57.38481,71.2154
21.544346900318832,3521837.0,-18.88659,71.2195
46.41588833612777,4090908.0,-14.03437,71.2188
100.0,1039758.0,-94.17178,71.2139
215.44346900318823,501187.6,95.02198,71.2172
464.15888336127773,375230.5,-92.35226,71.2242
1000.0,477225.3,-31.00742,71.2107
2154.4346900318824,592779.8,-112.1419,71.2265
4641.588833612777,393436.5,-40.02056,71.211
10000.0,179820.9,-90.80895,71.2221
