Frequency,Impedance,Phase Angle,Temperature (Dry Bath)
10.0,24505.38,-20.21817,71.2744
21.544346900318832,20909.13,-17.76025,71.2662
46.41588833612777,18178.15,-15.66249,71.2573
100.0,16845.69,-14.09203,71.2581
215.44346900318823,14721.66,-12.88072,71.2806
464.15888336127773,13354.95,-10.05215,71.2697
1000.0,12323.73,-9.091693,71.2675
2154.4346900318824,11469.55,-8.3738,71.2719
4641.588833612777,11017.67,-12.29152,71.2643
10000.0,9954.637,-16.23802,71.2751
