Frequency,Impedance,Phase Angle,Temperature (Dry Bath)
10.0,59308.46,-16.02068,70.7892
21.544346900318832,53113.45,-14.74184,70.7959
46.41588833612777,46967.37,-13.32284,70.805
100.0,39228.2,-9.403876,70.7846
215.44346900318823,39362.82,-8.479026,70.8096
464.15888336127773,35152.13,-12.75713,70.812
1000.0,31080.42,-11.095,70.8099
2154.4346900318824,30281.35,-13.4416,70.8015
4641.588833612777,27598.83,-21.08976,70.8069
10000.0,24259.75,-30.14211,70.8219
