Frequency,Impedance,Phase Angle,Temperature (Dry Bath)
10.0,3801737.0,-3.98227,71.1301
21.544346900318832,3329173.0,12.51129,71.1412
46.41588833612777,3762130.0,-17.72542,71.1423
100.0,404231.7,21.8521,71.1456
215.44346900318823,470748.4,-118.0831,71.1436
464.15888336127773,573778.4,-88.56968,71.1298
1000.0,485523.4,-109.8522,71.1221
2154.4346900318824,223712.9,-76.42888,71.1334
4641.588833612777,106066.9,-87.33444,71.1299
10000.0,49269.69,-87.86865,71.1316
