Frequency,Impedance,Phase Angle,Temperature (Dry Bath)
10.0,4102603.0,-5.947747,71.2553
21.544346900318832,6205338.0,-32.92324,71.2546
46.41588833612777,4269200.0,-34.23989,71.2655
100.0,463439.8,-49.45964,71.2467
215.44346900318823,209970.0,149.1986,71.2527
464.15888336127773,2404424.0,-18.23766,71.2572
1000.0,373035.4,-58.79945,71.2552
2154.4346900318824,309733.0,-76.13255,71.2502
4641.588833612777,147119.2,-77.65912,71.244
10000.0,70807.3,-79.42903,71.2409
