Frequency,Impedance,Phase Angle,Temperature (Dry Bath)
10.0,637396.1,-27.73936,71.3371
21.544346900318832,495106.7,-26.19623,71.3357
46.41588833612777,399407.8,-25.55555,71.3282
100.0,285790.9,-31.27107,71.3323
215.44346900318823,215339.4,-57.20659,71.3447
464.15888336127773,241465.2,-24.81016,71.3315
1000.0,183111.3,-43.1126,71.3351
2154.4346900318824,103594.1,-56.53454,71.34
4641.588833612777,63819.71,-63.97713,71.3449
10000.0,34252.89,-75.29597,71.3311
