Frequency,Impedance,Phase Angle,Temperature (Dry Bath)
10.0,13059.71,-28.23718,71.0798
21.544346900318832,10388.63,-25.40447,71.0682
46.41588833612777,8477.427,-22.41921,71.0699
100.0,7145.365,-19.79757,71.0785
215.44346900318823,6194.488,-16.65159,71.0911
464.15888336127773,5424.554,-14.37743,71.0727
1000.0,4879.0,-12.4319,71.0712
2154.4346900318824,4419.67,-11.56616,71.0757
4641.588833612777,4011.174,-11.29122,71.0729
10000.0,3725.404,-12.49166,71.0799
