Frequency,Impedance,Phase Angle,Temperature (Dry Bath)
10.0,6801873.0,-2.877667,71.2666
21.544346900318832,6182347.0,23.0747,71.2494
46.41588833612777,5308475.0,-25.46754,71.264
100.0,365708.0,-168.3662,71.27
215.44346900318823,1402485.0,-20.67261,71.2816
464.15888336127773,325160.8,47.17295,71.2721
1000.0,142724.4,-46.07191,71.2603
2154.4346900318824,370731.0,-122.3763,71.259
4641.588833612777,624386.9,-110.8441,71.2536
10000.0,96508.83,-84.09022,71.2673
