Frequency,Impedance,Phase Angle,Temperature (Dry Bath)
10.0,8787641.0,-27.88848,71.1658
21.544346900318832,6219663.0,-5.31586,71.1759
46.41588833612777,3988186.0,-31.78766,71.1723
100.0,387609.3,-20.39293,71.193
215.44346900318823,860851.5,-66.80105,71.194
464.15888336127773,1531140.0,-147.0485,71.1779
1000.0,1132570.0,-25.89942,71.1689
2154.4346900318824,421897.4,-132.5928,71.1667
4641.588833612777,176121.8,-102.5003,71.162
10000.0,75676.08,-86.97325,71.1884
