Frequency,Impedance,Phase Angle,Temperature (Dry Bath)
10.0,5677104.0,0.6176005,71.393
21.544346900318832,3523157.0,-16.70332,71.4127
46.41588833612777,4906528.0,-22.69016,71.395
100.0,350084.8,52.29858,71.4263
215.44346900318823,28115.38,-130.1822,71.4147
464.15888336127773,517603.8,-19.18634,71.4138
1000.0,307007.0,-108.9944,71.4284
2154.4346900318824,269637.0,-87.86988,71.4091
4641.588833612777,157034.1,-91.33005,71.3955
10000.0,67325.07,-81.16224,71.4324
