Frequency,Impedance,Phase Angle,Temperature (Dry Bath)
10.0,81877.95,-36.64654,71.3216
21.544346900318832,60609.34,-32.66346,71.3202
46.41588833612777,46983.39,-29.15002,71.3198
100.0,36346.01,-23.68705,71.3206
215.44346900318823,21370.02,-15.94366,71.3134
464.15888336127773,27132.81,-14.86415,71.2964
1000.0,23490.24,-18.21771,71.3077
2154.4346900318824,21066.22,-16.63112,71.3023
4641.588833612777,19215.92,-17.82456,71.3017
10000.0,16585.46,-22.28809,71.3121
