Frequency,Impedance,Phase Angle,Temperature (Dry Bath)
10.0,6012446.0,-9.968994,71.5365
21.544346900318832,5984510.0,-34.69254,71.5502
46.41588833612777,7084152.0,-15.03929,71.5483
100.0,3359087.0,69.0376,71.5384
215.44346900318823,1844581.0,26.57252,71.5369
464.15888336127773,492540.7,32.6396,71.5378
1000.0,635372.2,-46.35184,71.5579
2154.4346900318824,3691204.0,26.46856,71.534
4641.588833612777,425418.1,-104.0242,71.5444
10000.0,156129.3,-76.76768,71.5503
