Frequency,Impedance,Phase Angle,Temperature (Dry Bath)
10.0,27824.6,-23.22024,25.8964
21.544346900318832,22958.51,-22.77016,26.1665
46.41588833612777,18988.26,-22.45145,26.1458
100.0,15755.06,-21.85675,26.2422
215.44346900318823,13261.35,-21.76667,26.194
464.15888336127773,10817.42,-21.69485,25.2013
1000.0,9177.262,-22.16294,25.0986
2154.4346900318824,7559.816,-21.93837,25.4717
4641.588833612777,6243.908,-21.14973,25.4876
10000.0,5225.032,-19.82372,25.5061
