Frequency,Impedance,Phase Angle,Temperature (Dry Bath)
10.0,43418.69,-30.70125,71.1479
21.544346900318832,33514.73,-29.4636,71.156
46.41588833612777,26179.62,-27.72752,71.181
100.0,20891.42,-26.58824,71.1696
215.44346900318823,16850.97,-23.23683,71.1658
464.15888336127773,14165.6,-19.9303,71.1754
1000.0,12440.78,-17.28774,71.1848
2154.4346900318824,10683.95,-18.14372,71.1991
4641.588833612777,9562.257,-16.14952,71.1912
10000.0,8613.107,-17.2565,71.1796
