Frequency,Impedance,Phase Angle,Temperature (Dry Bath)
10.0,6533477.0,-6.918584,71.4843
21.544346900318832,4463248.0,20.90219,71.4715
46.41588833612777,4626641.0,-21.76225,71.4631
100.0,304842.3,5.052009,71.4649
215.44346900318823,1122272.0,-6.6588,71.4497
464.15888336127773,1685734.0,-63.244,71.4875
1000.0,973252.5,3.854627,71.4962
2154.4346900318824,1553059.0,5.461524,71.4752
4641.588833612777,316682.5,-83.90567,71.4748
10000.0,204273.4,-83.0577,71.4671
