Frequency,Impedance,Phase Angle,Temperature (Dry Bath)
10.0,138652.0,-18.74747,71.4207
21.544346900318832,117587.2,-17.10059,71.4207
46.41588833612777,102109.9,-16.06682,71.4173
100.0,72705.02,-36.61539,71.4284
215.44346900318823,14194.58,5.374132,71.4241
464.15888336127773,71314.74,-18.71209,71.4219
1000.0,70177.34,-16.52954,71.422
2154.4346900318824,51649.43,-23.88757,71.4156
4641.588833612777,45036.11,-33.8762,71.4149
10000.0,32193.14,-45.21448,71.4065
