Frequency,Impedance,Phase Angle,Temperature (Dry Bath)
10.0,7788355.0,2.712402,71.4089
21.544346900318832,4696785.0,-2.261399,71.4258
46.41588833612777,7919262.0,-2.207289,71.4218
100.0,1192054.0,-10.76545,71.4038
215.44346900318823,26142.75,-82.98224,71.4194
464.15888336127773,509990.3,-107.2605,71.4021
1000.0,275343.8,-49.00308,71.4075
2154.4346900318824,361414.5,-69.65913,71.4151
4641.588833612777,130258.3,-84.71622,71.4331
10000.0,70649.62,-75.56157,71.4291
