Frequency,Impedance,Phase Angle,Temperature (Dry Bath)
10.0,18827.16,-22.48993,71.5204
21.544346900318832,15606.1,-21.48732,71.5302
46.41588833612777,13019.42,-20.14382,71.5339
100.0,10984.0,-18.9343,71.5305
215.44346900318823,9655.423,-15.52708,71.5241
464.15888336127773,8494.419,-14.10904,71.521
1000.0,7630.26,-11.67837,71.5158
2154.4346900318824,6993.978,-10.31535,71.5151
4641.588833612777,6514.763,-10.28634,71.523
10000.0,6098.809,-11.14486,71.5044
