Frequency,Impedance,Phase Angle,Temperature (Dry Bath)
10.0,295831.0,-7.029699,70.8571
21.544346900318832,286326.5,-6.983407,70.8702
46.41588833612777,269789.3,-7.044568,70.8713
100.0,213425.6,-33.41601,70.8637
215.44346900318823,408026.9,-2.809881,70.8661
464.15888336127773,216610.5,-0.5474173,70.852
1000.0,217619.9,-13.56913,70.8508
2154.4346900318824,134302.2,-40.31738,70.8565
4641.588833612777,102619.7,-60.28271,70.864
10000.0,68497.04,-69.48351,70.8647
