Frequency,Impedance,Phase Angle,Temperature (Dry Bath)
10.0,4011254.0,0.8801627,71.4703
21.544346900318832,5767953.0,-25.83114,71.4631
46.41588833612777,4651346.0,-6.910129,71.4738
100.0,2251562.0,55.91914,71.4714
215.44346900318823,1301530.0,-32.99169,71.475
464.15888336127773,1204010.0,49.55683,71.4875
1000.0,882054.7,-85.09376,71.4824
2154.4346900318824,415718.9,-44.12408,71.4849
4641.588833612777,326408.2,-75.29995,71.4721
10000.0,123206.1,-83.44126,71.4773
