Frequency,Impedance,Phase Angle,Temperature (Dry Bath)
10.0,7376471.0,-1.820522,71.2336
21.544346900318832,5301158.0,-3.555364,71.2309
46.41588833612777,3968779.0,-31.8468,71.2298
100.0,630287.1,42.13302,71.2321
215.44346900318823,807953.2,142.3455,71.2322
464.15888336127773,469362.3,-80.40645,71.2326
1000.0,343584.4,-70.35613,71.2389
2154.4346900318824,229685.8,-89.35059,71.2247
4641.588833612777,134062.2,-88.12984,71.2247
10000.0,59555.51,-86.9096,71.236
