Frequency,Impedance,Phase Angle,Temperature (Dry Bath)
10.0,4313707.0,4.720774,71.8484
21.544346900318832,6495125.0,25.55882,71.8452
46.41588833612777,5232182.0,-22.81644,71.8515
100.0,439722.9,-29.61975,71.8574
215.44346900318823,571304.3,-113.4606,71.852
464.15888336127773,1016875.0,-12.91881,71.8488
1000.0,411555.0,-35.51721,71.8535
2154.4346900318824,290473.0,-81.18245,71.8555
4641.588833612777,364753.0,8.12726,71.8542
10000.0,162119.3,-77.23316,71.8548
