Frequency,Impedance,Phase Angle,Temperature (Dry Bath)
10.0,3944313.0,3.246478,70.8557
21.544346900318832,3456778.0,-16.35157,70.8259
46.41588833612777,6139669.0,-19.36056,70.8416
100.0,816966.8,-12.62957,70.8382
215.44346900318823,1297703.0,-77.37404,70.8567
464.15888336127773,767818.6,-14.58431,70.836
1000.0,363883.5,-103.1919,70.8482
2154.4346900318824,238719.1,-85.48023,70.8573
4641.588833612777,136197.1,-86.36,70.8503
10000.0,59234.3,-97.47229,70.8455
