Frequency,Impedance,Phase Angle,Temperature (Dry Bath)
10.0,7634733.0,26.54834,71.2699
21.544346900318832,5535871.0,-18.77394,71.2642
46.41588833612777,7310431.0,-29.23583,71.283
100.0,1839075.0,140.3323,71.2915
215.44346900318823,56238.72,-72.09777,71.2867
464.15888336127773,695822.4,-88.94675,71.2872
1000.0,192567.4,-57.29933,71.2853
2154.4346900318824,248603.1,-97.26496,71.2792
4641.588833612777,115097.5,-100.142,71.2773
10000.0,63024.54,-90.04288,71.2656
