Frequency,Impedance,Phase Angle,Temperature (Dry Bath)
10.0,11076.16,-25.66364,71.5069
21.544346900318832,9053.613,-22.69706,71.4977
46.41588833612777,7566.524,-19.9517,71.4914
100.0,6454.017,-17.0759,71.4817
215.44346900318823,5701.439,-15.05483,71.4833
464.15888336127773,5023.036,-13.58071,71.4949
1000.0,4580.782,-11.51641,71.479
2154.4346900318824,4208.482,-10.07637,71.4933
4641.588833612777,3935.55,-8.737836,71.4624
10000.0,3707.527,-10.4179,71.4854
