Frequency,Impedance,Phase Angle,Temperature (Dry Bath)
10.0,6215303.0,24.94447,71.2026
21.544346900318832,5508451.0,-13.81323,71.1982
46.41588833612777,3733072.0,-34.55224,71.2046
100.0,1949783.0,179.7185,71.2041
215.44346900318823,660954.2,128.5417,71.2029
464.15888336127773,552369.3,-57.95174,71.2164
1000.0,290753.3,-95.01523,71.1897
2154.4346900318824,291311.8,-77.08207,71.1944
4641.588833612777,120231.2,-85.22487,71.2033
10000.0,59144.62,-86.86404,71.2036
