Frequency,Impedance,Phase Angle,Temperature (Dry Bath)
10.0,4449824.0,1.447555,70.7323
21.544346900318832,6322359.0,-22.85948,70.7099
46.41588833612777,5854806.0,-16.18891,70.7352
100.0,604826.3,56.91476,70.7376
215.44346900318823,493023.9,-120.2319,70.7205
464.15888336127773,5524893.0,-141.9701,70.7144
1000.0,1091424.0,-42.69219,70.7279
2154.4346900318824,269551.3,-80.8284,70.7127
4641.588833612777,152849.5,-94.79142,70.7137
10000.0,63111.51,-90.0565,70.7262
