Frequency,Impedance,Phase Angle,Temperature (Dry Bath)
10.0,158139.5,-15.40355,28.085
21.544346900318832,142159.9,-14.43927,28.1297
46.41588833612777,129374.8,-13.25533,28.0049
100.0,115435.2,-14.05614,28.0708
215.44346900318823,105711.3,-14.48622,28.1676
464.15888336127773,95518.65,-13.81561,28.0801
1000.0,93021.65,-15.78317,28.0998
2154.4346900318824,79948.86,-15.79004,28.0067
4641.588833612777,68482.92,-21.22546,28.2486
10000.0,61701.7,-32.43646,28.1249
