Frequency,Impedance,Phase Angle,Temperature (Dry Bath)
10.0,4728013.0,-0.5537713,70.9619
21.544346900318832,5864216.0,-12.04231,70.9572
46.41588833612777,3483849.0,-32.36503,70.9517
100.0,1718714.0,-13.41999,70.9487
215.44346900318823,885057.0,-53.84824,70.9419
464.15888336127773,253106.5,-73.42996,70.9304
1000.0,160298.3,-73.98995,70.9509
2154.4346900318824,360930.3,-79.88708,70.9531
4641.588833612777,88391.7,-83.89302,70.9378
10000.0,51483.21,-82.17898,70.9384
