Frequency,Impedance,Phase Angle,Temperature (Dry Bath)
10.0,4408812.0,-15.93561,70.8382
21.544346900318832,5039517.0,-35.0605,70.8481
46.41588833612777,4669588.0,-29.70472,70.8427
100.0,422574.2,3.692857,70.8658
215.44346900318823,5342794.0,166.6345,70.8369
464.15888336127773,770907.1,-36.03046,70.8352
1000.0,483563.6,-118.1079,70.8523
2154.4346900318824,309392.5,-102.8695,70.8544
4641.588833612777,127501.3,-76.3077,70.8412
10000.0,57864.47,-81.44257,70.8768
