Frequency,Impedance,Phase Angle,Temperature (Dry Bath)
10.0,7230.726,-36.762,71.1425
21.544346900318832,5407.179,-32.71301,71.114
46.41588833612777,4194.215,-28.62341,71.1232
100.0,3362.088,-24.55934,71.1161
215.44346900318823,2793.815,-20.27346,71.128
464.15888336127773,2404.71,-16.64867,71.1169
1000.0,2121.827,-13.72945,71.118
2154.4346900318824,1917.219,-11.55014,71.1134
4641.588833612777,1768.906,-10.00075,71.1147
10000.0,1652.188,-9.239587,71.1107
