Frequency,Impedance,Phase Angle,Temperature (Dry Bath)
10.0,4517052.0,-29.76241,72.1194
21.544346900318832,5835953.0,-4.835653,72.1262
46.41588833612777,3747855.0,-15.93119,72.1418
100.0,1068129.0,-14.78413,72.1292
215.44346900318823,867466.1,105.2148,72.1285
464.15888336127773,730076.1,-6.735587,72.1219
1000.0,979347.0,-86.96039,72.1257
2154.4346900318824,319683.6,-112.1033,72.1165
4641.588833612777,242559.5,-61.04998,72.0987
10000.0,188395.4,-85.06075,72.0922
