Frequency,Impedance,Phase Angle,Temperature (Dry Bath)
10.0,12186.92,-24.28961,71.5646
21.544346900318832,9898.23,-24.60976,71.5557
46.41588833612777,7972.281,-24.5534,71.5376
100.0,6424.17,-23.59104,71.5476
215.44346900318823,5314.669,-22.30078,71.5362
464.15888336127773,4416.76,-19.45223,71.5575
1000.0,3734.131,-17.17537,71.5352
2154.4346900318824,3266.344,-15.59111,71.5336
4641.588833612777,2919.526,-13.48103,71.5474
10000.0,2629.461,-12.99347,71.5393
