Frequency,Impedance,Phase Angle,Temperature (Dry Bath)
10.0,38325.38,-14.29073,70.7782
21.544346900318832,34745.22,-12.10059,70.7667
46.41588833612777,31978.32,-10.87649,70.7664
100.0,29524.31,-9.057763,70.7827
215.44346900318823,27621.38,-11.5809,70.7628
464.15888336127773,25357.0,-10.40096,70.7727
1000.0,23759.63,-11.85483,70.7664
2154.4346900318824,21073.52,-12.70203,70.7638
4641.588833612777,19900.95,-18.85047,70.7811
10000.0,18088.96,-22.48094,70.7652
