Frequency,Impedance,Phase Angle,Temperature (Dry Bath)
10.0,233412.6,-25.97457,71.2624
21.544346900318832,195222.7,-22.25632,71.2434
46.41588833612777,161550.4,-19.64601,71.2366
100.0,118993.5,-22.22289,71.2605
215.44346900318823,133184.6,-3.274949,71.257
464.15888336127773,94387.42,-17.23347,71.2499
1000.0,109205.8,-33.97074,71.249
2154.4346900318824,71332.63,-30.08196,71.2445
4641.588833612777,68802.09,-44.99771,71.2491
10000.0,36006.9,-52.11731,71.2582
