Frequency,Impedance,Phase Angle,Temperature (Dry Bath)
10.0,167817.0,-13.30541,70.963
21.544346900318832,151539.2,-12.67504,70.9696
46.41588833612777,138851.1,-12.10478,70.9569
100.0,149115.0,-7.379704,70.968
215.44346900318823,106344.6,-12.28011,70.9721
464.15888336127773,92401.16,-9.884562,70.9699
1000.0,91384.17,-19.22716,70.9817
2154.4346900318824,99344.0,-23.59189,70.957
4641.588833612777,62625.44,-37.72717,70.9718
10000.0,51684.1,-54.43894,70.9614
