Frequency,Impedance,Phase Angle,Temperature (Dry Bath)
10.0,7669.406,-35.66318,71.4705
21.544346900318832,5792.53,-31.23021,71.473
46.41588833612777,4544.699,-26.92118,71.4629
100.0,3668.654,-23.10594,71.4727
215.44346900318823,3119.013,-19.14119,71.4663
464.15888336127773,2715.686,-15.8293,71.4714
1000.0,2391.482,-13.03427,71.4834
2154.4346900318824,2185.916,-11.10002,71.4644
4641.588833612777,2022.856,-10.04199,71.4638
10000.0,1896.157,-9.419049,71.4698
