Frequency,Impedance,Phase Angle,Temperature (Dry Bath)
10.0,141910.5,-13.7915,70.9875
21.544346900318832,128703.3,-12.40393,70.9782
46.41588833612777,115838.9,-12.26059,70.9538
100.0,107568.0,-14.09398,70.9786
215.44346900318823,110640.8,-11.36218,70.9972
464.15888336127773,93924.56,-10.97054,70.9834
1000.0,77954.32,-12.4207,70.9666
2154.4346900318824,67034.98,-19.36297,70.9764
4641.588833612777,66370.47,-30.95566,70.9626
10000.0,45603.95,-49.98405,70.9408
