Frequency,Impedance,Phase Angle,Temperature (Dry Bath)
10.0,253392.6,-12.59422,71.3642
21.544346900318832,229204.0,-13.56764,71.3518
46.41588833612777,217715.3,-16.93448,71.3569
100.0,200680.0,-35.74508,71.3648
215.44346900318823,30432.71,84.04279,71.354
464.15888336127773,145938.9,-20.06505,71.3623
1000.0,94853.82,-28.80384,71.3718
2154.4346900318824,117563.2,-39.4984,71.3575
4641.588833612777,89722.16,-50.5358,71.3596
10000.0,51574.1,-56.5355,71.3735
