Frequency,Impedance,Phase Angle,Temperature (Dry Bath)
10.0,4302093.0,-10.8867,71.4826
21.544346900318832,7336307.0,-24.02909,71.4712
46.41588833612777,4711195.0,-14.70845,71.4741
100.0,719172.2,-19.95186,71.4688
215.44346900318823,1169944.0,-15.42595,71.4765
464.15888336127773,644741.3,-67.67575,71.4794
1000.0,1585605.0,70.32362,71.4912
2154.4346900318824,153647.2,-79.9615,71.4732
4641.588833612777,162512.8,-88.89569,71.4912
10000.0,46466.02,-95.4841,71.4858
