Frequency,Impedance,Phase Angle,Temperature (Dry Bath)
10.0,10028300.0,17.35531,70.6801
21.544346900318832,3713419.0,-26.5593,70.6788
46.41588833612777,6870578.0,-33.4904,70.6876
100.0,2147366.0,134.3816,70.6694
215.44346900318823,553570.7,74.80599,70.6749
464.15888336127773,496319.7,-65.49037,70.6776
1000.0,157576.6,-141.737,70.6826
2154.4346900318824,249518.1,-60.79448,70.6711
4641.588833612777,121484.5,-85.22477,70.6663
10000.0,64475.69,-81.28726,70.6889
