Frequency,Impedance,Phase Angle,Temperature (Dry Bath)
10.0,6152143.0,-14.41989,71.0769
21.544346900318832,3842121.0,-7.235459,71.08
46.41588833612777,4919765.0,-9.660832,71.0634
100.0,1516426.0,57.71835,71.0827
215.44346900318823,1660167.0,-167.0827,71.0634
464.15888336127773,590615.1,-129.7393,71.0742
1000.0,293256.4,-106.0752,71.0572
2154.4346900318824,151853.8,-68.22482,71.0693
4641.588833612777,112415.4,-91.61466,71.0577
10000.0,59729.09,-92.35691,71.0617
