Frequency,Impedance,Phase Angle,Temperature (Dry Bath)
10.0,3398086.0,-29.98917,70.8847
21.544346900318832,4056704.0,-23.65366,70.8793
46.41588833612777,3330558.0,-9.400855,70.8869
100.0,1129191.0,-1.949386,70.8865
215.44346900318823,465462.6,-97.93387,70.8828
464.15888336127773,1859806.0,-38.04137,70.8543
1000.0,378176.6,-118.504,70.8758
2154.4346900318824,202918.7,-73.95748,70.8885
4641.588833612777,118374.5,-68.71007,70.881
10000.0,70088.35,-84.13482,70.8913
