Frequency,Impedance,Phase Angle,Temperature (Dry Bath)
10.0,12806.25,-27.61372,70.9074
21.544346900318832,10250.55,-25.08747,70.9153
46.41588833612777,8371.936,-22.4195,70.9032
100.0,7051.708,-20.13452,70.8796
215.44346900318823,6062.18,-17.47124,70.8974
464.15888336127773,5279.169,-14.9327,70.8977
1000.0,4696.711,-13.44035,70.9103
2154.4346900318824,4287.629,-12.34277,70.9022
4641.588833612777,3864.755,-11.74156,70.9112
10000.0,3562.206,-12.38781,70.9097
