Frequency,Impedance,Phase Angle,Temperature (Dry Bath)
10.0,24341.41,-20.96895,71.3154
21.544346900318832,20634.7,-18.24684,71.3197
46.41588833612777,17930.2,-15.41188,71.3212
100.0,15125.98,-14.62431,71.3041
215.44346900318823,9952.174,0.5885936,71.3206
464.15888336127773,13122.9,-9.405962,71.3342
1000.0,12466.59,-9.711625,71.3236
2154.4346900318824,11603.62,-9.20334,71.3198
4641.588833612777,11226.45,-10.55984,71.3362
10000.0,10081.64,-16.40416,71.3279
