Frequency,Impedance,Phase Angle,Temperature (Dry Bath)
10.0,14945.24,-18.3369,71.2831
21.544346900318832,12975.62,-17.01413,71.3007
46.41588833612777,11362.33,-16.63872,71.3117
100.0,9699.301,-16.17649,71.2938
215.44346900318823,8854.125,-14.54868,71.2974
464.15888336127773,7719.862,-14.19777,71.3005
1000.0,6904.012,-11.97961,71.3014
2154.4346900318824,6425.653,-10.99096,71.2952
4641.588833612777,5862.53,-11.04736,71.303
10000.0,5510.521,-10.87915,71.2904
