Frequency,Impedance,Phase Angle,Temperature (Dry Bath)
10.0,6177206.0,25.57667,71.0896
21.544346900318832,5028629.0,8.500278,71.1099
46.41588833612777,5911856.0,-9.869122,71.0946
100.0,1891482.0,-79.48838,71.0943
215.44346900318823,2121804.0,9.765394,71.1194
464.15888336127773,1345296.0,-77.02083,71.0922
1000.0,190276.8,-59.22956,71.1066
2154.4346900318824,343065.9,-118.4145,71.1137
4641.588833612777,137484.5,-56.76684,71.0969
10000.0,143140.4,-98.2689,71.0998
