Frequency,Impedance,Phase Angle,Temperature (Dry Bath)
10.0,4864309.0,15.75823,71.1482
21.544346900318832,5311394.0,-19.16361,71.1467
46.41588833612777,5211008.0,-1.302465,71.1419
100.0,16586490.0,-46.1843,71.1604
215.44346900318823,1319543.0,-93.17235,71.1282
464.15888336127773,1671591.0,-164.8654,71.1397
1000.0,504221.2,-46.10649,71.1438
2154.4346900318824,374018.0,-86.17131,71.1712
4641.588833612777,152509.8,-91.39127,71.1291
10000.0,63004.37,-85.54366,71.1591
