Frequency,Impedance,Phase Angle,Temperature (Dry Bath)
10.0,44858.68,-15.25723,70.5071
21.544346900318832,40504.84,-13.00782,70.507
46.41588833612777,36812.16,-12.02416,70.5034
100.0,32749.96,-9.48138,70.5082
215.44346900318823,29352.41,-10.25762,70.5008
464.15888336127773,29270.78,-10.1733,70.5028
1000.0,25134.38,-12.1023,70.5033
2154.4346900318824,25898.66,-10.76451,70.5153
4641.588833612777,22320.07,-16.64149,70.4934
10000.0,20224.08,-23.62085,70.5149
