Frequency,Impedance,Phase Angle,Temperature (Dry Bath)
10.0,4037279.0,0.432981,71.4059
21.544346900318832,4578165.0,-20.19747,71.4242
46.41588833612777,5674919.0,-24.76622,71.4153
100.0,328809.1,165.8199,71.4078
215.44346900318823,28075.38,129.8319,71.416
464.15888336127773,750495.0,-86.24022,71.4076
1000.0,1244779.0,-35.08961,71.4272
2154.4346900318824,246162.3,-81.9383,71.4202
4641.588833612777,132690.5,-85.40058,71.4227
10000.0,58289.43,-87.58698,71.4223
