Frequency,Impedance,Phase Angle,Temperature (Dry Bath)
10.0,3903214.0,0.9597896,70.8435
21.544346900318832,3997744.0,-4.95328,70.8463
46.41588833612777,4268606.0,-28.31387,70.853
100.0,850038.5,-116.5391,70.8494
215.44346900318823,665569.6,-85.98408,70.8608
464.15888336127773,978871.8,11.15186,70.87
1000.0,434089.0,-42.44195,70.8636
2154.4346900318824,298954.9,-77.82056,70.862
4641.588833612777,109249.3,-85.38429,70.8654
10000.0,68697.34,-87.14199,70.8622
