Frequency,Impedance,Phase Angle,Temperature (Dry Bath)
10.0,238068.4,-17.79116,71.3568
21.544346900318832,208856.4,-16.34786,71.3613
46.41588833612777,184085.8,-17.20462,71.3554
100.0,137337.4,-24.95574,71.3591
215.44346900318823,196748.1,-24.321,71.3625
464.15888336127773,123136.6,-17.61951,71.3496
1000.0,87003.86,-9.653473,71.3456
2154.4346900318824,94072.21,-36.86524,71.3387
4641.588833612777,53537.16,-47.87006,71.3579
10000.0,39403.54,-57.33214,71.3543
