Frequency,Impedance,Phase Angle,Temperature (Dry Bath)
10.0,5355237.0,6.635716,71.3246
21.544346900318832,5806565.0,17.26051,71.3164
46.41588833612777,4567699.0,15.93937,71.3169
100.0,594913.6,-70.447,71.3221
215.44346900318823,17129.29,116.2879,71.3211
464.15888336127773,578655.8,-49.82797,71.3144
1000.0,870440.3,53.05723,71.314
2154.4346900318824,209981.8,-80.96411,71.3032
4641.588833612777,104074.3,-84.80263,71.3223
10000.0,54043.65,-79.28196,71.3216
