Frequency,Impedance,Phase Angle,Temperature (Dry Bath)
10.0,35178.02,-11.14651,69.7588
21.544346900318832,32633.21,-9.556572,69.7559
46.41588833612777,30703.17,-8.657013,69.7632
100.0,28026.05,-9.603952,69.7575
215.44346900318823,27527.49,-9.116457,69.7508
464.15888336127773,25973.35,-10.91562,69.767
1000.0,23873.57,-8.935594,69.7637
2154.4346900318824,22101.68,-8.700407,69.7619
4641.588833612777,20629.38,-15.63001,69.7604
10000.0,18733.28,-25.93062,69.7777
