Frequency,Impedance,Phase Angle,Temperature (Dry Bath)
10.0,182156.9,-12.73933,71.2823
21.544346900318832,164100.9,-11.64133,71.2886
46.41588833612777,147657.7,-11.37196,71.2969
100.0,157870.6,-18.1947,71.2771
215.44346900318823,20508.52,54.54376,71.2875
464.15888336127773,127329.1,-17.29372,71.2801
1000.0,122200.3,-0.376989,71.3066
2154.4346900318824,93138.22,-18.70098,71.2795
4641.588833612777,61162.67,-33.05552,71.28
10000.0,48923.13,-54.47579,71.2986
