Frequency,Impedance,Phase Angle,Temperature (Dry Bath)
10.0,6836.941,-28.26201,70.5586
21.544346900318832,5407.436,-26.14425,70.5543
46.41588833612777,4382.247,-23.49178,70.5449
100.0,3609.704,-20.25415,70.5447
215.44346900318823,3083.294,-17.95798,70.5456
464.15888336127773,2704.941,-15.14612,70.5557
1000.0,2403.791,-12.75524,70.5485
2154.4346900318824,2199.219,-11.22289,70.5556
4641.588833612777,2023.928,-10.44074,70.5488
10000.0,1884.619,-10.43645,70.5472
