Frequency,Impedance,Phase Angle,Temperature (Dry Bath)
10.0,4936548.0,6.92135,70.8663
21.544346900318832,2871581.0,-7.426365,70.8674
46.41588833612777,3645683.0,-26.08034,70.8613
100.0,297387.5,-90.08341,70.8754
215.44346900318823,2102354.0,-2.156913,70.863
464.15888336127773,430093.3,-87.36787,70.8699
1000.0,405437.5,-72.45144,70.8767
2154.4346900318824,266778.0,-90.07561,70.8741
4641.588833612777,179047.4,-88.85283,70.8621
10000.0,64986.13,-79.18032,70.859
