Frequency,Impedance,Phase Angle,Temperature (Dry Bath)
10.0,7139374.0,-22.52109,70.9824
21.544346900318832,4644511.0,-5.253847,70.9863
46.41588833612777,5059700.0,-28.96965,70.9793
100.0,708963.8,85.04261,70.9869
215.44346900318823,912743.8,-66.10397,70.9766
464.15888336127773,828036.1,-0.4901582,70.9948
1000.0,837574.2,-1.305505,70.9875
2154.4346900318824,819659.9,-56.57079,70.9948
4641.588833612777,148141.9,-86.34294,70.9623
10000.0,77324.46,-95.69008,70.9669
