Frequency,Impedance,Phase Angle,Temperature (Dry Bath)
10.0,6651519.0,9.786777,70.8693
21.544346900318832,5818153.0,-26.9539,70.8797
46.41588833612777,4620523.0,-7.909839,70.8771
100.0,1105996.0,2.079504,70.869
215.44346900318823,1471721.0,29.95436,70.915
464.15888336127773,1698293.0,-136.5663,70.8946
1000.0,1958914.0,-122.8183,70.9159
2154.4346900318824,1404348.0,-114.53,70.9108
4641.588833612777,306551.3,-92.38737,70.9208
10000.0,142092.2,-84.85093,70.9074
