Frequency,Impedance,Phase Angle,Temperature (Dry Bath)
10.0,6257333.0,29.87003,71.1531
21.544346900318832,10139700.0,-18.12369,71.1488
46.41588833612777,5163878.0,-35.83917,71.1424
100.0,510344.4,99.13263,71.1303
215.44346900318823,1313903.0,-140.4675,71.1474
464.15888336127773,501982.9,-123.4929,71.1475
1000.0,409528.1,-134.7382,71.1516
2154.4346900318824,200414.3,-93.18684,71.1521
4641.588833612777,132290.8,-86.90463,71.1637
10000.0,65857.03,-83.38158,71.148
