Frequency,Impedance,Phase Angle,Temperature (Dry Bath)
10.0,4678300.0,-7.658888,71.247
21.544346900318832,4982534.0,0.833732,71.2297
46.41588833612777,4304088.0,-32.34036,71.2502
100.0,8483682.0,-80.50439,71.2459
215.44346900318823,12874.88,-143.2352,71.247
464.15888336127773,1089235.0,-46.95652,71.2439
1000.0,977859.9,-104.4516,71.251
2154.4346900318824,193516.9,-81.25186,71.2522
4641.588833612777,140337.1,-85.94128,71.2575
10000.0,57853.82,-85.95721,71.2649
