Frequency,Impedance,Phase Angle,Temperature (Dry Bath)
10.0,10769.45,-25.80301,71.4554
21.544346900318832,8763.845,-22.84137,71.4523
46.41588833612777,7321.14,-20.01397,71.4531
100.0,6257.131,-17.47643,71.4381
215.44346900318823,5488.743,-15.19554,71.4428
464.15888336127773,4947.381,-13.18162,71.4391
1000.0,4438.319,-11.448,71.4487
2154.4346900318824,4112.086,-9.9473,71.4582
4641.588833612777,3786.294,-9.512149,71.4577
10000.0,3599.401,-10.20473,71.433
