Frequency,Impedance,Phase Angle,Temperature (Dry Bath)
10.0,178889.5,-12.39781,71.3903
21.544346900318832,163048.1,-12.49741,71.4006
46.41588833612777,147322.3,-13.61796,71.39
100.0,202130.3,-10.46816,71.394
215.44346900318823,32619.8,115.5026,71.3979
464.15888336127773,112380.4,-8.459905,71.3858
1000.0,119612.7,-20.27173,71.3817
2154.4346900318824,88122.67,-18.89597,71.3879
4641.588833612777,66106.84,-24.50592,71.3973
10000.0,49005.97,-52.56136,71.3857
