Frequency,Impedance,Phase Angle,Temperature (Dry Bath)
10.0,4495260.0,-51.93019,70.9745
21.544346900318832,3818524.0,-26.15812,70.9757
46.41588833612777,2959113.0,-28.00508,70.9553
100.0,1269651.0,59.36199,70.9762
215.44346900318823,1345059.0,154.2932,70.9598
464.15888336127773,393195.8,-108.9695,70.9741
1000.0,369176.0,-73.33541,70.9733
2154.4346900318824,295276.3,-90.60779,70.9542
4641.588833612777,141063.8,-89.72378,70.9466
10000.0,70310.22,-86.09042,70.9665
