Frequency,Impedance,Phase Angle,Temperature (Dry Bath)
10.0,3542444.0,-19.7222,70.5027
21.544346900318832,5584913.0,-37.68403,70.486
46.41588833612777,4498161.0,-10.69692,70.4944
100.0,350612.3,-66.40815,70.5104
215.44346900318823,505365.1,-98.56719,70.4997
464.15888336127773,369692.5,-120.9762,70.4987
1000.0,356085.9,-97.05291,70.5094
2154.4346900318824,313950.1,-77.85945,70.4998
4641.588833612777,159490.7,-80.63907,70.5092
10000.0,56322.16,-84.61531,70.4971
