Frequency,Impedance,Phase Angle,Temperature (Dry Bath)
10.0,5776603.0,-11.364,70.7094
21.544346900318832,6463977.0,-36.87264,70.7054
46.41588833612777,4672721.0,-21.26847,70.7053
100.0,434529.9,155.4209,70.7123
215.44346900318823,1595874.0,36.0924,70.7151
464.15888336127773,625748.8,-66.51284,70.6917
1000.0,1311246.0,-148.9542,70.7012
2154.4346900318824,257773.2,-93.54213,70.7064
4641.588833612777,145308.0,-100.1692,70.7008
10000.0,75828.35,-83.30792,70.6922
