Frequency,Impedance,Phase Angle,Temperature (Dry Bath)
10.0,17199.95,-24.03736,71.447
21.544346900318832,13908.1,-25.37212,71.4484
46.41588833612777,11054.74,-26.27385,71.423
100.0,8657.08,-26.94381,71.4294
215.44346900318823,6961.656,-24.57591,71.4273
464.15888336127773,5675.455,-23.11983,71.4347
1000.0,4657.955,-21.19543,71.4362
2154.4346900318824,3911.719,-19.04926,71.4305
4641.588833612777,3381.038,-17.22564,71.4311
10000.0,2962.75,-15.92952,71.4273
