Frequency,Impedance,Phase Angle,Temperature (Dry Bath)
10.0,3637907.0,4.055135,70.8276
21.544346900318832,4443200.0,-11.62232,70.7974
46.41588833612777,3890828.0,-20.45627,70.8036
100.0,1266551.0,84.47926,70.8151
215.44346900318823,347639.3,-135.6531,70.8151
464.15888336127773,672302.4,-98.62517,70.8202
1000.0,947070.8,73.12958,70.8088
2154.4346900318824,153291.3,-97.17084,70.8081
4641.588833612777,103210.8,-72.20622,70.8121
10000.0,50619.05,-87.4432,70.8109
