Frequency,Impedance,Phase Angle,Temperature (Dry Bath)
10.0,7803585.0,-0.01870869,70.8979
21.544346900318832,5470777.0,7.774431,70.8924
46.41588833612777,4898130.0,-13.15388,70.9043
100.0,568193.8,9.87137,70.9094
215.44346900318823,1031977.0,68.16891,70.91
464.15888336127773,823241.9,-81.50779,70.9043
1000.0,366530.0,-102.1272,70.9022
2154.4346900318824,291782.4,-73.92067,70.8967
4641.588833612777,134448.0,-85.57017,70.9011
10000.0,61224.29,-82.76713,70.9049
