Frequency,Impedance,Phase Angle,Temperature (Dry Bath)
10.0,23659.81,-21.08713,71.3093
21.544346900318832,20034.68,-18.29603,71.3014
46.41588833612777,17389.99,-15.50271,71.3143
100.0,15788.14,-13.43362,71.293
215.44346900318823,22237.13,-61.37059,71.3061
464.15888336127773,13022.67,-8.610072,71.3048
1000.0,12256.29,-7.90026,71.3112
2154.4346900318824,11461.52,-8.326255,71.2962
4641.588833612777,11023.11,-11.29166,71.2966
10000.0,10361.68,-13.99469,71.3011
