Frequency,Impedance,Phase Angle,Temperature (Dry Bath)
10.0,28056.28,-21.65527,72.0019
21.544346900318832,23240.13,-22.74363,71.9993
46.41588833612777,19007.06,-24.09848,72.0207
100.0,15546.79,-22.46514,71.9982
215.44346900318823,11912.73,-27.48482,72.0014
464.15888336127773,9686.537,-26.34109,72.0145
1000.0,7681.926,-27.43666,71.9937
2154.4346900318824,5966.054,-26.94616,72.009
4641.588833612777,4879.55,-23.6025,71.9933
10000.0,4101.065,-21.59615,71.995
