Frequency,Impedance,Phase Angle,Temperature (Dry Bath)
10.0,2556574.0,-7.706301,71.33
21.544346900318832,1829247.0,-17.30327,71.3339
46.41588833612777,2204128.0,-25.02457,71.3137
100.0,1881010.0,-38.25771,71.3136
215.44346900318823,1086261.0,-94.28842,71.326
464.15888336127773,514572.5,-66.00684,71.3195
1000.0,281366.1,-21.87385,71.2953
2154.4346900318824,208831.8,-74.63882,71.3105
4641.588833612777,115631.1,-88.6402,71.3135
10000.0,67480.86,-85.92236,71.303
