Frequency,Impedance,Phase Angle,Temperature (Dry Bath)
10.0,4492440.0,10.87029,71.4187
21.544346900318832,5045764.0,-23.75159,71.4285
46.41588833612777,4039754.0,-30.96163,71.4379
100.0,1287009.0,-53.18206,71.4264
215.44346900318823,798936.5,-96.57545,71.4278
464.15888336127773,552611.4,-12.25842,71.4485
1000.0,386492.0,-70.81948,71.4312
2154.4346900318824,265322.7,-80.10633,71.4252
4641.588833612777,124843.2,-77.23242,71.42
10000.0,51092.62,-92.87085,71.4182
