Frequency,Impedance,Phase Angle,Temperature (Dry Bath)
10.0,4270430.0,16.96348,70.8617
21.544346900318832,6236710.0,-11.95506,70.8534
46.41588833612777,4933148.0,-11.48798,70.8649
100.0,679440.7,-64.29587,70.8767
215.44346900318823,679568.8,58.92689,70.8474
464.15888336127773,1156737.0,-48.57738,70.8378
1000.0,330063.2,-98.92018,70.8426
2154.4346900318824,182909.6,-68.68778,70.8577
4641.588833612777,101994.9,-72.32103,70.8381
10000.0,78345.77,-76.38849,70.8571
