Frequency,Impedance,Phase Angle,Temperature (Dry Bath)
10.0,4670891.0,-20.90815,71.1153
21.544346900318832,5591447.0,-9.648357,71.1236
46.41588833612777,4181195.0,-38.81544,71.1299
100.0,393616.1,9.113413,71.1241
215.44346900318823,926027.9,-107.6922,71.1365
464.15888336127773,511899.8,-84.69057,71.137
1000.0,337441.5,-15.09905,71.1346
2154.4346900318824,287337.6,-89.86055,71.1251
4641.588833612777,123148.8,-90.33103,71.1299
10000.0,63609.4,-86.14078,71.1334
