Frequency,Impedance,Phase Angle,Temperature (Dry Bath)
10.0,6239532.0,6.268797,71.1281
21.544346900318832,13627820.0,-18.77844,71.1474
46.41588833612777,5660168.0,-42.6891,71.1495
100.0,1359820.0,2.416842,71.1429
215.44346900318823,3284664.0,-40.31839,71.132
464.15888336127773,478620.4,-94.65577,71.1361
1000.0,578753.3,96.50446,71.1452
2154.4346900318824,199801.6,-90.54166,71.1365
4641.588833612777,122303.3,-89.46869,71.1659
10000.0,53841.12,-80.53426,71.1451
