Frequency,Impedance,Phase Angle,Temperature (Dry Bath)
10.0,5023288.0,-3.434723,29.7063
21.544346900318832,6074764.0,-2.561841,29.3584
46.41588833612777,4663219.0,-24.70905,29.752
100.0,2719773.0,-65.03256,29.7065
215.44346900318823,2629693.0,134.8456,29.729
464.15888336127773,826344.4,-93.61128,29.7891
1000.0,876113.5,-154.7391,29.6619
2154.4346900318824,604960.2,-82.66631,29.7774
4641.588833612777,414848.8,-105.5333,29.6692
10000.0,165358.3,-93.21185,29.7494
