Frequency,Impedance,Phase Angle,Temperature (Dry Bath)
10.0,4080200.0,-15.22302,71.3139
21.544346900318832,5940719.0,-12.44499,71.3152
46.41588833612777,5039272.0,-23.43549,71.3399
100.0,500033.8,16.59519,71.3139
215.44346900318823,989916.4,154.2542,71.323
464.15888336127773,538245.0,-43.55291,71.3145
1000.0,801439.3,-74.86102,71.3195
2154.4346900318824,2938768.0,-36.20538,71.3153
4641.588833612777,257580.1,-51.01294,71.3351
10000.0,116808.5,-80.9604,71.3168
