Frequency,Impedance,Phase Angle,Temperature (Dry Bath)
10.0,14536.68,-19.61054,71.1268
21.544346900318832,12548.03,-16.8159,71.1232
46.41588833612777,11047.56,-14.61295,71.126
100.0,10077.8,-14.57923,71.1195
215.44346900318823,9157.212,-11.60223,71.1201
464.15888336127773,8287.997,-10.16932,71.1152
1000.0,7658.442,-9.275685,71.1183
2154.4346900318824,7091.811,-9.104804,71.1172
4641.588833612777,6670.475,-10.57827,71.1289
10000.0,6318.508,-12.65342,71.1254
