Frequency,Impedance,Phase Angle,Temperature (Dry Bath)
10.0,48795.73,-20.41753,71.4857
21.544346900318832,41578.17,-19.87011,71.5127
46.41588833612777,35414.9,-19.89494,71.4971
100.0,29782.51,-17.95561,71.493
215.44346900318823,25034.25,-18.5891,71.491
464.15888336127773,22340.36,-16.12199,71.4949
1000.0,19250.03,-13.69394,71.5173
2154.4346900318824,16537.39,-14.29804,71.4882
4641.588833612777,15366.94,-14.70503,71.4931
10000.0,13777.44,-14.6312,71.5247
