Frequency,Impedance,Phase Angle,Temperature (Dry Bath)
10.0,1849495.0,2.41416,71.7396
21.544346900318832,2099265.0,-7.909365,71.756
46.41588833612777,1876080.0,-10.45983,71.7476
100.0,158964.3,-3.60477,71.7375
215.44346900318823,690193.3,-154.0791,71.7284
464.15888336127773,813756.8,-48.43515,71.7369
1000.0,1090043.0,51.91594,71.7571
2154.4346900318824,423229.9,-27.54021,71.7551
4641.588833612777,182492.6,-75.92623,71.7421
10000.0,125606.4,-94.90474,71.7388
