Frequency,Impedance,Phase Angle,Temperature (Dry Bath)
10.0,140750.6,-10.89082,71.0839
21.544346900318832,130382.8,-11.22769,71.0648
46.41588833612777,119682.4,-11.15599,71.0685
100.0,118456.7,-20.06388,71.0671
215.44346900318823,104912.5,-22.64148,71.0697
464.15888336127773,81290.69,-26.219,71.0611
1000.0,81293.65,-17.69271,71.053
2154.4346900318824,69156.41,-26.99622,71.0525
4641.588833612777,57170.13,-37.81625,71.0694
10000.0,40289.05,-54.00167,71.0599
