Frequency,Impedance,Phase Angle,Temperature (Dry Bath)
10.0,2659797.0,-12.01135,71.209
21.544346900318832,2477021.0,-8.491807,71.2127
46.41588833612777,2482477.0,-14.09629,71.2086
100.0,363105.3,-23.40147,71.2031
215.44346900318823,461647.0,94.31944,71.2181
464.15888336127773,593365.8,-140.0706,71.2239
1000.0,397782.5,-63.15668,71.2184
2154.4346900318824,158715.6,-66.5701,71.2165
4641.588833612777,142457.9,-58.73985,71.2317
10000.0,79898.72,-94.00392,71.2246
