Frequency,Impedance,Phase Angle,Temperature (Dry Bath)
10.0,8606.102,-28.81362,70.8101
21.544346900318832,6754.348,-27.50018,70.8276
46.41588833612777,5360.646,-25.62592,70.825
100.0,4348.553,-22.73106,70.823
215.44346900318823,3625.637,-20.39994,70.8005
464.15888336127773,3073.24,-17.23808,70.8184
1000.0,2696.739,-15.05348,70.8297
2154.4346900318824,2439.222,-12.72998,70.8206
4641.588833612777,2228.166,-11.12617,70.8121
10000.0,2050.032,-11.44726,70.8293
