Frequency,Impedance,Phase Angle,Temperature (Dry Bath)
10.0,6078041.0,-11.63916,70.9372
21.544346900318832,3730015.0,-2.45645,70.9537
46.41588833612777,7404193.0,-7.015849,70.9422
100.0,739361.1,-167.8917,70.9464
215.44346900318823,791637.1,-138.453,70.9364
464.15888336127773,3839843.0,-149.2316,70.9407
1000.0,305832.3,-88.10545,70.9511
2154.4346900318824,376692.7,-118.9226,70.9518
4641.588833612777,120093.1,-76.94939,70.9448
10000.0,67413.05,-93.74385,70.9426
