Frequency,Impedance,Phase Angle,Temperature (Dry Bath)
10.0,4738937.0,8.71903,70.5951
21.544346900318832,6040080.0,-0.3702637,70.5928
46.41588833612777,4278836.0,-21.8604,70.6121
100.0,424002.6,-68.95266,70.6054
215.44346900318823,1997987.0,27.31159,70.6126
464.15888336127773,388145.2,-63.97432,70.6025
1000.0,735717.1,-37.4715,70.5857
2154.4346900318824,268289.2,-89.74198,70.6037
4641.588833612777,170962.5,-83.96707,70.6006
10000.0,61598.03,-86.20078,70.6055
