Frequency,Impedance,Phase Angle,Temperature (Dry Bath)
10.0,22234.97,-19.77469,71.0112
21.544346900318832,19093.53,-17.52185,71.0252
46.41588833612777,16662.0,-15.71523,71.0169
100.0,14520.45,-14.45319,70.997
215.44346900318823,13336.41,-12.80268,71.0085
464.15888336127773,12196.57,-11.41612,70.9947
1000.0,11116.36,-9.693971,71.0034
2154.4346900318824,10079.73,-10.29796,71.0105
4641.588833612777,9574.827,-12.06862,71.0029
10000.0,9011.282,-15.12645,70.9995
