Frequency,Impedance,Phase Angle,Temperature (Dry Bath)
10.0,14375.44,-19.81267,71.1919
21.544346900318832,12405.21,-16.97989,71.1886
46.41588833612777,10912.46,-14.84323,71.1913
100.0,9445.313,-13.44795,71.1958
215.44346900318823,8964.573,-10.87303,71.1847
464.15888336127773,8106.302,-10.63952,71.1824
1000.0,7426.56,-9.361673,71.1978
2154.4346900318824,6984.048,-9.963986,71.1828
4641.588833612777,6538.534,-9.932787,71.1808
10000.0,6065.041,-12.44304,71.194
