Frequency,Impedance,Phase Angle,Temperature (Dry Bath)
10.0,6594175.0,-6.055346,28.2691
21.544346900318832,4485522.0,-12.96771,28.1817
46.41588833612777,4331336.0,-14.6634,28.1729
100.0,2147072.0,-16.70898,28.2621
215.44346900318823,1425791.0,-53.39841,28.3143
464.15888336127773,615909.9,-73.13431,28.1583
1000.0,863671.4,135.2757,28.1643
2154.4346900318824,923648.3,-101.7427,28.3342
4641.588833612777,415840.1,-114.6024,28.1097
10000.0,175005.2,-90.70987,28.3387
