Frequency,Impedance,Phase Angle,Temperature (Dry Bath)
10.0,7785629.0,4.498816,71.1545
21.544346900318832,7996898.0,-32.18703,71.1559
46.41588833612777,4502408.0,-35.41484,71.1781
100.0,902061.1,-65.10877,71.1706
215.44346900318823,1147229.0,-135.448,71.1779
464.15888336127773,3744556.0,-21.7055,71.1702
1000.0,424924.5,-123.9893,71.1753
2154.4346900318824,299522.0,-89.24137,71.1902
4641.588833612777,119504.6,-99.34703,71.1794
10000.0,67309.85,-89.13034,71.1673
