Frequency,Impedance,Phase Angle,Temperature (Dry Bath)
10.0,5031862.0,-9.710373,71.7161
21.544346900318832,6188681.0,9.586971,71.7323
46.41588833612777,5071191.0,-22.3007,71.7223
100.0,822946.3,-150.0483,71.7203
215.44346900318823,263770.0,-146.5393,71.7038
464.15888336127773,598643.7,-52.02918,71.7192
1000.0,387326.0,133.6213,71.7018
2154.4346900318824,643147.0,-6.041227,71.7066
4641.588833612777,131935.0,-85.93685,71.7171
10000.0,179937.3,-72.15664,71.703
