Frequency,Impedance,Phase Angle,Temperature (Dry Bath)
10.0,5308372.0,-8.200408,71.0115
21.544346900318832,6598753.0,-11.87623,71.0129
46.41588833612777,3642131.0,-43.22373,70.9934
100.0,498469.9,23.82781,71.0003
215.44346900318823,438051.9,-122.8794,71.0001
464.15888336127773,561219.3,-57.08175,71.0036
1000.0,912217.8,-96.94839,70.9817
2154.4346900318824,227684.7,-92.59289,71.0014
4641.588833612777,135160.9,-89.00188,71.0003
10000.0,56107.86,-87.94906,71.0028
