Frequency,Impedance,Phase Angle,Temperature (Dry Bath)
10.0,1092137.0,-10.56126,71.4027
21.544346900318832,918351.2,-12.57911,71.3953
46.41588833612777,992412.6,-7.368487,71.3874
100.0,521454.0,5.626065,71.397
215.44346900318823,725657.4,-109.8576,71.3986
464.15888336127773,1157236.0,-103.3411,71.4021
1000.0,432839.5,-3.542706,71.3912
2154.4346900318824,185309.6,-17.09939,71.4097
4641.588833612777,349799.4,-64.86913,71.3935
10000.0,119558.3,-85.40162,71.4117
