Frequency,Impedance,Phase Angle,Temperature (Dry Bath)
10.0,13596.5,-28.35664,71.0597
21.544346900318832,10794.51,-25.68898,71.0437
46.41588833612777,8783.796,-22.9567,71.0475
100.0,7390.128,-20.76385,71.0593
215.44346900318823,6286.628,-17.46362,71.0701
464.15888336127773,5489.465,-15.75041,71.0587
1000.0,4850.45,-13.65883,71.0546
2154.4346900318824,4395.189,-12.40719,71.0733
4641.588833612777,4004.092,-12.22811,71.0577
10000.0,3661.139,-13.42614,71.0559
