Frequency,Impedance,Phase Angle,Temperature (Dry Bath)
10.0,6294660.0,-22.95146,71.02
21.544346900318832,3910924.0,-7.834382,71.0149
46.41588833612777,3471568.0,-20.3825,71.0358
100.0,263160.7,-106.3645,71.0143
215.44346900318823,771867.9,-138.0602,71.0284
464.15888336127773,2058904.0,-110.5166,71.0147
1000.0,274358.9,-88.18975,71.0265
2154.4346900318824,293816.1,-87.20789,71.0168
4641.588833612777,151532.0,-83.07783,71.0155
10000.0,61213.14,-91.53663,71.0179
