Frequency,Impedance,Phase Angle,Temperature (Dry Bath)
10.0,24855.63,-21.26541,71.1984
21.544346900318832,20562.28,-23.10779,71.1882
46.41588833612777,16760.61,-24.52852,71.1898
100.0,12798.99,-25.13121,71.177
215.44346900318823,10724.48,-25.55288,71.1771
464.15888336127773,8683.453,-25.63441,71.2022
1000.0,6769.709,-24.15823,71.1928
2154.4346900318824,5503.157,-25.02999,71.1743
4641.588833612777,4444.953,-22.48278,71.1765
10000.0,3680.878,-20.91458,71.176
