Frequency,Impedance,Phase Angle,Temperature (Dry Bath)
10.0,17209.36,-23.89317,71.3881
21.544346900318832,13939.08,-25.26573,71.3838
46.41588833612777,11096.1,-26.14938,71.3826
100.0,8853.957,-25.24486,71.3619
215.44346900318823,7015.042,-25.26151,71.3612
464.15888336127773,5689.606,-23.47418,71.3841
1000.0,4638.834,-21.28027,71.3871
2154.4346900318824,3903.44,-19.1845,71.3692
4641.588833612777,3391.1,-17.28257,71.3844
10000.0,2965.618,-15.92205,71.3743
