Frequency,Impedance,Phase Angle,Temperature (Dry Bath)
10.0,4597413.0,7.989368,71.4699
21.544346900318832,8798027.0,16.59107,71.4642
46.41588833612777,5834326.0,2.429332,71.4736
100.0,883423.2,-44.2701,71.4636
215.44346900318823,2046847.0,-2.18232,71.4645
464.15888336127773,1389911.0,15.37736,71.4701
1000.0,1122788.0,-59.49936,71.4728
2154.4346900318824,845679.3,-98.41093,71.4605
4641.588833612777,268970.5,-62.35114,71.4794
10000.0,128834.8,-93.48888,71.4533
