Frequency,Impedance,Phase Angle,Temperature (Dry Bath)
10.0,9348.786,-25.6663,70.6445
21.544346900318832,7636.949,-22.45014,70.646
46.41588833612777,6413.99,-19.45211,70.6434
100.0,5449.552,-16.40624,70.6454
215.44346900318823,4884.734,-14.47078,70.6387
464.15888336127773,4401.417,-11.90001,70.6466
1000.0,3947.295,-10.54663,70.6473
2154.4346900318824,3686.095,-9.386473,70.6484
4641.588833612777,3453.582,-8.94617,70.6446
10000.0,3294.049,-9.66614,70.6471
