Frequency,Impedance,Phase Angle,Temperature (Dry Bath)
10.0,8892508.0,-14.2671,71.0957
21.544346900318832,6329106.0,8.366033,71.0873
46.41588833612777,5180099.0,-17.63528,71.0903
100.0,1262934.0,18.34888,71.0895
215.44346900318823,1243164.0,153.4906,71.0873
464.15888336127773,724822.1,-143.6701,71.0873
1000.0,263713.5,59.74909,71.0951
2154.4346900318824,439319.6,-22.99003,71.0951
4641.588833612777,4283939.0,156.9903,71.0987
10000.0,217876.9,-89.98828,71.1164
