Frequency,Impedance,Phase Angle,Temperature (Dry Bath)
10.0,14818.75,-19.39223,71.1324
21.544346900318832,12774.23,-16.64033,71.1334
46.41588833612777,11279.04,-14.5122,71.1264
100.0,10048.9,-13.6131,71.1251
215.44346900318823,9182.383,-10.97702,71.1322
464.15888336127773,8476.751,-10.34881,71.1345
1000.0,7804.994,-9.604978,71.1423
2154.4346900318824,7260.054,-10.25333,71.1394
4641.588833612777,6860.763,-10.62582,71.1345
10000.0,6351.518,-12.83245,71.1303
