Frequency,Impedance,Phase Angle,Temperature (Dry Bath)
10.0,16204.42,-29.44669,70.751
21.544346900318832,12806.84,-26.84593,70.7545
46.41588833612777,10352.26,-24.45338,70.7481
100.0,8473.777,-21.54624,70.7459
215.44346900318823,7139.508,-18.37481,70.7588
464.15888336127773,6259.943,-16.19487,70.7596
1000.0,5462.913,-14.28227,70.774
2154.4346900318824,4998.132,-11.95393,70.7582
4641.588833612777,4644.448,-10.87848,70.734
10000.0,4404.081,-10.99544,70.7617
