Frequency,Impedance,Phase Angle,Temperature (Dry Bath)
10.0,6800786.0,-2.763493,70.963
21.544346900318832,3771990.0,-22.03318,70.9472
46.41588833612777,4479935.0,-24.73305,70.9589
100.0,761298.5,-71.06257,70.9533
215.44346900318823,625165.5,-103.3711,70.9729
464.15888336127773,1507293.0,-120.1722,70.9635
1000.0,842533.3,-90.68536,70.9537
2154.4346900318824,196855.3,-92.35403,70.9765
4641.588833612777,127311.8,-86.99029,70.9508
10000.0,59434.88,-87.37618,70.9682
