Frequency,Impedance,Phase Angle,Temperature (Dry Bath)
10.0,12078.39,-26.02936,71.1906
21.544346900318832,9810.881,-23.36197,71.1772
46.41588833612777,8148.995,-20.83037,71.1751
100.0,6899.577,-18.58717,71.1812
215.44346900318823,6049.587,-15.7385,71.1892
464.15888336127773,5326.132,-13.55691,71.1889
1000.0,4776.324,-12.18304,71.1831
2154.4346900318824,4353.039,-10.8923,71.176
4641.588833612777,4090.476,-9.068276,71.1879
10000.0,3853.589,-10.74243,71.1673
