Frequency,Impedance,Phase Angle,Temperature (Dry Bath)
10.0,12550.24,-26.33278,71.3285
21.544346900318832,10165.07,-23.75098,71.328
46.41588833612777,8412.499,-21.10987,71.3373
100.0,7125.456,-18.62636,71.3268
215.44346900318823,6204.167,-15.69826,71.3412
464.15888336127773,5526.62,-14.59994,71.3183
1000.0,4896.833,-12.61906,71.3525
2154.4346900318824,4457.149,-11.47914,71.3229
4641.588833612777,4071.232,-11.9122,71.3291
10000.0,3756.604,-12.18285,71.3213
