Frequency,Impedance,Phase Angle,Temperature (Dry Bath)
10.0,6047701.0,1.298207,28.4857
21.544346900318832,4631537.0,4.800725,28.5955
46.41588833612777,3905452.0,-22.81715,28.4235
100.0,981564.4,-136.2748,28.6631
215.44346900318823,2331414.0,-7.450775,28.6558
464.15888336127773,668798.4,-27.70296,28.7015
1000.0,336509.1,-61.45342,28.6495
2154.4346900318824,482145.8,-68.72802,28.6671
4641.588833612777,459450.7,-86.80298,28.6996
10000.0,179563.2,-82.30143,28.6283
