Frequency,Impedance,Phase Angle,Temperature (Dry Bath)
10.0,462935.4,-13.83799,71.2927
21.544346900318832,420551.9,-15.15093,71.3013
46.41588833612777,371643.9,-13.73383,71.2903
100.0,206130.0,-24.76025,71.2983
215.44346900318823,268712.7,5.115158,71.2875
464.15888336127773,275743.9,-30.93519,71.292
1000.0,221963.9,-2.156422,71.2927
2154.4346900318824,243176.5,-55.60475,71.2901
4641.588833612777,85196.45,-70.87674,71.2806
10000.0,64977.1,-67.23429,71.2828
