Frequency,Impedance,Phase Angle,Temperature (Dry Bath)
10.0,7477.828,-25.69506,70.711
21.544346900318832,6103.061,-22.52471,70.7005
46.41588833612777,5134.287,-19.58198,70.7032
100.0,4449.016,-16.72579,70.7084
215.44346900318823,3921.861,-14.29778,70.7144
464.15888336127773,3514.489,-12.52924,70.7021
1000.0,3177.687,-11.05157,70.7135
2154.4346900318824,2961.633,-9.340416,70.7083
4641.588833612777,2756.847,-8.521324,70.7099
10000.0,2603.66,-9.163204,70.7109
