Frequency,Impedance,Phase Angle,Temperature (Dry Bath)
10.0,11525170.0,40.26696,72.1067
21.544346900318832,4648534.0,3.922838,72.0871
46.41588833612777,8060110.0,-24.4569,72.0849
100.0,281099.4,-31.08196,72.0755
215.44346900318823,860607.9,68.96162,72.0914
464.15888336127773,417901.2,-68.29979,72.0866
1000.0,880641.5,62.65106,72.105
2154.4346900318824,382124.6,-57.90126,72.0829
4641.588833612777,272746.6,-90.01451,72.1023
10000.0,108905.8,-88.72555,72.1013
