Frequency,Impedance,Phase Angle,Temperature (Dry Bath)
10.0,65971.25,-14.24555,72.1904
21.544346900318832,59194.27,-12.95259,72.1931
46.41588833612777,53280.88,-11.53529,72.2001
100.0,50232.4,-8.519206,72.2037
215.44346900318823,44878.24,-7.637029,72.1953
464.15888336127773,41701.17,-9.556966,72.2027
1000.0,37196.29,-5.959924,72.2187
2154.4346900318824,36018.0,-5.069199,72.1831
4641.588833612777,39917.49,-5.727212,72.191
10000.0,35981.21,-20.62995,72.1963
