Frequency,Impedance,Phase Angle,Temperature (Dry Bath)
10.0,6058240.0,-29.93401,72.1634
21.544346900318832,4811534.0,14.82195,72.1517
46.41588833612777,5610165.0,-20.39458,72.1506
100.0,724497.4,-168.9912,72.15
215.44346900318823,322285.2,-158.9998,72.1626
464.15888336127773,1260317.0,135.5847,72.1519
1000.0,4638777.0,-26.43965,72.1543
2154.4346900318824,307517.8,-60.05262,72.1476
4641.588833612777,489946.5,-138.7952,72.1589
10000.0,121614.4,-87.80397,72.1571
