Frequency,Impedance,Phase Angle,Temperature (Dry Bath)
10.0,4695438.0,-4.698357,71.4226
21.544346900318832,5300301.0,-5.168245,71.4248
46.41588833612777,7015728.0,2.946639,71.4236
100.0,786065.9,15.1501,71.4216
215.44346900318823,198535.2,39.96042,71.4319
464.15888336127773,585978.5,-118.9812,71.4241
1000.0,377796.8,-96.28941,71.4343
2154.4346900318824,280130.4,-91.71257,71.4252
4641.588833612777,98287.11,-75.83791,71.4207
10000.0,62911.47,-85.12729,71.4306
