Frequency,Impedance,Phase Angle,Temperature (Dry Bath)
10.0,159569.1,-9.966805,71.3683
21.544346900318832,147071.4,-9.030799,71.3489
46.41588833612777,137293.6,-8.809788,71.3388
100.0,116723.7,2.560991,71.3564
215.44346900318823,181200.8,-9.653939,71.3522
464.15888336127773,99452.4,-14.33636,71.3433
1000.0,90297.86,-9.192961,71.3558
2154.4346900318824,78437.92,-36.92708,71.3385
4641.588833612777,54166.0,-55.87932,71.3469
10000.0,30702.85,-69.05089,71.3488
