Frequency,Impedance,Phase Angle,Temperature (Dry Bath)
10.0,5819119.0,-37.30752,71.0045
21.544346900318832,5582898.0,-3.09849,71.0117
46.41588833612777,6026784.0,-35.30226,70.9846
100.0,843413.8,87.96625,71.0039
215.44346900318823,5701120.0,-9.06672,70.9934
464.15888336127773,1329478.0,-38.79176,70.9996
1000.0,899858.3,-24.9722,71.0112
2154.4346900318824,286819.9,-69.92744,71.0053
4641.588833612777,129482.8,-84.6988,71.0042
10000.0,61732.84,-79.48428,71.0046
