Frequency,Impedance,Phase Angle,Temperature (Dry Bath)
10.0,139436.3,-11.5596,71.254
21.544346900318832,127246.3,-11.66258,71.2413
46.41588833612777,117694.7,-10.51405,71.2189
100.0,114514.8,-8.535176,71.2398
215.44346900318823,102857.8,-4.864529,71.2288
464.15888336127773,76610.37,-13.0238,71.2541
1000.0,90193.34,-26.25508,71.2566
2154.4346900318824,74998.46,-27.90762,71.2337
4641.588833612777,54214.23,-36.07901,71.25
10000.0,38805.72,-53.91354,71.2338
