Frequency,Impedance,Phase Angle,Temperature (Dry Bath)
10.0,11182.26,-24.43033,71.3338
21.544346900318832,8993.138,-24.95487,71.3308
46.41588833612777,7196.293,-24.79247,71.3175
100.0,5762.035,-24.07124,71.3109
215.44346900318823,4755.373,-21.88911,71.33
464.15888336127773,3973.239,-19.71823,71.334
1000.0,3382.41,-17.42951,71.3135
2154.4346900318824,2962.097,-14.94553,71.3201
4641.588833612777,2629.169,-13.54883,71.314
10000.0,2403.013,-12.11957,71.321
