Frequency,Impedance,Phase Angle,Temperature (Dry Bath)
10.0,593738.8,-28.23735,71.3368
21.544346900318832,467126.0,-26.98011,71.3231
46.41588833612777,354965.7,-26.72137,71.3224
100.0,169633.7,-27.37451,71.3029
215.44346900318823,68027.29,59.28315,71.316
464.15888336127773,236978.4,-20.92433,71.3174
1000.0,164221.3,-49.996,71.3082
2154.4346900318824,123170.3,-39.94281,71.3164
4641.588833612777,82358.71,-51.06713,71.3195
10000.0,50664.2,-64.85378,71.3227
