Frequency,Impedance,Phase Angle,Temperature (Dry Bath)
10.0,4369118.0,-6.547659,71.3591
21.544346900318832,8369104.0,-12.41557,71.3465
46.41588833612777,4693301.0,-7.503147,71.344
100.0,3780826.0,167.6931,71.3611
215.44346900318823,1454299.0,-75.08355,71.3422
464.15888336127773,1875530.0,53.54325,71.3561
1000.0,547438.4,-83.94216,71.3619
2154.4346900318824,489375.6,-50.46123,71.3427
4641.588833612777,369145.4,-59.32105,71.3418
10000.0,125408.7,-95.65656,71.363
