Frequency,Impedance,Phase Angle,Temperature (Dry Bath)
10.0,1109199.0,-8.469284,72.2448
21.544346900318832,1061090.0,-7.045822,72.2152
46.41588833612777,1071422.0,-12.06281,72.2059
100.0,410025.5,-15.24324,72.2205
215.44346900318823,449190.6,23.26424,72.2255
464.15888336127773,428470.1,-126.7692,72.2127
1000.0,332097.1,-77.42446,72.1979
2154.4346900318824,155555.4,-94.69719,72.2156
4641.588833612777,250088.9,-34.04585,72.2202
10000.0,173108.3,-44.21859,72.2193
