Frequency,Impedance,Phase Angle,Temperature (Dry Bath)
10.0,4773404.0,-36.40707,71.3745
21.544346900318832,6282011.0,-10.5874,71.3702
46.41588833612777,5158101.0,-39.39717,71.3939
100.0,1610133.0,35.09928,71.3841
215.44346900318823,2406292.0,175.8744,71.3833
464.15888336127773,321684.8,-103.5647,71.3721
1000.0,2035305.0,146.8342,71.3685
2154.4346900318824,257569.9,-102.5937,71.3818
4641.588833612777,134311.5,-85.20984,71.3829
10000.0,58281.1,-91.30721,71.3867
