Frequency,Impedance,Phase Angle,Temperature (Dry Bath)
10.0,6532596.0,33.84587,71.3248
21.544346900318832,5574849.0,18.42574,71.323
46.41588833612777,5288921.0,-12.21528,71.325
100.0,592051.4,11.34947,71.3291
215.44346900318823,2181579.0,-111.6843,71.3354
464.15888336127773,1103639.0,-68.13187,71.3352
1000.0,798565.8,94.3465,71.34
2154.4346900318824,344865.1,-64.84726,71.3577
4641.588833612777,165577.6,-66.20779,71.3609
10000.0,128279.6,-88.03754,71.3421
