Frequency,Impedance,Phase Angle,Temperature (Dry Bath)
10.0,73126.72,-14.29884,71.8613
21.544346900318832,65265.83,-13.20287,71.8605
46.41588833612777,59028.7,-12.03122,71.8723
100.0,54217.82,-13.50692,71.8697
215.44346900318823,46058.17,-3.506784,71.8574
464.15888336127773,45667.8,-11.32348,71.8586
1000.0,40202.63,-7.831366,71.8636
2154.4346900318824,44075.28,-6.268873,71.8653
4641.588833612777,37857.92,-8.210992,71.8512
10000.0,39042.9,-6.784064,71.8604
