Frequency,Impedance,Phase Angle,Temperature (Dry Bath)
10.0,5340222.0,-6.23693,71.2824
21.544346900318832,5186910.0,10.18203,71.2975
46.41588833612777,4484391.0,-10.10892,71.2891
100.0,662804.7,61.28581,71.296
215.44346900318823,382154.6,159.8148,71.2929
464.15888336127773,814213.5,-175.8986,71.3097
1000.0,261864.6,-96.65925,71.3022
2154.4346900318824,1709443.0,89.93041,71.2958
4641.588833612777,552547.9,29.54287,71.2885
10000.0,319816.5,-93.58205,71.2979
