Frequency,Impedance,Phase Angle,Temperature (Dry Bath)
10.0,3217007.0,-2.352011,72.2355
21.544346900318832,1999302.0,-7.549054,72.2254
46.41588833612777,1874304.0,-7.45987,72.2191
100.0,476375.3,-62.30019,72.2114
215.44346900318823,455147.1,101.0526,72.2272
464.15888336127773,958494.6,75.99915,72.2298
1000.0,1716978.0,-81.04405,72.2292
2154.4346900318824,781735.7,-71.83901,72.2374
4641.588833612777,202906.1,-60.12544,72.2198
10000.0,153669.7,-89.90347,72.2124
