Frequency,Impedance,Phase Angle,Temperature (Dry Bath)
10.0,4743698.0,-8.607228,70.734
21.544346900318832,5448858.0,-11.74175,70.7198
46.41588833612777,5238493.0,-16.01802,70.7366
100.0,1072299.0,-134.4766,70.7112
215.44346900318823,1142789.0,-82.93099,70.6975
464.15888336127773,681075.1,-132.554,70.7148
1000.0,652896.5,-78.60916,70.7122
2154.4346900318824,197655.1,-83.13664,70.7297
4641.588833612777,162245.9,-81.446,70.7201
10000.0,72798.35,-84.61311,70.6991
