Frequency,Impedance,Phase Angle,Temperature (Dry Bath)
10.0,51123.62,-21.07099,71.1857
21.544346900318832,43329.87,-20.55677,71.1854
46.41588833612777,36559.4,-21.06239,71.1815
100.0,29487.36,-20.14718,71.1837
215.44346900318823,26475.38,-25.15737,71.1894
464.15888336127773,21359.83,-26.515,71.1775
1000.0,17306.16,-29.40386,71.2065
2154.4346900318824,13359.42,-26.84738,71.1837
4641.588833612777,10503.37,-21.43995,71.1829
10000.0,8675.943,-21.56248,71.1841
