Frequency,Impedance,Phase Angle,Temperature (Dry Bath)
10.0,246146.2,-24.67058,71.3338
21.544346900318832,200541.5,-21.73637,71.3332
46.41588833612777,168501.8,-20.10406,71.3542
100.0,117913.0,-6.00011,71.3513
215.44346900318823,12361.41,-17.23868,71.3488
464.15888336127773,120409.6,-21.26715,71.3365
1000.0,95843.06,-18.35085,71.3501
2154.4346900318824,73342.32,-29.61969,71.3535
4641.588833612777,65609.01,-46.72708,71.3408
10000.0,45242.87,-61.13338,71.345
