Frequency,Impedance,Phase Angle,Temperature (Dry Bath)
10.0,2676653.0,-10.63364,71.2795
21.544346900318832,2471474.0,-11.14363,71.2836
46.41588833612777,2121295.0,-13.96203,71.2806
100.0,529224.8,-144.3343,71.294
215.44346900318823,9215.694,43.39759,71.2913
464.15888336127773,911902.0,-141.899,71.2803
1000.0,430172.5,-30.39956,71.2731
2154.4346900318824,237291.0,-82.14513,71.2861
4641.588833612777,140772.0,-75.7474,71.2965
10000.0,68225.31,-85.48728,71.2716
