Frequency,Impedance,Phase Angle,Temperature (Dry Bath)
10.0,12722.9,-23.35825,71.0845
21.544346900318832,10683.2,-19.71235,71.0718
46.41588833612777,9211.708,-16.71054,71.0687
100.0,8086.61,-13.64895,71.0736
215.44346900318823,7379.476,-12.57216,71.0729
464.15888336127773,6794.875,-11.05402,71.077
1000.0,6144.785,-9.696386,71.0987
2154.4346900318824,5691.217,-9.032907,71.0781
4641.588833612777,5337.964,-9.909803,71.0819
10000.0,5069.796,-10.80094,71.0805
