Frequency,Impedance,Phase Angle,Temperature (Dry Bath)
10.0,33670.23,-13.93602,71.4545
21.544346900318832,30232.98,-12.21786,71.4494
46.41588833612777,27444.82,-11.30273,71.4469
100.0,25310.42,-8.89482,71.4514
215.44346900318823,23624.11,-10.14158,71.4463
464.15888336127773,22199.57,-9.935243,71.439
1000.0,20483.26,-14.39045,71.4488
2154.4346900318824,18660.36,-10.65296,71.4306
4641.588833612777,17826.49,-13.70848,71.4348
10000.0,15661.12,-16.54993,71.4469
