Frequency,Impedance,Phase Angle,Temperature (Dry Bath)
10.0,5641280.0,-5.370153,28.7585
21.544346900318832,3925477.0,-1.325419,29.1021
46.41588833612777,4367082.0,-11.18437,29.1483
100.0,1003450.0,178.1618,29.227
215.44346900318823,1205110.0,-105.9528,29.0413
464.15888336127773,1311993.0,-162.6617,29.1823
1000.0,653508.0,148.1725,29.2561
2154.4346900318824,528343.6,-91.99851,29.2158
4641.588833612777,427702.3,-81.36548,29.2633
10000.0,161749.5,-86.42827,28.8477
