Frequency,Impedance,Phase Angle,Temperature (Dry Bath)
10.0,7942905.0,6.659016,71.1717
21.544346900318832,7714798.0,-13.66509,71.1763
46.41588833612777,6980731.0,-35.50029,71.1614
100.0,1424836.0,-32.09046,71.1875
215.44346900318823,577436.8,-3.971794,71.175
464.15888336127773,727817.9,-56.31986,71.1669
1000.0,273434.9,-51.85635,71.1744
2154.4346900318824,272200.3,-88.84142,71.1744
4641.588833612777,113650.2,-82.32216,71.1828
10000.0,67093.88,-90.23033,71.1598
