Frequency,Impedance,Phase Angle,Temperature (Dry Bath)
10.0,2580711.0,-21.8784,71.3864
21.544346900318832,2499051.0,-12.554,71.3728
46.41588833612777,3732957.0,-41.97767,71.3914
100.0,254574.2,-19.17808,71.3782
215.44346900318823,26948.23,-20.55411,71.3929
464.15888336127773,704516.0,-119.1073,71.3898
1000.0,480530.2,-33.57556,71.3838
2154.4346900318824,262426.9,-47.69074,71.3799
4641.588833612777,180322.3,-89.93851,71.3881
10000.0,65571.65,-85.95105,71.4039
