Frequency,Impedance,Phase Angle,Temperature (Dry Bath)
10.0,7862620.0,-37.19085,71.4639
21.544346900318832,5327737.0,1.355367,71.4646
46.41588833612777,7481883.0,-43.39828,71.456
100.0,388677.3,28.7584,71.4448
215.44346900318823,1559049.0,40.28805,71.4732
464.15888336127773,1137918.0,72.53233,71.4698
1000.0,280280.9,-86.12481,71.4592
2154.4346900318824,400310.3,-89.93375,71.4558
4641.588833612777,127058.1,-104.8238,71.4626
10000.0,67699.32,-89.32192,71.4534
