Frequency,Impedance,Phase Angle,Temperature (Dry Bath)
10.0,2620799.0,-0.2717945,70.9625
21.544346900318832,2908908.0,-19.35356,70.9503
46.41588833612777,3564811.0,-24.30959,70.9587
100.0,1157314.0,117.6487,70.9544
215.44346900318823,1044820.0,26.08028,70.9562
464.15888336127773,542506.3,19.49764,70.9668
1000.0,696830.4,-66.40975,70.9522
2154.4346900318824,227662.6,-53.68001,70.9571
4641.588833612777,129611.9,-77.67637,70.9556
10000.0,61727.68,-88.3214,70.9749
