Frequency,Impedance,Phase Angle,Temperature (Dry Bath)
10.0,683052.8,-29.39219,71.4532
21.544346900318832,600857.9,-29.32343,71.4663
46.41588833612777,443469.0,-24.9103,71.4607
100.0,321122.3,-5.783568,71.4693
215.44346900318823,342679.8,-11.76108,71.4588
464.15888336127773,266356.7,-44.24194,71.4781
1000.0,178559.7,-44.95591,71.4582
2154.4346900318824,130896.1,-45.93653,71.4583
4641.588833612777,100772.9,-59.31775,71.4453
10000.0,57570.62,-71.59878,71.4568
