Frequency,Impedance,Phase Angle,Temperature (Dry Bath)
10.0,2195289.0,-9.474201,72.2521
21.544346900318832,1932332.0,-7.192631,72.2491
46.41588833612777,1759731.0,-5.571734,72.242
100.0,361538.7,-3.01121,72.2463
215.44346900318823,366991.6,-119.6496,72.2328
464.15888336127773,725896.7,18.43971,72.2453
1000.0,381149.6,-50.47462,72.2536
2154.4346900318824,430464.7,-138.3005,72.2654
4641.588833612777,153797.7,-42.2959,72.2538
10000.0,111950.8,-86.63113,72.2458
