Frequency,Impedance,Phase Angle,Temperature (Dry Bath)
10.0,22456.99,-21.37621,71.3216
21.544346900318832,18622.62,-23.082,71.3152
46.41588833612777,15117.61,-24.36509,71.3115
100.0,12790.21,-25.53018,71.3162
215.44346900318823,9614.198,-25.63787,71.3124
464.15888336127773,7813.185,-24.41405,71.3118
1000.0,6376.645,-24.62659,71.318
2154.4346900318824,5129.082,-22.6888,71.3114
4641.588833612777,4147.709,-21.04992,71.3241
10000.0,3608.648,-19.53318,71.3268
