Frequency,Impedance,Phase Angle,Temperature (Dry Bath)
10.0,3970719.0,-9.567471,71.2202
21.544346900318832,5700484.0,-4.980955,71.2282
46.41588833612777,4397743.0,-12.56397,71.2299
100.0,808487.8,87.01267,71.2352
215.44346900318823,502700.2,-88.86489,71.2337
464.15888336127773,554335.3,-72.86468,71.2245
1000.0,2910325.0,-31.26386,71.2238
2154.4346900318824,349710.7,-75.35852,71.2213
4641.588833612777,112851.4,-91.96538,71.2297
10000.0,73882.31,-82.88381,71.2396
