Frequency,Impedance,Phase Angle,Temperature (Dry Bath)
10.0,808663.2,-13.04349,71.4061
21.544346900318832,804099.8,-11.64398,71.4192
46.41588833612777,701242.2,-8.334396,71.4055
100.0,371602.0,19.01545,71.4164
215.44346900318823,25558.5,75.13407,71.4002
464.15888336127773,498739.3,-39.51237,71.4103
1000.0,346254.0,-38.69773,71.4031
2154.4346900318824,230471.3,-69.86308,71.3901
4641.588833612777,103321.1,-53.50722,71.4032
10000.0,62450.56,-81.77327,71.3986
