Frequency,Impedance,Phase Angle,Temperature (Dry Bath)
10.0,4615301.0,-0.4653012,70.5695
21.544346900318832,4898261.0,-14.5023,70.5578
46.41588833612777,4897644.0,-23.55207,70.5688
100.0,429713.4,-29.04167,70.5563
215.44346900318823,739925.8,-66.32436,70.556
464.15888336127773,383006.6,-104.7426,70.5612
1000.0,453325.1,-77.92908,70.5505
2154.4346900318824,200634.2,-96.95546,70.5498
4641.588833612777,170209.0,-76.89843,70.5566
10000.0,61886.02,-84.01787,70.5363
