Frequency,Impedance,Phase Angle,Temperature (Dry Bath)
10.0,4950340.0,19.1126,71.4745
21.544346900318832,4445831.0,-2.154397,71.4801
46.41588833612777,4103946.0,-27.69554,71.482
100.0,261783.2,8.535961,71.4933
215.44346900318823,522346.5,-58.02958,71.4923
464.15888336127773,905600.6,29.9485,71.4884
1000.0,385268.3,-114.686,71.4745
2154.4346900318824,328543.4,-108.7455,71.4765
4641.588833612777,144364.0,-104.1316,71.466
10000.0,73476.58,-85.77529,71.4883
