Frequency,Impedance,Phase Angle,Temperature (Dry Bath)
10.0,4516284.0,0.4119631,70.9494
21.544346900318832,8277719.0,-47.12459,70.9455
46.41588833612777,3892865.0,-16.80263,70.9568
100.0,620330.8,-86.98793,70.9512
215.44346900318823,945056.1,83.06132,70.9519
464.15888336127773,480555.4,-10.72639,70.9493
1000.0,345108.1,-76.49291,70.9401
2154.4346900318824,298204.2,-72.41803,70.9452
4641.588833612777,119236.4,-90.69781,70.9697
10000.0,61025.35,-89.7854,70.9513
