Frequency,Impedance,Phase Angle,Temperature (Dry Bath)
10.0,6575235.0,-20.1616,71.4489
21.544346900318832,5362209.0,-6.677557,71.4553
46.41588833612777,6747959.0,-11.09176,71.4539
100.0,986323.8,-61.31992,71.4507
215.44346900318823,652777.1,17.18574,71.4453
464.15888336127773,2358515.0,60.62515,71.4377
1000.0,3601772.0,-61.36979,71.4434
2154.4346900318824,584158.0,-78.93519,71.4411
4641.588833612777,229854.5,-89.58669,71.4409
10000.0,153873.1,-99.69694,71.4447
