Frequency,Impedance,Phase Angle,Temperature (Dry Bath)
10.0,14528.3,-19.63291,71.0666
21.544346900318832,12531.52,-16.82519,71.0622
46.41588833612777,11053.44,-14.6343,71.0559
100.0,9648.17,-12.9645,71.0718
215.44346900318823,9100.222,-9.805296,71.0488
464.15888336127773,8329.687,-10.6441,71.0612
1000.0,7742.956,-10.09552,71.0668
2154.4346900318824,7194.352,-9.182821,71.0664
4641.588833612777,6758.604,-10.01172,71.0581
10000.0,6225.092,-12.97235,71.0569
