Frequency,Impedance,Phase Angle,Temperature (Dry Bath)
10.0,5083725.0,-10.69565,71.3927
21.544346900318832,4721745.0,5.342156,71.3939
46.41588833612777,5897747.0,-53.09184,71.3842
100.0,701085.2,36.70464,71.3747
215.44346900318823,89358.83,-7.256725,71.3793
464.15888336127773,746459.9,-118.2221,71.3765
1000.0,439888.8,-105.4092,71.3862
2154.4346900318824,311409.5,-76.79119,71.39
4641.588833612777,143991.7,-85.17358,71.3734
10000.0,65784.69,-83.20074,71.3836
