Frequency,Impedance,Phase Angle,Temperature (Dry Bath)
10.0,386580.0,-25.29721,71.1559
21.544346900318832,315194.4,-23.8556,71.1501
46.41588833612777,262483.4,-21.93069,71.1705
100.0,163571.4,-28.60696,71.1694
215.44346900318823,165061.2,-42.90554,71.1747
464.15888336127773,160016.6,-22.37162,71.1732
1000.0,151203.4,-10.03178,71.1687
2154.4346900318824,104759.5,-42.08508,71.167
4641.588833612777,83376.38,-37.40964,71.1596
10000.0,42826.89,-64.60757,71.1731
