Frequency,Impedance,Phase Angle,Temperature (Dry Bath)
10.0,4660098.0,4.229298,71.3039
21.544346900318832,4962632.0,-18.48605,71.2901
46.41588833612777,6065598.0,-57.02629,71.2938
100.0,368892.9,-79.42513,71.301
215.44346900318823,71567.52,-142.5764,71.2907
464.15888336127773,519722.4,-81.07665,71.2996
1000.0,405055.9,18.04977,71.2879
2154.4346900318824,494195.7,-84.15551,71.297
4641.588833612777,107386.3,-95.15046,71.3039
10000.0,78750.88,-86.52931,71.2899
