Frequency,Impedance,Phase Angle,Temperature (Dry Bath)
10.0,4751870.0,4.306649,71.2743
21.544346900318832,3817453.0,-1.996734,71.2774
46.41588833612777,3534723.0,-9.327464,71.2733
100.0,1796102.0,-24.06009,71.2752
215.44346900318823,1018961.0,-49.01471,71.2909
464.15888336127773,1668795.0,-11.98297,71.28
1000.0,557460.3,-140.9538,71.2732
2154.4346900318824,675839.3,-105.5456,71.2698
4641.588833612777,164982.3,-97.01082,71.2682
10000.0,101113.0,-79.80943,71.2805
