Frequency,Impedance,Phase Angle,Temperature (Dry Bath)
10.0,211637.5,-18.19389,71.3517
21.544346900318832,183667.6,-17.76691,71.3777
46.41588833612777,160249.1,-18.90009,71.3741
100.0,122731.0,-18.8851,71.3738
215.44346900318823,13467.29,-33.5301,71.3678
464.15888336127773,99822.07,-26.38911,71.3612
1000.0,69151.88,-41.79978,71.3641
2154.4346900318824,74990.17,-28.25791,71.3657
4641.588833612777,56390.2,-47.63627,71.3497
10000.0,35836.58,-53.49217,71.3699
