Frequency,Impedance,Phase Angle,Temperature (Dry Bath)
10.0,6506360.0,18.01765,71.2613
21.544346900318832,4019984.0,-19.47074,71.2715
46.41588833612777,7499747.0,-13.19665,71.2626
100.0,1371351.0,172.0383,71.2625
215.44346900318823,1421166.0,167.593,71.2699
464.15888336127773,370486.6,-96.36046,71.2669
1000.0,206467.9,-111.5626,71.2582
2154.4346900318824,260388.3,-91.35809,71.255
4641.588833612777,131181.8,-85.83558,71.2583
10000.0,61572.96,-81.76258,71.2543
