Frequency,Impedance,Phase Angle,Temperature (Dry Bath)
10.0,3715724.0,-6.842857,71.4713
21.544346900318832,4615329.0,-0.9432607,71.467
46.41588833612777,5081116.0,-15.30193,71.4717
100.0,463342.3,68.96673,71.4686
215.44346900318823,869776.8,172.8933,71.476
464.15888336127773,367319.8,-20.71298,71.456
1000.0,260470.3,-114.372,71.465
2154.4346900318824,169728.2,-91.64246,71.4765
4641.588833612777,130183.4,-88.51877,71.4788
10000.0,55725.92,-86.2857,71.4732
