Frequency,Impedance,Phase Angle,Temperature (Dry Bath)
10.0,176422.5,-15.10086,70.9288
21.544346900318832,152858.3,-14.24733,70.944
46.41588833612777,139624.1,-13.62553,70.9257
100.0,168812.5,-24.73945,70.9346
215.44346900318823,104522.8,-24.3712,70.9478
464.15888336127773,100424.3,-27.93884,70.9624
1000.0,79934.73,-16.63299,70.9526
2154.4346900318824,81143.86,-20.62512,70.9375
4641.588833612777,60127.74,-17.91092,70.9415
10000.0,60722.15,-35.71116,70.9527
