Frequency,Impedance,Phase Angle,Temperature (Dry Bath)
10.0,6327755.0,0.7284216,71.8595
21.544346900318832,7996062.0,-15.65676,71.8556
46.41588833612777,4380481.0,-6.988152,71.8542
100.0,580541.1,94.97242,71.8505
215.44346900318823,530403.1,-169.8035,71.8464
464.15888336127773,744967.9,-44.55223,71.857
1000.0,936787.8,-30.85979,71.8323
2154.4346900318824,385712.4,-67.97602,71.8441
4641.588833612777,305810.2,-88.58159,71.855
10000.0,140588.9,-81.27844,71.8533
