Frequency,Impedance,Phase Angle,Temperature (Dry Bath)
10.0,6110312.0,-40.52322,70.8837
21.544346900318832,4480104.0,-10.03204,70.91
46.41588833612777,3759230.0,-30.33334,70.8977
100.0,2355285.0,-141.4846,70.9055
215.44346900318823,586327.7,169.9591,70.9068
464.15888336127773,642740.0,-30.23714,70.914
1000.0,282240.5,-81.34041,70.9038
2154.4346900318824,174454.7,-89.04544,70.8923
4641.588833612777,152769.0,-80.1974,70.901
10000.0,61472.87,-88.21044,70.8953
