Frequency,Impedance,Phase Angle,Temperature (Dry Bath)
10.0,7417326.0,-7.24141,71.0574
21.544346900318832,4745019.0,-18.11883,71.0566
46.41588833612777,5995874.0,-5.117134,71.0426
100.0,751054.0,167.4078,71.0558
215.44346900318823,1233068.0,-96.45546,71.0537
464.15888336127773,552822.9,-136.78,71.0449
1000.0,416557.2,89.10814,71.0506
2154.4346900318824,544905.8,-28.14296,71.0539
4641.588833612777,243034.5,-74.80127,71.0539
10000.0,173118.6,-104.3869,71.0516
