Frequency,Impedance,Phase Angle,Temperature (Dry Bath)
10.0,7059999.0,-9.455572,71.255
21.544346900318832,4720442.0,-5.946116,71.2483
46.41588833612777,5384135.0,-22.26637,71.2366
100.0,489047.9,-0.5693544,71.2447
215.44346900318823,3299106.0,20.95036,71.2523
464.15888336127773,1050318.0,-6.335103,71.253
1000.0,574645.9,-74.26214,71.2285
2154.4346900318824,197622.9,-82.2743,71.2587
4641.588833612777,113985.7,-77.59385,71.2459
10000.0,61825.11,-89.90365,71.2512
