Frequency,Impedance,Phase Angle,Temperature (Dry Bath)
10.0,1893465.0,-25.45844,70.5092
21.544346900318832,1534346.0,-35.00719,70.5022
46.41588833612777,1030233.0,-32.71661,70.5093
100.0,362340.1,2.412465,70.4934
215.44346900318823,2043217.0,98.24861,70.4782
464.15888336127773,285333.5,-11.88352,70.4857
1000.0,278670.0,-43.7939,70.4918
2154.4346900318824,241408.7,-68.54155,70.4876
4641.588833612777,116143.6,-77.1509,70.4808
10000.0,58162.13,-88.35666,70.4841
