Frequency,Impedance,Phase Angle,Temperature (Dry Bath)
10.0,659303.3,-0.6795134,71.148
21.544346900318832,636899.2,-3.434004,71.1541
46.41588833612777,608631.0,-4.965607,71.1558
100.0,667333.7,-32.87161,71.1641
215.44346900318823,561672.5,-11.08659,71.1605
464.15888336127773,720289.2,-60.20153,71.1659
1000.0,730993.8,-34.46788,71.1635
2154.4346900318824,339534.3,-35.23511,71.1617
4641.588833612777,196621.8,-73.91902,71.1704
10000.0,102228.0,-70.98583,71.161
