Frequency,Impedance,Phase Angle,Temperature (Dry Bath)
10.0,302757.6,-24.54606,71.3048
21.544346900318832,242283.1,-22.14137,71.3019
46.41588833612777,207510.1,-20.18867,71.2928
100.0,240527.0,-20.06125,71.3007
215.44346900318823,148511.3,-7.617344,71.3068
464.15888336127773,127779.7,-15.73664,71.2911
1000.0,105715.7,-25.37322,71.3027
2154.4346900318824,86302.44,-37.10383,71.2911
4641.588833612777,70114.37,-50.56736,71.3031
10000.0,44160.95,-70.00244,71.2817
