Frequency,Impedance,Phase Angle,Temperature (Dry Bath)
10.0,613704.5,-2.514875,71.5492
21.544346900318832,579383.3,-3.764638,71.5549
46.41588833612777,527844.3,-7.458688,71.5436
100.0,384923.9,-36.27395,71.5621
215.44346900318823,727629.2,-8.715334,71.5487
464.15888336127773,407130.0,-8.56399,71.5552
1000.0,504417.2,-33.86794,71.5628
2154.4346900318824,337144.6,-40.65664,71.5543
4641.588833612777,202506.0,-61.60586,71.5646
10000.0,96149.67,-72.29565,71.5549
