Frequency,Impedance,Phase Angle,Temperature (Dry Bath)
10.0,9279.075,-25.64029,70.7091
21.544346900318832,7576.825,-22.44827,70.7167
46.41588833612777,6368.292,-19.44546,70.6896
100.0,5524.993,-17.07556,70.7302
215.44346900318823,4876.394,-14.15513,70.7198
464.15888336127773,4351.252,-11.94371,70.7253
1000.0,3979.984,-11.56136,70.7163
2154.4346900318824,3700.053,-9.785213,70.7094
4641.588833612777,3424.899,-9.180721,70.718
10000.0,3218.897,-9.546818,70.7058
