Frequency,Impedance,Phase Angle,Temperature (Dry Bath)
10.0,6918.224,-35.81699,70.6212
21.544346900318832,5231.366,-31.09426,70.6023
46.41588833612777,4121.762,-26.55256,70.6194
100.0,3346.485,-22.24039,70.6133
215.44346900318823,2856.568,-18.8375,70.6217
464.15888336127773,2499.174,-15.66711,70.6056
1000.0,2221.721,-12.69995,70.6174
2154.4346900318824,2026.323,-10.77834,70.6072
4641.588833612777,1879.836,-9.764534,70.6065
10000.0,1748.815,-8.895606,70.6068
