Frequency,Impedance,Phase Angle,Temperature (Dry Bath)
10.0,105878.4,-14.05493,71.7879
21.544346900318832,94701.82,-12.85657,71.7728
46.41588833612777,86272.91,-11.03326,71.7892
100.0,94632.04,6.298409,71.772
215.44346900318823,66396.38,-4.499189,71.8049
464.15888336127773,64943.88,-11.63332,71.7889
1000.0,56633.23,-29.36076,71.7693
2154.4346900318824,69747.79,-15.46836,71.8081
4641.588833612777,53515.63,-10.21782,71.7854
10000.0,50972.11,-29.97633,71.7634
