Frequency,Impedance,Phase Angle,Temperature (Dry Bath)
10.0,4939581.0,5.472775,71.3879
21.544346900318832,3435240.0,-37.17114,71.3705
46.41588833612777,4170087.0,-39.68251,71.386
100.0,115476.4,-103.8533,71.3814
215.44346900318823,590936.1,-52.79559,71.3813
464.15888336127773,531628.9,-53.76237,71.3709
1000.0,507027.9,-135.9141,71.3793
2154.4346900318824,670542.7,-107.3822,71.3951
4641.588833612777,157646.1,-79.00822,71.3881
10000.0,63122.85,-88.49649,71.4124
