Frequency,Impedance,Phase Angle,Temperature (Dry Bath)
10.0,4061806.0,-17.62276,70.725
21.544346900318832,4232869.0,-25.10729,70.7251
46.41588833612777,4552035.0,-29.33974,70.7461
100.0,1027918.0,-63.14319,70.7204
215.44346900318823,770778.1,-68.57038,70.7182
464.15888336127773,644802.2,-30.78525,70.7334
1000.0,291048.8,0.08979912,70.7242
2154.4346900318824,564230.2,-78.22982,70.7476
4641.588833612777,130547.8,-97.0822,70.7283
10000.0,59709.3,-92.3218,70.7321
