Frequency,Impedance,Phase Angle,Temperature (Dry Bath)
10.0,4896095.0,-14.67093,71.031
21.544346900318832,5159767.0,-6.143296,71.0332
46.41588833612777,8596236.0,-42.06547,71.0407
100.0,399137.7,23.54419,71.0379
215.44346900318823,926915.2,-138.2775,71.0236
464.15888336127773,862536.2,-43.03738,71.0463
1000.0,608451.9,-86.45426,71.0352
2154.4346900318824,323332.4,-76.85847,71.05
4641.588833612777,117875.2,-97.33731,71.0375
10000.0,57043.46,-81.97538,71.0402
