Frequency,Impedance,Phase Angle,Temperature (Dry Bath)
10.0,35764.61,-22.53623,71.3168
21.544346900318832,29682.09,-21.95087,71.3187
46.41588833612777,24852.26,-22.06376,71.3289
100.0,20174.39,-22.87004,71.321
215.44346900318823,17830.51,-20.20316,71.3153
464.15888336127773,14177.31,-25.07159,71.3169
1000.0,11471.32,-23.62223,71.3317
2154.4346900318824,9361.342,-24.33902,71.3292
4641.588833612777,7607.91,-23.14288,71.3279
10000.0,6360.978,-21.78951,71.3248
