Frequency,Impedance,Phase Angle,Temperature (Dry Bath)
10.0,27789420.0,-12.05581,70.5826
21.544346900318832,4980851.0,-31.21867,70.5674
46.41588833612777,4910791.0,-30.91337,70.5506
100.0,399739.7,10.51329,70.5632
215.44346900318823,831046.8,-10.23936,70.5662
464.15888336127773,618377.1,-43.30979,70.5593
1000.0,958455.2,112.308,70.5584
2154.4346900318824,314121.5,-101.6169,70.5774
4641.588833612777,126815.4,-78.79717,70.5635
10000.0,55235.37,-90.16111,70.5827
