Frequency,Impedance,Phase Angle,Temperature (Dry Bath)
10.0,64296.61,-16.16402,71.4456
21.544346900318832,57363.46,-15.05697,71.4455
46.41588833612777,51016.4,-13.89601,71.441
100.0,50624.4,-16.76601,71.4444
215.44346900318823,39427.44,-11.92087,71.4494
464.15888336127773,40349.67,-5.464528,71.4373
1000.0,36657.55,-11.63491,71.4554
2154.4346900318824,33107.71,-13.03864,71.4391
4641.588833612777,30359.54,-21.02778,71.4502
10000.0,26845.42,-35.75302,71.4561
