Frequency,Impedance,Phase Angle,Temperature (Dry Bath)
10.0,3566099.0,-7.766065,71.3108
21.544346900318832,4397813.0,-32.20061,71.313
46.41588833612777,7798657.0,-24.34881,71.3349
100.0,1288134.0,7.519343,71.3103
215.44346900318823,1373724.0,157.0095,71.3168
464.15888336127773,458748.5,-167.509,71.3166
1000.0,550183.4,143.1068,71.3135
2154.4346900318824,262767.4,-101.1492,71.3127
4641.588833612777,97816.52,-72.28386,71.3128
10000.0,51429.59,-82.51998,71.2972
