Frequency,Impedance,Phase Angle,Temperature (Dry Bath)
10.0,22147.44,-21.39741,71.0325
21.544346900318832,18316.54,-23.01135,71.0281
46.41588833612777,14890.73,-24.38456,71.0297
100.0,11981.34,-25.65081,71.0426
215.44346900318823,9707.729,-24.73257,71.0277
464.15888336127773,7646.525,-25.31839,71.0244
1000.0,6194.935,-24.64891,71.031
2154.4346900318824,5057.472,-23.16317,71.0234
4641.588833612777,4194.354,-20.49369,71.0213
10000.0,3564.35,-19.39832,71.0169
