Frequency,Impedance,Phase Angle,Temperature (Dry Bath)
10.0,5201697.0,-51.12402,71.3114
21.544346900318832,3575525.0,0.007341676,71.3097
46.41588833612777,4434316.0,-20.86306,71.3147
100.0,266656.7,-108.1947,71.3008
215.44346900318823,1684718.0,-83.55824,71.318
464.15888336127773,669518.8,-34.78899,71.3112
1000.0,558266.7,-80.16993,71.3002
2154.4346900318824,280221.4,-80.17886,71.3104
4641.588833612777,107022.2,-82.09908,71.2999
10000.0,63707.47,-91.064,71.3153
