Frequency,Impedance,Phase Angle,Temperature (Dry Bath)
10.0,4254567.0,7.780036,70.9197
21.544346900318832,6771213.0,7.282379,70.9064
46.41588833612777,4538108.0,-44.80158,70.9307
100.0,602302.2,38.17266,70.9035
215.44346900318823,1392480.0,-29.46461,70.8997
464.15888336127773,2145987.0,-36.2755,70.9199
1000.0,361602.9,-121.9034,70.9124
2154.4346900318824,225347.3,-91.93839,70.9111
4641.588833612777,99808.91,-88.91302,70.9162
10000.0,59951.37,-78.88267,70.9157
