Frequency,Impedance,Phase Angle,Temperature (Dry Bath)
10.0,8946.384,-27.93712,70.7279
21.544346900318832,7065.101,-26.9512,70.7573
46.41588833612777,5619.719,-25.4047,70.7485
100.0,4549.368,-23.51762,70.7322
215.44346900318823,3803.214,-20.18126,70.7382
464.15888336127773,3238.961,-17.49062,70.7335
1000.0,2793.945,-15.15303,70.7443
2154.4346900318824,2498.63,-12.98399,70.7195
4641.588833612777,2292.892,-11.611,70.7372
10000.0,2110.779,-11.61181,70.739
