Frequency,Impedance,Phase Angle,Temperature (Dry Bath)
10.0,6923554.0,4.601454,71.4529
21.544346900318832,4725285.0,4.170268,71.4676
46.41588833612777,5561918.0,-28.56983,71.4399
100.0,1665517.0,-97.9479,71.4529
215.44346900318823,837255.2,-29.10134,71.4664
464.15888336127773,4819206.0,50.74795,71.4559
1000.0,885575.7,-115.6941,71.4544
2154.4346900318824,321688.2,-80.73736,71.4645
4641.588833612777,242172.1,-84.54225,71.4606
10000.0,122492.1,-75.08695,71.4644
