Frequency,Impedance,Phase Angle,Temperature (Dry Bath)
10.0,930806.1,-6.240212,71.8752
21.544346900318832,909483.6,-11.68964,71.8726
46.41588833612777,891257.2,-8.491082,71.8577
100.0,458476.8,55.80356,71.866
215.44346900318823,598410.3,30.78813,71.864
464.15888336127773,347665.9,-47.32975,71.8636
1000.0,353596.5,-27.34756,71.8679
2154.4346900318824,263249.6,-49.87425,71.8727
4641.588833612777,193096.8,-63.23312,71.8697
10000.0,151030.7,-74.99858,71.8633
