Frequency,Impedance,Phase Angle,Temperature (Dry Bath)
10.0,333864.7,-14.69759,71.1795
21.544346900318832,319607.7,-15.3584,71.1969
46.41588833612777,274164.0,-14.2137,71.1822
100.0,247113.1,-7.334668,71.1748
215.44346900318823,211124.5,-13.0977,71.1949
464.15888336127773,252541.7,-30.62889,71.1974
1000.0,174542.8,-27.00022,71.1874
2154.4346900318824,128284.5,-39.35683,71.1885
4641.588833612777,90266.78,-56.12452,71.1862
10000.0,55225.31,-58.63887,71.194
