Frequency,Impedance,Phase Angle,Temperature (Dry Bath)
10.0,1125907.0,-11.30766,71.4323
21.544346900318832,981572.1,-9.32254,71.4538
46.41588833612777,891193.9,-11.09389,71.4487
100.0,186342.5,34.00406,71.4516
215.44346900318823,30863.51,-1.438734,71.4568
464.15888336127773,601082.1,-29.03708,71.4485
1000.0,1214921.0,-82.59827,71.4457
2154.4346900318824,233657.1,-92.37122,71.4483
4641.588833612777,110929.8,-75.01246,71.4598
10000.0,54779.15,-77.46716,71.4571
