Frequency,Impedance,Phase Angle,Temperature (Dry Bath)
10.0,10971.09,-24.84383,70.918
21.544346900318832,9081.644,-20.93349,70.9145
46.41588833612777,7753.869,-17.48835,70.9277
100.0,6878.515,-14.33533,70.9321
215.44346900318823,6070.372,-13.00953,70.9382
464.15888336127773,5613.205,-10.80695,70.9372
1000.0,5232.163,-9.481734,70.9257
2154.4346900318824,4843.971,-8.125023,70.9534
4641.588833612777,4592.628,-8.447676,70.9307
10000.0,4369.548,-9.763164,70.933
