Frequency,Impedance,Phase Angle,Temperature (Dry Bath)
10.0,12497.4,-26.65747,71.2478
21.544346900318832,10108.38,-24.01207,71.2576
46.41588833612777,8346.54,-21.26091,71.2598
100.0,7064.398,-18.35679,71.2466
215.44346900318823,6119.505,-16.4326,71.2427
464.15888336127773,5467.896,-14.39203,71.2483
1000.0,4861.214,-12.75026,71.2665
2154.4346900318824,4411.277,-11.84421,71.251
4641.588833612777,4034.978,-11.59332,71.2694
10000.0,3726.761,-12.89847,71.2509
