Frequency,Impedance,Phase Angle,Temperature (Dry Bath)
10.0,9085872.0,-48.36961,71.0037
21.544346900318832,4865155.0,-5.157203,70.999
46.41588833612777,4578288.0,12.73518,71.0047
100.0,1275567.0,-62.99511,71.0098
215.44346900318823,940214.8,-13.2859,70.9853
464.15888336127773,680992.2,146.3944,71.0055
1000.0,344219.2,-34.21335,71.0028
2154.4346900318824,566432.0,-52.76874,71.0256
4641.588833612777,319574.6,-63.94896,71.0194
10000.0,150320.6,-59.74986,71.0119
