Frequency,Impedance,Phase Angle,Temperature (Dry Bath)
10.0,3876255.0,-4.286943,71.2774
21.544346900318832,4464113.0,5.826895,71.2628
46.41588833612777,4259722.0,-25.69965,71.2501
100.0,374867.4,18.73502,71.269
215.44346900318823,759826.4,-106.37,71.2445
464.15888336127773,557317.4,-55.08567,71.2438
1000.0,1655223.0,-67.63809,71.2749
2154.4346900318824,263692.6,-112.7526,71.256
4641.588833612777,108292.0,-80.84312,71.2703
10000.0,61661.99,-88.27532,71.2572
