Frequency,Impedance,Phase Angle,Temperature (Dry Bath)
10.0,7471274.0,-1.299222,71.2785
21.544346900318832,4306405.0,-16.48397,71.2892
46.41588833612777,11611940.0,129.4769,71.2777
100.0,404510.3,130.8502,71.2997
215.44346900318823,45453.49,-81.60645,71.2842
464.15888336127773,560648.2,-56.62613,71.2985
1000.0,299417.7,-109.1551,71.2923
2154.4346900318824,316028.2,-105.6509,71.2991
4641.588833612777,129359.8,-77.16554,71.2859
10000.0,70362.18,-86.78525,71.2829
