Frequency,Impedance,Phase Angle,Temperature (Dry Bath)
10.0,5526393.0,-33.96147,71.584
21.544346900318832,4674184.0,-11.10621,71.5804
46.41588833612777,5168958.0,-7.471392,71.5719
100.0,295494.6,13.90344,71.5871
215.44346900318823,1407285.0,117.4424,71.5768
464.15888336127773,951944.6,-59.15118,71.5925
1000.0,1755199.0,8.191797,71.5825
2154.4346900318824,568214.3,-48.7454,71.5867
4641.588833612777,193763.3,-82.15292,71.5886
10000.0,134953.6,-80.41792,71.5852
