Frequency,Impedance,Phase Angle,Temperature (Dry Bath)
10.0,3458591.0,-36.40098,71.0063
21.544346900318832,4981808.0,-10.22078,71.011
46.41588833612777,5399360.0,-22.474,71.0024
100.0,472441.0,168.8395,70.9879
215.44346900318823,1422203.0,-50.25753,71.0166
464.15888336127773,684078.8,-55.44502,71.0088
1000.0,593476.3,-39.1312,70.9997
2154.4346900318824,201729.5,-72.06003,71.008
4641.588833612777,128546.7,-77.12004,71.0107
10000.0,58694.18,-90.96928,71.0148
