Frequency,Impedance,Phase Angle,Temperature (Dry Bath)
10.0,4099095.0,-9.877769,71.3689
21.544346900318832,3123103.0,4.067045,71.3754
46.41588833612777,8309625.0,36.28214,71.3689
100.0,847893.8,-56.87479,71.4006
215.44346900318823,121259.8,153.5206,71.3736
464.15888336127773,492995.3,-59.09787,71.38
1000.0,800213.7,-161.3612,71.3828
2154.4346900318824,614453.6,-81.47281,71.3721
4641.588833612777,211403.7,-85.3618,71.3662
10000.0,63442.65,-85.43265,71.3607
