Frequency,Impedance,Phase Angle,Temperature (Dry Bath)
10.0,5131691.0,-12.5667,70.9667
21.544346900318832,3386783.0,11.68923,70.9685
46.41588833612777,3713092.0,-14.61726,70.9687
100.0,485502.3,-25.7385,70.9764
215.44346900318823,3460774.0,157.5987,70.9741
464.15888336127773,395143.0,-42.15352,70.964
1000.0,391758.7,-162.0506,70.9751
2154.4346900318824,181398.5,-99.57992,70.9748
4641.588833612777,118949.3,-74.08603,70.963
10000.0,65058.59,-87.97249,70.9662
