Frequency,Impedance,Phase Angle,Temperature (Dry Bath)
10.0,148679.8,-10.07235,71.185
21.544346900318832,140091.0,-8.428248,71.1922
46.41588833612777,131077.2,-8.72323,71.1825
100.0,108832.0,-10.15551,71.1901
215.44346900318823,113429.1,-4.387497,71.1871
464.15888336127773,103823.9,-7.45476,71.1797
1000.0,94255.79,-17.48901,71.1977
2154.4346900318824,89841.6,-21.454,71.1794
4641.588833612777,66246.31,-35.7129,71.2002
10000.0,45364.87,-59.57232,71.1818
