Frequency,Impedance,Phase Angle,Temperature (Dry Bath)
10.0,203151.3,-18.05986,71.2572
21.544346900318832,175405.6,-18.37673,71.2617
46.41588833612777,153293.7,-18.33342,71.254
100.0,106738.7,-18.79209,71.2564
215.44346900318823,65872.92,-12.94109,71.2519
464.15888336127773,103020.7,-18.28547,71.2536
1000.0,86986.32,-20.39756,71.2572
2154.4346900318824,74820.49,-34.05598,71.2483
4641.588833612777,52141.75,-36.3293,71.2697
10000.0,35693.16,-51.97778,71.2516
