Frequency,Impedance,Phase Angle,Temperature (Dry Bath)
10.0,2240346.0,-22.4758,71.0447
21.544346900318832,2039176.0,-23.6982,71.0483
46.41588833612777,2115762.0,-22.69586,71.0494
100.0,405054.1,-31.42118,71.0316
215.44346900318823,607224.6,-26.60698,71.042
464.15888336127773,284721.9,-46.71607,71.0601
1000.0,290217.2,-56.18894,71.0479
2154.4346900318824,342084.7,-75.52654,71.0428
4641.588833612777,120154.2,-90.68354,71.0386
10000.0,54217.23,-78.41517,71.0469
