Frequency,Impedance,Phase Angle,Temperature (Dry Bath)
10.0,300057.9,-19.77837,71.6619
21.544346900318832,251471.9,-21.78906,71.6605
46.41588833612777,207079.4,-21.67419,71.6627
100.0,144675.3,-29.36237,71.6574
215.44346900318823,144071.5,-19.1039,71.6469
464.15888336127773,116644.9,-18.63597,71.6386
1000.0,93785.18,-6.442834,71.6554
2154.4346900318824,73160.7,-3.430656,71.6404
4641.588833612777,70231.9,-15.17005,71.6473
10000.0,72478.88,-38.07918,71.6399
