Frequency,Impedance,Phase Angle,Temperature (Dry Bath)
10.0,4110445.0,-12.00868,71.2179
21.544346900318832,6167862.0,-11.66927,71.2274
46.41588833612777,5691794.0,-13.85511,71.2178
100.0,920855.4,36.19863,71.2211
215.44346900318823,434507.8,-105.3439,71.2139
464.15888336127773,1891303.0,-10.94599,71.1981
1000.0,722576.6,-74.98208,71.203
2154.4346900318824,184018.8,-82.78098,71.2138
4641.588833612777,114199.0,-90.51763,71.2098
10000.0,57563.49,-84.11253,71.2314
