Frequency,Impedance,Phase Angle,Temperature (Dry Bath)
10.0,4783256.0,-5.620036,71.1838
21.544346900318832,4028901.0,-17.29921,71.1656
46.41588833612777,5342806.0,-42.84056,71.1744
100.0,1188919.0,33.86939,71.1867
215.44346900318823,1345915.0,25.27804,71.1604
464.15888336127773,628440.3,-8.281492,71.1869
1000.0,408447.6,-112.7394,71.179
2154.4346900318824,293529.3,-82.52221,71.1804
4641.588833612777,133064.8,-92.88689,71.1842
10000.0,76378.75,-86.8647,71.1735
