Frequency,Impedance,Phase Angle,Temperature (Dry Bath)
10.0,6290346.0,-14.58283,71.3603
21.544346900318832,6316907.0,-20.28715,71.3787
46.41588833612777,5338562.0,-2.406331,71.3799
100.0,569732.4,-45.4548,71.3804
215.44346900318823,3814576.0,-78.46389,71.3888
464.15888336127773,881382.4,-57.84965,71.3604
1000.0,1059497.0,-147.4536,71.3719
2154.4346900318824,429471.7,-103.1828,71.3668
4641.588833612777,271582.8,-80.07978,71.3726
10000.0,177130.4,-101.9365,71.3698
