Frequency,Impedance,Phase Angle,Temperature (Dry Bath)
10.0,159810.9,-15.95367,71.0867
21.544346900318832,143131.5,-13.23172,71.0902
46.41588833612777,129153.0,-13.17394,71.0684
100.0,110112.7,-10.18653,71.0605
215.44346900318823,106859.0,-19.04175,71.0616
464.15888336127773,89177.98,-16.98715,71.0765
1000.0,199286.6,9.749642,71.068
2154.4346900318824,66171.04,-16.64882,71.0733
4641.588833612777,58922.66,-26.02423,71.0641
10000.0,55584.69,-33.66292,71.0736
