Frequency,Impedance,Phase Angle,Temperature (Dry Bath)
10.0,51725.82,-16.49746,70.8826
21.544346900318832,46015.29,-14.32839,70.8915
46.41588833612777,41357.97,-13.52674,70.881
100.0,39392.1,-16.65116,70.8901
215.44346900318823,33292.8,-7.476467,70.892
464.15888336127773,30995.05,-9.05937,70.8882
1000.0,28070.18,-14.14103,70.9028
2154.4346900318824,25117.04,-12.86664,70.8953
4641.588833612777,22889.22,-17.342,70.8808
10000.0,19855.8,-26.52587,70.8976
