Frequency,Impedance,Phase Angle,Temperature (Dry Bath)
10.0,3599307.0,-8.449528,71.374
21.544346900318832,5721927.0,-33.74436,71.3843
46.41588833612777,6661668.0,-30.56612,71.3731
100.0,453704.5,-112.3532,71.3759
215.44346900318823,2125287.0,-37.43461,71.3546
464.15888336127773,581646.4,-87.30277,71.384
1000.0,763591.3,-64.87879,71.3657
2154.4346900318824,401220.3,-89.24662,71.3691
4641.588833612777,332855.3,-95.85063,71.3773
10000.0,135233.4,-75.34967,71.3576
