Frequency,Impedance,Phase Angle,Temperature (Dry Bath)
10.0,219856.7,-15.08865,71.0528
21.544346900318832,200644.2,-14.47344,71.0475
46.41588833612777,175873.1,-15.67704,71.05
100.0,145461.9,-29.15281,71.0521
215.44346900318823,178232.9,-25.09925,71.0508
464.15888336127773,108488.0,-11.58624,71.0503
1000.0,95275.78,-6.077106,71.0646
2154.4346900318824,104950.3,-30.45926,71.065
4641.588833612777,84513.28,-26.6892,71.061
10000.0,63510.47,-43.33275,71.0666
