Frequency,Impedance,Phase Angle,Temperature (Dry Bath)
10.0,3452809.0,-4.275704,70.7807
21.544346900318832,6149933.0,-18.33007,70.7956
46.41588833612777,4493731.0,-24.20346,70.803
100.0,765197.0,72.94173,70.7856
215.44346900318823,2352967.0,-25.57198,70.7869
464.15888336127773,592818.0,-119.4687,70.7829
1000.0,318064.2,-39.22779,70.7833
2154.4346900318824,484689.0,-98.75746,70.7929
4641.588833612777,111707.4,-75.66211,70.7966
10000.0,59978.75,-93.09895,70.7929
