Frequency,Impedance,Phase Angle,Temperature (Dry Bath)
10.0,3032506.0,-0.2159518,71.3505
21.544346900318832,2233653.0,-7.418339,71.3587
46.41588833612777,1898481.0,-15.81776,71.3429
100.0,4162845.0,95.36028,71.355
215.44346900318823,1121937.0,79.01706,71.3512
464.15888336127773,636279.8,-35.30742,71.3529
1000.0,285976.6,-79.17014,71.3488
2154.4346900318824,502246.4,-72.28037,71.3454
4641.588833612777,137691.9,-75.8745,71.3495
10000.0,68910.59,-78.84247,71.348
