Frequency,Impedance,Phase Angle,Temperature (Dry Bath)
10.0,34296.31,-10.99951,70.3451
21.544346900318832,31939.14,-9.5581,70.3455
46.41588833612777,29823.7,-9.059511,70.3379
100.0,28238.53,-10.92431,70.3234
215.44346900318823,26159.02,-9.639334,70.3371
464.15888336127773,24081.13,-15.25251,70.331
1000.0,23331.93,-7.83529,70.323
2154.4346900318824,22085.51,-11.06513,70.3351
4641.588833612777,19282.27,-16.5885,70.3184
10000.0,17729.31,-22.43599,70.3171
