Frequency,Impedance,Phase Angle,Temperature (Dry Bath)
10.0,4431497.0,-3.978487,71.4226
21.544346900318832,7112629.0,-14.75603,71.4149
46.41588833612777,4100791.0,-37.22282,71.4008
100.0,286172.1,-160.6155,71.4309
215.44346900318823,428317.7,-130.8315,71.4154
464.15888336127773,924908.4,-166.2028,71.4062
1000.0,457479.5,-60.07222,71.4111
2154.4346900318824,243628.2,-93.94078,71.3933
4641.588833612777,154350.3,-78.76009,71.3987
10000.0,75743.64,-80.66003,71.4203
