Frequency,Impedance,Phase Angle,Temperature (Dry Bath)
10.0,5185297.0,-8.727975,70.7891
21.544346900318832,7458940.0,2.764062,70.7944
46.41588833612777,3485091.0,-24.50272,70.7803
100.0,625271.1,39.5968,70.7766
215.44346900318823,5772076.0,-57.85903,70.7891
464.15888336127773,1183526.0,-110.5949,70.7902
1000.0,807228.9,-83.11935,70.7937
2154.4346900318824,332459.0,-106.3794,70.7917
4641.588833612777,132199.7,-82.8217,70.7795
10000.0,66987.97,-89.2259,70.7924
