Frequency,Impedance,Phase Angle,Temperature (Dry Bath)
10.0,4321797.0,4.880843,70.61
21.544346900318832,3559450.0,-6.435989,70.6136
46.41588833612777,3594621.0,-22.59555,70.6175
100.0,617414.0,-105.3732,70.6076
215.44346900318823,714258.6,-52.34659,70.5886
464.15888336127773,968977.2,-35.09209,70.6071
1000.0,159657.3,-48.74532,70.5949
2154.4346900318824,245046.7,-100.538,70.5951
4641.588833612777,100433.2,-81.79629,70.593
10000.0,48098.87,-88.21286,70.6044
