Frequency,Impedance,Phase Angle,Temperature (Dry Bath)
10.0,5479272.0,15.48051,70.8609
21.544346900318832,5673468.0,-13.96567,70.8637
46.41588833612777,4696896.0,-30.24534,70.8446
100.0,602232.7,-62.59229,70.8629
215.44346900318823,861411.9,55.85048,70.8521
464.15888336127773,1045962.0,-121.3005,70.8461
1000.0,331335.5,-116.8762,70.8659
2154.4346900318824,271164.5,-89.38207,70.8614
4641.588833612777,154168.7,-86.17745,70.8653
10000.0,57501.92,-85.63977,70.8529
