Frequency,Impedance,Phase Angle,Temperature (Dry Bath)
10.0,4503361.0,-6.406077,71.4699
21.544346900318832,5524050.0,-33.79744,71.4913
46.41588833612777,6718424.0,-14.62383,71.5063
100.0,686919.6,-27.06843,71.4703
215.44346900318823,1606891.0,51.74358,71.4763
464.15888336127773,566251.1,-115.9587,71.4837
1000.0,207133.9,-94.22437,71.4861
2154.4346900318824,382322.2,-91.25291,71.4854
4641.588833612777,143796.0,-87.59327,71.4858
10000.0,66339.7,-85.43794,71.4834
