Frequency,Impedance,Phase Angle,Temperature (Dry Bath)
10.0,2995842.0,4.718037,71.1916
21.544346900318832,5102884.0,-9.207107,71.1824
46.41588833612777,8231837.0,-29.69163,71.1879
100.0,887266.0,45.31018,71.1816
215.44346900318823,1248124.0,-9.200002,71.1686
464.15888336127773,3287199.0,-76.46823,71.1801
1000.0,666055.1,-101.9305,71.1801
2154.4346900318824,751970.7,-67.3168,71.1804
4641.588833612777,263109.8,-91.72933,71.1636
10000.0,135140.2,-79.6094,71.183
