Frequency,Impedance,Phase Angle,Temperature (Dry Bath)
10.0,5229141.0,-8.835695,71.2647
21.544346900318832,6423768.0,0.7470824,71.2539
46.41588833612777,3856982.0,-22.60136,71.2637
100.0,570089.4,-109.5896,71.25
215.44346900318823,820186.0,-4.999138,71.2592
464.15888336127773,641153.2,0.8096573,71.2605
1000.0,320286.9,-96.4399,71.2569
2154.4346900318824,259818.0,-98.78242,71.257
4641.588833612777,126307.1,-94.40851,71.2585
10000.0,64439.5,-84.71793,71.2318
