Frequency,Impedance,Phase Angle,Temperature (Dry Bath)
10.0,21151.85,-12.65238,71.4421
21.544346900318832,19244.37,-11.23653,71.4479
46.41588833612777,17657.05,-10.32021,71.4619
100.0,16180.1,-9.062722,71.4608
215.44346900318823,15088.82,-8.599094,71.445
464.15888336127773,14129.04,-8.4984,71.4399
1000.0,13258.88,-7.164978,71.4324
2154.4346900318824,12512.72,-8.0407,71.4403
4641.588833612777,11867.89,-7.757537,71.4426
10000.0,11447.05,-9.008025,71.4308
