Frequency,Impedance,Phase Angle,Temperature (Dry Bath)
10.0,6215206.0,-2.132289,71.1904
21.544346900318832,4907860.0,-21.98088,71.1842
46.41588833612777,4719113.0,-23.24107,71.1848
100.0,573778.9,-0.8305358,71.1811
215.44346900318823,421763.0,-35.60654,71.1796
464.15888336127773,848419.0,95.7589,71.1721
1000.0,419256.6,-33.65736,71.1866
2154.4346900318824,395779.5,-90.4838,71.1944
4641.588833612777,178057.3,-75.50725,71.1855
10000.0,63945.71,-85.12231,71.1849
