Frequency,Impedance,Phase Angle,Temperature (Dry Bath)
10.0,3201995.0,-11.93566,70.6007
21.544346900318832,7197553.0,23.85395,70.5938
46.41588833612777,4022637.0,-28.05884,70.5846
100.0,461760.4,-91.8424,70.5732
215.44346900318823,1698564.0,-177.8976,70.589
464.15888336127773,1007850.0,37.05768,70.5909
1000.0,329313.9,-95.42717,70.5906
2154.4346900318824,301891.5,-72.14161,70.5891
4641.588833612777,139343.0,-65.04492,70.569
10000.0,77347.51,-80.0281,70.5847
