Frequency,Impedance,Phase Angle,Temperature (Dry Bath)
10.0,5155240.0,-16.35516,71.5074
21.544346900318832,5691116.0,0.244815,71.5263
46.41588833612777,6531385.0,-43.70006,71.5193
100.0,295570.5,6.780289,71.5021
215.44346900318823,797063.4,27.54523,71.5135
464.15888336127773,715915.7,-81.22336,71.5318
1000.0,2383385.0,-61.14629,71.5257
2154.4346900318824,508082.8,-91.72294,71.5346
4641.588833612777,277172.4,-101.6764,71.525
10000.0,119694.1,-82.01816,71.5353
