Frequency,Impedance,Phase Angle,Temperature (Dry Bath)
10.0,57462.31,-15.38937,71.3737
21.544346900318832,51170.22,-13.93446,71.3802
46.41588833612777,46225.64,-12.71359,71.3818
100.0,40400.77,-9.696616,71.3758
215.44346900318823,38651.37,-9.739502,71.3839
464.15888336127773,34998.16,-10.60113,71.3807
1000.0,33104.13,-14.65653,71.3772
2154.4346900318824,32670.88,-10.84354,71.3925
4641.588833612777,26668.24,-16.41656,71.3941
10000.0,26406.05,-23.33077,71.38
