Frequency,Impedance,Phase Angle,Temperature (Dry Bath)
10.0,3776519.0,-31.3262,70.645
21.544346900318832,4882670.0,-24.73258,70.6602
46.41588833612777,3317062.0,-17.75793,70.6538
100.0,1194275.0,165.3479,70.6597
215.44346900318823,922810.3,151.363,70.6502
464.15888336127773,572772.2,-37.12167,70.6633
1000.0,367572.0,-52.45228,70.6583
2154.4346900318824,198514.3,-89.91407,70.6522
4641.588833612777,158144.0,-83.0485,70.6529
10000.0,62058.57,-76.24784,70.6366
