Frequency,Impedance,Phase Angle,Temperature (Dry Bath)
10.0,3828442.0,-6.849449,70.9273
21.544346900318832,6501075.0,-7.906094,70.9274
46.41588833612777,4418882.0,-34.92109,70.947
100.0,1028849.0,157.3825,70.9384
215.44346900318823,1159586.0,8.123349,70.9246
464.15888336127773,613606.8,-47.15617,70.9546
1000.0,696712.8,-75.41422,70.9281
2154.4346900318824,282080.0,-74.60721,70.9552
4641.588833612777,157368.5,-87.0327,70.9414
10000.0,63106.75,-79.88539,70.9237
