Frequency,Impedance,Phase Angle,Temperature (Dry Bath)
10.0,178146.1,-13.17735,71.352
21.544346900318832,162835.4,-11.96919,71.3585
46.41588833612777,149551.0,-9.348226,71.3591
100.0,129494.7,-17.23525,71.3721
215.44346900318823,30982.75,132.6155,71.3574
464.15888336127773,125060.0,-21.67876,71.3284
1000.0,96672.08,-16.44789,71.3501
2154.4346900318824,101435.3,-25.82697,71.3396
4641.588833612777,78327.2,-32.85415,71.3494
10000.0,50543.32,-51.20967,71.3628
