Frequency,Impedance,Phase Angle,Temperature (Dry Bath)
10.0,7200.89,-25.56698,70.4687
21.544346900318832,5889.016,-22.47576,70.4552
46.41588833612777,4959.371,-19.5897,70.4634
100.0,4309.639,-17.51744,70.4711
215.44346900318823,3728.874,-14.54655,70.4442
464.15888336127773,3384.045,-12.48707,70.4523
1000.0,3058.907,-10.4337,70.4432
2154.4346900318824,2831.494,-9.161607,70.4373
4641.588833612777,2683.532,-8.830257,70.4558
10000.0,2528.105,-8.685927,70.4414
