Frequency,Impedance,Phase Angle,Temperature (Dry Bath)
10.0,12298.57,-26.83935,71.2536
21.544346900318832,9899.186,-24.22634,71.2591
46.41588833612777,8153.518,-21.52913,71.2766
100.0,6961.711,-17.16058,71.2574
215.44346900318823,5986.492,-17.14218,71.2518
464.15888336127773,5274.817,-14.64056,71.2497
1000.0,4680.635,-12.41071,71.2451
2154.4346900318824,4274.08,-11.88013,71.2585
4641.588833612777,3894.809,-11.14554,71.2574
10000.0,3610.677,-12.12867,71.2494
