Frequency,Impedance,Phase Angle,Temperature (Dry Bath)
10.0,7318131.0,7.033376,71.068
21.544346900318832,5968212.0,-18.71911,71.0728
46.41588833612777,4745658.0,-16.96134,71.0702
100.0,2228101.0,-84.83149,71.0768
215.44346900318823,326762.0,-111.1638,71.0785
464.15888336127773,394109.5,-70.78907,71.0713
1000.0,659568.8,-55.35974,71.0796
2154.4346900318824,203652.5,-66.40263,71.0855
4641.588833612777,114242.2,-79.7704,71.0841
10000.0,59054.12,-90.94725,71.0774
