Frequency,Impedance,Phase Angle,Temperature (Dry Bath)
10.0,177744.7,-12.9205,71.2142
21.544346900318832,159966.9,-11.44467,71.2212
46.41588833612777,147940.4,-11.66983,71.2262
100.0,170975.3,-18.70452,71.2239
215.44346900318823,143313.4,4.094422,71.1956
464.15888336127773,95859.26,-15.49666,71.2058
1000.0,84487.79,-11.90761,71.2036
2154.4346900318824,85866.14,-22.69573,71.2249
4641.588833612777,74939.11,-41.6256,71.2187
10000.0,50851.6,-50.92884,71.2154
