Frequency,Impedance,Phase Angle,Temperature (Dry Bath)
10.0,5343374.0,10.99018,70.9637
21.544346900318832,5981349.0,-17.91539,70.9817
46.41588833612777,5260780.0,-15.02763,70.9826
100.0,404908.3,45.39295,70.9927
215.44346900318823,342648.4,-57.95604,70.9986
464.15888336127773,505929.3,55.00518,70.968
1000.0,199789.2,-104.0213,70.9889
2154.4346900318824,439149.4,-83.48432,70.9858
4641.588833612777,132908.1,-93.45329,70.9835
10000.0,134569.1,-87.28002,70.9731
