Frequency,Impedance,Phase Angle,Temperature (Dry Bath)
10.0,24297.35,-20.89393,71.3667
21.544346900318832,20501.11,-18.29977,71.376
46.41588833612777,17760.27,-15.76314,71.3732
100.0,16429.81,-13.05455,71.366
215.44346900318823,29290.55,11.64897,71.3595
464.15888336127773,13088.12,-10.00752,71.3723
1000.0,12488.74,-11.03296,71.3663
2154.4346900318824,11688.38,-8.394375,71.3594
4641.588833612777,10933.23,-10.40509,71.3796
10000.0,10535.07,-14.85174,71.3606
