Frequency,Impedance,Phase Angle,Temperature (Dry Bath)
10.0,4951789.0,16.20255,71.2155
21.544346900318832,4112300.0,10.83986,71.215
46.41588833612777,4669724.0,-10.4405,71.2195
100.0,553551.0,62.93371,71.2253
215.44346900318823,2253697.0,-93.99903,71.2119
464.15888336127773,737036.4,65.66133,71.2071
1000.0,388054.6,-120.6996,71.2155
2154.4346900318824,435331.2,-119.6985,71.2306
4641.588833612777,263106.7,-43.104,71.2224
10000.0,172017.3,-91.57159,71.2299
