Frequency,Impedance,Phase Angle,Temperature (Dry Bath)
10.0,7638.087,-35.58959,71.4664
21.544346900318832,5768.15,-31.17906,71.4699
46.41588833612777,4532.348,-26.85871,71.471
100.0,3674.789,-22.75768,71.4663
215.44346900318823,3093.133,-19.03901,71.4653
464.15888336127773,2693.684,-15.78749,71.4665
1000.0,2387.956,-13.05619,71.4744
2154.4346900318824,2186.232,-11.03807,71.4775
4641.588833612777,2021.929,-9.950056,71.4656
10000.0,1892.799,-8.612743,71.4635
