Frequency,Impedance,Phase Angle,Temperature (Dry Bath)
10.0,457752.2,-26.43007,70.9766
21.544346900318832,379319.2,-22.56991,70.98
46.41588833612777,326790.6,-19.72015,70.9656
100.0,738320.1,-27.32484,70.9743
215.44346900318823,289036.8,-16.06227,70.9863
464.15888336127773,229795.3,-58.29908,70.9802
1000.0,134071.5,-32.94655,70.9742
2154.4346900318824,101280.5,-47.85779,70.9773
4641.588833612777,82475.09,-65.43372,70.9791
10000.0,45703.88,-71.00145,70.9709
