Frequency,Impedance,Phase Angle,Temperature (Dry Bath)
10.0,53731.3,-15.66907,70.5139
21.544346900318832,47845.57,-14.47027,70.5241
46.41588833612777,42604.31,-13.3084,70.5135
100.0,39384.71,-17.67292,70.5
215.44346900318823,34705.52,-11.18161,70.5079
464.15888336127773,32450.94,-10.47703,70.5157
1000.0,31118.23,-16.02408,70.5098
2154.4346900318824,27331.61,-9.338373,70.5095
4641.588833612777,26405.13,-17.83199,70.5065
10000.0,22933.82,-29.34017,70.4982
