Frequency,Impedance,Phase Angle,Temperature (Dry Bath)
10.0,6923390.0,-23.08053,71.0693
21.544346900318832,6635218.0,-11.68213,71.0735
46.41588833612777,4548482.0,-10.06832,71.0794
100.0,1109506.0,33.89468,71.0724
215.44346900318823,2210305.0,92.55976,71.0786
464.15888336127773,721206.5,-151.21,71.0708
1000.0,2215847.0,97.31664,71.063
2154.4346900318824,196481.4,-80.54497,71.0672
4641.588833612777,117438.9,-92.43099,71.0804
10000.0,68680.2,-88.12377,71.0609
