Frequency,Impedance,Phase Angle,Temperature (Dry Bath)
10.0,4748870.0,9.078142,71.4396
21.544346900318832,13826200.0,-32.08408,71.4502
46.41588833612777,5810263.0,-3.468434,71.4288
100.0,3245777.0,-63.45935,71.4427
215.44346900318823,6049973.0,47.41105,71.4549
464.15888336127773,2002775.0,29.81057,71.4542
1000.0,3784896.0,-95.29585,71.4369
2154.4346900318824,464651.2,-71.27017,71.4518
4641.588833612777,273826.0,-94.79948,71.456
10000.0,143426.8,-84.08734,71.442
