Frequency,Impedance,Phase Angle,Temperature (Dry Bath)
10.0,152188.2,-9.357842,71.1931
21.544346900318832,140428.9,-9.17162,71.1964
46.41588833612777,132679.1,-8.073522,71.2056
100.0,126599.1,-10.78341,71.1982
215.44346900318823,106666.9,-8.829894,71.192
464.15888336127773,102989.7,-13.65437,71.1966
1000.0,117195.9,-10.17616,71.191
2154.4346900318824,78031.79,-27.26198,71.1994
4641.588833612777,63617.4,-46.79847,71.2083
10000.0,43073.86,-60.20597,71.1993
