Frequency,Impedance,Phase Angle,Temperature (Dry Bath)
10.0,4691545.0,3.738195,70.8829
21.544346900318832,6152953.0,-35.99498,70.8973
46.41588833612777,4019918.0,-36.63916,70.9047
100.0,9196021.0,23.96116,70.8787
215.44346900318823,427873.3,1.744757,70.889
464.15888336127773,903943.8,-74.9048,70.8683
1000.0,447003.1,-94.35191,70.8727
2154.4346900318824,271659.2,-73.08848,70.8912
4641.588833612777,153423.4,-96.59013,70.8857
10000.0,58057.72,-90.25757,70.891
