Frequency,Impedance,Phase Angle,Temperature (Dry Bath)
10.0,140566.3,-13.23122,70.9842
21.544346900318832,127675.8,-12.97167,70.9872
46.41588833612777,114398.6,-13.00076,70.9787
100.0,88944.78,-29.04892,70.9818
215.44346900318823,101363.0,-4.767806,70.9526
464.15888336127773,90753.42,-23.41522,70.9611
1000.0,70586.25,-24.14935,70.9818
2154.4346900318824,69882.88,-33.05802,70.9603
4641.588833612777,48274.38,-35.51094,70.9765
10000.0,32013.12,-53.54754,70.9829
