Frequency,Impedance,Phase Angle,Temperature (Dry Bath)
10.0,11868.53,-25.38654,71.2025
21.544346900318832,9693.729,-22.69149,71.2039
46.41588833612777,8095.819,-20.07761,71.2218
100.0,7021.088,-18.82456,71.2107
215.44346900318823,6053.286,-15.34248,71.2163
464.15888336127773,5348.787,-12.85089,71.2107
1000.0,4843.329,-11.15462,71.229
2154.4346900318824,4507.28,-9.921016,71.2069
4641.588833612777,4191.422,-9.509539,71.2232
10000.0,3957.11,-10.64913,71.2004
