Frequency,Impedance,Phase Angle,Temperature (Dry Bath)
10.0,54055.69,-16.81342,70.8353
21.544346900318832,48300.35,-14.87823,70.8299
46.41588833612777,43139.68,-13.7476,70.8345
100.0,38452.71,-15.33492,70.8362
215.44346900318823,34840.6,-12.94609,70.8314
464.15888336127773,32688.26,-12.64334,70.838
1000.0,30181.58,-11.3687,70.8295
2154.4346900318824,27527.06,-15.07749,70.8348
4641.588833612777,24177.3,-18.83584,70.8427
10000.0,20686.73,-24.40655,70.8283
