Frequency,Impedance,Phase Angle,Temperature (Dry Bath)
10.0,3961339.0,-4.15839,71.5538
21.544346900318832,10220610.0,23.98845,71.5628
46.41588833612777,4693775.0,-29.77757,71.5344
100.0,455661.4,-27.18099,71.5505
215.44346900318823,2095894.0,-146.2856,71.5699
464.15888336127773,783498.2,-160.5409,71.5367
1000.0,1045787.0,-56.42029,71.55
2154.4346900318824,585598.8,-55.21556,71.5486
4641.588833612777,234148.4,-80.04808,71.5631
10000.0,122937.0,-96.86244,71.557
