Frequency,Impedance,Phase Angle,Temperature (Dry Bath)
10.0,5795627.0,-9.049286,71.4103
21.544346900318832,4297996.0,-24.15175,71.3978
46.41588833612777,7315912.0,1.421642,71.3988
100.0,476148.1,-172.112,71.404
215.44346900318823,1269295.0,-172.6272,71.4162
464.15888336127773,2112495.0,-88.79528,71.3905
1000.0,676674.7,21.79483,71.4054
2154.4346900318824,224596.9,-78.70155,71.4048
4641.588833612777,153303.3,-83.08088,71.3827
10000.0,83579.36,-86.25082,71.4023
