Frequency,Impedance,Phase Angle,Temperature (Dry Bath)
10.0,11180.6,-26.1917,70.9033
21.544346900318832,9104.119,-22.81971,70.8915
46.41588833612777,7610.35,-19.72242,70.8711
100.0,6449.612,-17.27051,70.8837
215.44346900318823,5789.373,-14.08539,70.8837
464.15888336127773,5227.462,-11.70724,70.8843
1000.0,4819.901,-10.26169,70.8626
2154.4346900318824,4481.035,-9.400671,70.8882
4641.588833612777,4165.026,-10.55118,70.8835
10000.0,3822.876,-11.22362,70.8619
