Frequency,Impedance,Phase Angle,Temperature (Dry Bath)
10.0,83425.38,-12.00359,71.1318
21.544346900318832,76796.08,-10.59027,71.1355
46.41588833612777,71067.23,-9.00835,71.1464
100.0,61498.07,-14.44689,71.1201
215.44346900318823,64528.91,-8.17966,71.1302
464.15888336127773,57711.61,-13.33832,71.1144
1000.0,63004.01,-9.781969,71.1358
2154.4346900318824,62464.04,-12.91099,71.1463
4641.588833612777,53933.27,-11.11063,71.1433
10000.0,46319.87,-36.38553,71.1527
