Frequency,Impedance,Phase Angle,Temperature (Dry Bath)
10.0,6372910.0,-6.872795,71.2636
21.544346900318832,5242921.0,-24.71312,71.2545
46.41588833612777,7725581.0,-43.10085,71.2771
100.0,439826.0,-1.604174,71.2609
215.44346900318823,642115.9,-90.37988,71.2689
464.15888336127773,2779267.0,174.6059,71.2652
1000.0,292544.0,-106.6265,71.2609
2154.4346900318824,317341.1,-98.31277,71.2587
4641.588833612777,129728.6,-80.66782,71.2716
10000.0,63641.27,-87.69031,71.2779
