Frequency,Impedance,Phase Angle,Temperature (Dry Bath)
10.0,3576803.0,26.07668,71.0868
21.544346900318832,4622858.0,12.79026,71.0832
46.41588833612777,4051843.0,-24.04754,71.0936
100.0,277444.5,5.784848,71.0851
215.44346900318823,516002.0,13.35512,71.09
464.15888336127773,710864.6,-121.8087,71.076
1000.0,472916.6,-65.44208,71.0788
2154.4346900318824,293612.9,-94.51712,71.0855
4641.588833612777,120779.4,-79.75411,71.0764
10000.0,62036.45,-92.21914,71.1006
