Frequency,Impedance,Phase Angle,Temperature (Dry Bath)
10.0,7130212.0,-28.22945,70.6676
21.544346900318832,6208505.0,-14.60963,70.6704
46.41588833612777,4679184.0,-17.58523,70.6563
100.0,852569.4,179.6718,70.6525
215.44346900318823,549167.7,-75.26552,70.657
464.15888336127773,1050689.0,-163.6267,70.652
1000.0,526826.9,-59.3488,70.6621
2154.4346900318824,261599.0,-94.40582,70.6728
4641.588833612777,109803.7,-91.77987,70.6617
10000.0,65701.96,-80.30317,70.652
