Frequency,Impedance,Phase Angle,Temperature (Dry Bath)
10.0,221439.3,-26.08167,71.2612
21.544346900318832,180583.5,-23.34448,71.262
46.41588833612777,149470.1,-21.10425,71.2624
100.0,113448.7,-22.90784,71.2422
215.44346900318823,106620.3,-15.10979,71.2512
464.15888336127773,78964.39,-25.69632,71.2631
1000.0,75898.12,-21.63418,71.2459
2154.4346900318824,70628.08,-28.87116,71.2491
4641.588833612777,52540.11,-40.75416,71.2627
10000.0,35350.29,-54.13596,71.2701
