Frequency,Impedance,Phase Angle,Temperature (Dry Bath)
10.0,5077481.0,7.336446,70.9658
21.544346900318832,3890972.0,-16.61094,70.9703
46.41588833612777,5363694.0,-36.88254,70.9658
100.0,1434221.0,86.75062,70.9725
215.44346900318823,7327155.0,136.0062,70.963
464.15888336127773,617684.2,-73.27638,70.9771
1000.0,787310.4,-57.54772,70.9589
2154.4346900318824,217559.2,-76.31843,70.9601
4641.588833612777,105117.1,-79.67897,70.9722
10000.0,55710.29,-90.185,70.9767
