Frequency,Impedance,Phase Angle,Temperature (Dry Bath)
10.0,10482330.0,-11.81559,71.3748
21.544346900318832,4119578.0,-24.18553,71.3718
46.41588833612777,4404027.0,-27.71725,71.3654
100.0,944191.6,-25.01865,71.3767
215.44346900318823,1072606.0,-133.4182,71.3663
464.15888336127773,676428.3,-81.62994,71.3695
1000.0,446694.2,-48.87204,71.3751
2154.4346900318824,277255.9,-62.22009,71.3688
4641.588833612777,134632.4,-79.63542,71.3693
10000.0,61163.84,-85.5747,71.3709
