Frequency,Impedance,Phase Angle,Temperature (Dry Bath)
10.0,4822104.0,15.72432,71.0387
21.544346900318832,3860479.0,-11.6447,71.0375
46.41588833612777,4359414.0,5.669977,71.0381
100.0,528525.0,-1.655017,71.0492
215.44346900318823,590355.8,-27.7163,71.0416
464.15888336127773,347489.0,-65.45456,71.0172
1000.0,319434.7,-103.3069,71.0118
2154.4346900318824,1281399.0,-63.89099,71.033
4641.588833612777,232189.5,-80.97171,71.0283
10000.0,242720.5,-104.1692,71.0268
