Frequency,Impedance,Phase Angle,Temperature (Dry Bath)
10.0,720467.3,-4.949622,71.2751
21.544346900318832,689889.9,-2.451534,71.2712
46.41588833612777,657761.7,-2.851114,71.2588
100.0,339588.2,-36.57088,71.2654
215.44346900318823,845974.3,30.0722,71.2776
464.15888336127773,357431.5,16.9345,71.2772
1000.0,561011.2,-24.80283,71.2637
2154.4346900318824,457700.6,-52.45148,71.2725
4641.588833612777,142830.3,-75.03453,71.2472
10000.0,147493.2,-77.02652,71.2588
