Frequency,Impedance,Phase Angle,Temperature (Dry Bath)
10.0,9276.903,-24.32719,71.3617
21.544346900318832,7441.414,-25.44839,71.3553
46.41588833612777,5915.98,-25.55682,71.3433
100.0,4754.721,-24.64915,71.363
215.44346900318823,3855.036,-22.9169,71.3576
464.15888336127773,3172.661,-20.52902,71.3399
1000.0,2686.865,-18.11327,71.3387
2154.4346900318824,2330.979,-15.67545,71.3663
4641.588833612777,2066.303,-13.82926,71.3604
10000.0,1862.55,-12.31534,71.3609
