Frequency,Impedance,Phase Angle,Temperature (Dry Bath)
10.0,37244.12,-20.02078,71.424
21.544346900318832,31694.04,-18.86039,71.4165
46.41588833612777,27243.94,-18.53139,71.4128
100.0,23345.36,-18.40837,71.4054
215.44346900318823,20402.63,-18.74841,71.4322
464.15888336127773,18144.65,-15.2291,71.4192
1000.0,15547.28,-13.23332,71.4001
2154.4346900318824,13909.51,-11.88695,71.4206
4641.588833612777,12900.11,-12.53976,71.3949
10000.0,11978.5,-13.01001,71.3906
