Frequency,Impedance,Phase Angle,Temperature (Dry Bath)
10.0,6046278.0,-23.1781,70.9997
21.544346900318832,4625705.0,6.819434,70.9806
46.41588833612777,4412981.0,-19.42427,70.9736
100.0,558512.9,26.52958,70.9842
215.44346900318823,788212.8,-101.9841,70.9899
464.15888336127773,743757.0,-157.4602,70.996
1000.0,360880.0,-96.31562,70.9929
2154.4346900318824,269293.2,-64.33447,70.9818
4641.588833612777,121845.1,-86.05838,70.9805
10000.0,60637.91,-85.5424,70.9931
