Frequency,Impedance,Phase Angle,Temperature (Dry Bath)
10.0,3565192.0,7.156639,29.1588
21.544346900318832,6711386.0,0.6330939,29.2039
46.41588833612777,5837667.0,-14.37855,29.1429
100.0,936012.0,-33.85039,29.2257
215.44346900318823,2506735.0,-70.07569,29.1804
464.15888336127773,1047457.0,-70.66343,28.8965
1000.0,1587308.0,-77.66437,29.2507
2154.4346900318824,688272.4,-66.14837,29.1144
4641.588833612777,302130.4,-73.31217,29.2989
10000.0,159836.8,-87.5913,28.6561
