Frequency,Impedance,Phase Angle,Temperature (Dry Bath)
10.0,6439889.0,19.84032,71.421
21.544346900318832,4429319.0,-6.761143,71.4059
46.41588833612777,2561127.0,-59.80367,71.4056
100.0,824706.7,63.42733,71.4271
215.44346900318823,28395.02,-148.1888,71.4005
464.15888336127773,320382.6,115.713,71.4236
1000.0,1640169.0,-1.03659,71.3953
2154.4346900318824,224594.4,-98.53685,71.3978
4641.588833612777,105986.4,-91.14777,71.3907
10000.0,59749.48,-84.96406,71.4006
