Frequency,Impedance,Phase Angle,Temperature (Dry Bath)
10.0,6648870.0,5.439028,72.2154
21.544346900318832,7052495.0,-4.025094,72.2123
46.41588833612777,4865188.0,-5.255054,72.222
100.0,994304.3,95.90005,72.1835
215.44346900318823,2517185.0,-2.450833,72.2202
464.15888336127773,818386.0,48.90406,72.2028
1000.0,338349.0,-112.7205,72.224
2154.4346900318824,296027.3,-126.6264,72.2144
4641.588833612777,387439.9,-96.55316,72.2184
10000.0,188487.3,-94.00158,72.2252
