Frequency,Impedance,Phase Angle,Temperature (Dry Bath)
10.0,798748.1,-7.082306,70.363
21.544346900318832,667864.5,-3.599392,70.3767
46.41588833612777,676221.7,-2.487882,70.3524
100.0,779361.1,-105.5631,70.3758
215.44346900318823,584283.9,34.90922,70.3779
464.15888336127773,594760.7,-16.67403,70.3786
1000.0,399410.7,-30.62944,70.369
2154.4346900318824,412252.8,-71.06337,70.3777
4641.588833612777,416304.9,-47.15788,70.3766
10000.0,112653.7,-64.69608,70.3805
