Frequency,Impedance,Phase Angle,Temperature (Dry Bath)
10.0,12595740.0,-5.482881,71.2149
21.544346900318832,5785486.0,8.514991,71.2219
46.41588833612777,5314891.0,-28.65697,71.2131
100.0,697432.4,116.2444,71.2135
215.44346900318823,1221739.0,176.1424,71.2099
464.15888336127773,863545.2,-57.84682,71.2186
1000.0,364440.8,74.47612,71.217
2154.4346900318824,361281.8,-79.30705,71.2314
4641.588833612777,123797.9,-80.74495,71.2185
10000.0,67223.84,-92.50979,71.2193
