Frequency,Impedance,Phase Angle,Temperature (Dry Bath)
10.0,25387260.0,42.30161,71.0991
21.544346900318832,6845321.0,-24.18352,71.1297
46.41588833612777,4563244.0,-20.91943,71.1131
100.0,1087179.0,21.52235,71.1067
215.44346900318823,2075384.0,-56.58983,71.1245
464.15888336127773,419507.3,-63.83406,71.0951
1000.0,352754.4,-114.0842,71.1042
2154.4346900318824,232363.2,-129.6179,71.1204
4641.588833612777,140298.5,-86.32858,71.1021
10000.0,70490.31,-92.5216,71.1161
