Frequency,Impedance,Phase Angle,Temperature (Dry Bath)
10.0,13273.12,-20.75809,71.3585
21.544346900318832,11311.34,-17.90509,71.3584
46.41588833612777,9861.143,-15.50975,71.3655
100.0,8739.641,-11.90075,71.351
215.44346900318823,7814.232,-10.88469,71.3617
464.15888336127773,7340.022,-9.984149,71.3562
1000.0,6628.989,-8.981233,71.3569
2154.4346900318824,6364.62,-8.286553,71.3492
4641.588833612777,6079.409,-9.188103,71.353
10000.0,5661.119,-11.34648,71.3647
