Frequency,Impedance,Phase Angle,Temperature (Dry Bath)
10.0,3697696.0,-4.977863,71.4824
21.544346900318832,4941552.0,-13.40662,71.4867
46.41588833612777,4623709.0,-25.60191,71.4819
100.0,445717.1,-138.726,71.483
215.44346900318823,757731.1,-34.46805,71.512
464.15888336127773,952369.9,-93.34838,71.4942
1000.0,178560.0,139.7166,71.4864
2154.4346900318824,194750.0,-70.20361,71.4525
4641.588833612777,103125.6,-73.59134,71.4737
10000.0,51885.69,-89.15324,71.4814
