Frequency,Impedance,Phase Angle,Temperature (Dry Bath)
10.0,4936621.0,17.16004,71.4072
21.544346900318832,11981810.0,22.17819,71.4078
46.41588833612777,5808141.0,-17.53258,71.4061
100.0,930306.1,17.6235,71.4092
215.44346900318823,1750647.0,122.8044,71.4049
464.15888336127773,610862.7,8.293834,71.4101
1000.0,700725.6,-13.6482,71.3982
2154.4346900318824,425626.7,-66.56985,71.3897
4641.588833612777,184601.4,-113.2817,71.3999
10000.0,156535.7,-89.63914,71.3965
