Frequency,Impedance,Phase Angle,Temperature (Dry Bath)
10.0,3258778.0,-5.359689,71.2834
21.544346900318832,4450619.0,-30.21206,71.2852
46.41588833612777,2218880.0,-29.33166,71.2669
100.0,279147.4,-136.5575,71.2869
215.44346900318823,27163.45,-138.4619,71.2693
464.15888336127773,710348.5,-90.40677,71.273
1000.0,489332.8,-95.75768,71.2748
2154.4346900318824,203643.5,-89.16247,71.2791
4641.588833612777,113545.9,-76.31539,71.2803
10000.0,63178.61,-80.66033,71.2803
