Frequency,Impedance,Phase Angle,Temperature (Dry Bath)
10.0,4176406.0,4.211074,71.3537
21.544346900318832,6754258.0,-39.29987,71.3486
46.41588833612777,3943447.0,-29.98999,71.3601
100.0,616388.5,91.9947,71.3585
215.44346900318823,355200.0,-56.17855,71.3641
464.15888336127773,598937.2,-79.42649,71.3689
1000.0,330370.5,-131.5922,71.364
2154.4346900318824,274183.7,-69.60841,71.3719
4641.588833612777,138464.7,-97.02366,71.3712
10000.0,70595.06,-86.19865,71.366
