Frequency,Impedance,Phase Angle,Temperature (Dry Bath)
10.0,2501382.0,-3.818464,71.4513
21.544346900318832,2776334.0,-15.01945,71.4575
46.41588833612777,1965881.0,-18.8247,71.464
100.0,463775.5,-4.317801,71.4794
215.44346900318823,704659.2,-147.8779,71.4723
464.15888336127773,533047.6,-19.25979,71.4541
1000.0,154228.1,-66.12211,71.4867
2154.4346900318824,290161.9,-47.83274,71.448
4641.588833612777,132866.1,-79.80703,71.4766
10000.0,70047.27,-97.7035,71.4722
