Frequency,Impedance,Phase Angle,Temperature (Dry Bath)
10.0,5598258.0,-23.70519,71.3261
21.544346900318832,4916257.0,11.67395,71.3272
46.41588833612777,6433136.0,-7.219008,71.3347
100.0,1924979.0,72.41508,71.3247
215.44346900318823,689669.3,58.00757,71.3281
464.15888336127773,552483.6,-63.53927,71.3291
1000.0,395713.1,-31.91981,71.3242
2154.4346900318824,740935.1,-67.21581,71.3283
4641.588833612777,523296.8,-94.97585,71.3316
10000.0,144400.7,-73.07726,71.3217
