Frequency,Impedance,Phase Angle,Temperature (Dry Bath)
10.0,39441150.0,-91.03034,70.3789
21.544346900318832,7512472.0,3.24042,70.3631
46.41588833612777,5656191.0,-17.11812,70.3705
100.0,1678201.0,-173.0245,70.3958
215.44346900318823,1670878.0,79.96393,70.3735
464.15888336127773,1158390.0,-38.50918,70.3805
1000.0,498013.8,-104.7557,70.3773
2154.4346900318824,680333.9,-125.2467,70.3937
4641.588833612777,464040.0,-91.7692,70.3868
10000.0,124785.4,-75.1689,70.3824
