Frequency,Impedance,Phase Angle,Temperature (Dry Bath)
10.0,7211605.0,14.03841,71.5056
21.544346900318832,5477498.0,13.46454,71.509
46.41588833612777,4480076.0,-15.77459,71.5026
100.0,727359.9,-128.157,71.5312
215.44346900318823,1730850.0,-33.875,71.5156
464.15888336127773,1251307.0,-99.66232,71.5132
1000.0,906318.6,-123.758,71.5196
2154.4346900318824,1153540.0,-11.27187,71.5248
4641.588833612777,453309.8,-92.30271,71.5282
10000.0,165348.8,-89.11455,71.5228
