Frequency,Impedance,Phase Angle,Temperature (Dry Bath)
10.0,8313661.0,-26.94355,71.0323
21.544346900318832,5174344.0,-16.2987,71.0277
46.41588833612777,3758033.0,-16.18062,71.0162
100.0,525574.3,-137.2227,71.027
215.44346900318823,2130730.0,-94.85433,71.0299
464.15888336127773,546178.9,144.6846,71.0159
1000.0,731543.6,-123.386,71.023
2154.4346900318824,237226.2,-74.82681,71.0291
4641.588833612777,194382.9,-84.59209,71.0382
10000.0,58958.68,-86.45154,71.0572
