Frequency,Impedance,Phase Angle,Temperature (Dry Bath)
10.0,3025599.0,-13.9492,70.7053
21.544346900318832,2831089.0,-4.119436,70.6962
46.41588833612777,3042048.0,-24.67596,70.6982
100.0,694306.2,-112.1652,70.7008
215.44346900318823,346935.2,70.28234,70.6763
464.15888336127773,693319.0,-84.32484,70.697
1000.0,757026.4,-105.487,70.7051
2154.4346900318824,211686.3,-92.51888,70.7057
4641.588833612777,113354.5,-82.02857,70.6978
10000.0,58260.34,-89.55779,70.7015
