Frequency,Impedance,Phase Angle,Temperature (Dry Bath)
10.0,9693546.0,10.39518,71.4343
21.544346900318832,4105752.0,-9.433961,71.4368
46.41588833612777,5377586.0,-23.21961,71.4442
100.0,468616.4,12.12894,71.4364
215.44346900318823,471787.3,-100.4306,71.4352
464.15888336127773,871445.0,23.79059,71.4353
1000.0,462264.4,-76.93374,71.4481
2154.4346900318824,355803.9,-100.7487,71.4334
4641.588833612777,125706.4,-95.62579,71.4283
10000.0,62187.2,-91.28048,71.4299
