Frequency,Impedance,Phase Angle,Temperature (Dry Bath)
10.0,1744762.0,-21.2371,70.9251
21.544346900318832,1550189.0,-12.29317,70.9289
46.41588833612777,1584282.0,-14.54676,70.9322
100.0,492214.1,-33.67825,70.9366
215.44346900318823,1496403.0,63.99561,70.9261
464.15888336127773,636522.3,-105.3515,70.924
1000.0,391666.2,-36.22037,70.9273
2154.4346900318824,554038.4,-68.23253,70.9379
4641.588833612777,125835.8,-97.13869,70.9384
10000.0,58706.11,-82.84557,70.9253
