Frequency,Impedance,Phase Angle,Temperature (Dry Bath)
10.0,104951.6,-13.93103,71.4089
21.544346900318832,94678.94,-12.72002,71.4236
46.41588833612777,85964.03,-11.7653,71.4058
100.0,71941.36,-19.91505,71.4115
215.44346900318823,71708.91,-10.33993,71.4191
464.15888336127773,63949.31,-12.68977,71.4151
1000.0,67185.49,-5.642363,71.4333
2154.4346900318824,57607.8,-13.67447,71.4142
4641.588833612777,54610.62,-28.11373,71.4121
10000.0,36604.37,-40.62342,71.3972
