Frequency,Impedance,Phase Angle,Temperature (Dry Bath)
10.0,3929948.0,21.75233,71.4097
21.544346900318832,7394042.0,17.74924,71.4183
46.41588833612777,7147906.0,-18.71783,71.4131
100.0,1445914.0,105.7842,71.4233
215.44346900318823,573911.9,-102.5358,71.4096
464.15888336127773,3089594.0,25.15545,71.4112
1000.0,1133245.0,-77.8951,71.4035
2154.4346900318824,718241.3,-134.9718,71.4033
4641.588833612777,812939.8,-90.2811,71.3949
10000.0,204427.8,-110.7401,71.4035
