Frequency,Impedance,Phase Angle,Temperature (Dry Bath)
10.0,2986634.0,19.85408,71.1633
21.544346900318832,4546735.0,-3.959633,71.1766
46.41588833612777,5923660.0,-24.37048,71.1585
100.0,1025984.0,156.9535,71.1769
215.44346900318823,1297557.0,-40.46291,71.1689
464.15888336127773,1335274.0,-84.2608,71.1579
1000.0,771916.0,-68.18238,71.1744
2154.4346900318824,361401.8,-78.5416,71.1593
4641.588833612777,317029.2,-85.37983,71.1889
10000.0,151115.7,-84.31246,71.1844
