Frequency,Impedance,Phase Angle,Temperature (Dry Bath)
10.0,4081024.0,15.0954,71.5376
21.544346900318832,5729674.0,-33.41569,71.5232
46.41588833612777,4512808.0,0.9803946,71.5385
100.0,501575.5,3.387116,71.5277
215.44346900318823,1680561.0,131.703,71.5304
464.15888336127773,1032726.0,-88.19196,71.5327
1000.0,677954.1,-61.91697,71.5205
2154.4346900318824,763207.9,-72.35591,71.5518
4641.588833612777,301499.3,-79.44515,71.5295
10000.0,105167.7,-88.6122,71.5297
