Frequency,Impedance,Phase Angle,Temperature (Dry Bath)
10.0,3464766.0,10.0399,71.0099
21.544346900318832,4952214.0,1.982388,71.0346
46.41588833612777,4530365.0,-12.18905,71.0475
100.0,714473.4,78.11013,71.0422
215.44346900318823,1892225.0,-64.85711,71.0304
464.15888336127773,620159.4,-54.16652,71.0244
1000.0,686911.7,-57.13213,71.0366
2154.4346900318824,277878.9,-74.99225,71.038
4641.588833612777,129115.0,-104.0366,71.047
10000.0,62717.92,-85.54555,71.0374
