Frequency,Impedance,Phase Angle,Temperature (Dry Bath)
10.0,4677607.0,-0.4282316,70.7503
21.544346900318832,5166180.0,5.016303,70.7493
46.41588833612777,5563494.0,-35.04303,70.745
100.0,711974.7,34.79909,70.7424
215.44346900318823,504564.1,-27.9907,70.736
464.15888336127773,5407328.0,-74.473,70.7457
1000.0,317178.6,-69.87619,70.736
2154.4346900318824,197463.9,-70.19305,70.7375
4641.588833612777,106495.8,-79.53696,70.7371
10000.0,48534.4,-86.73857,70.7382
