Frequency,Impedance,Phase Angle,Temperature (Dry Bath)
10.0,9042912.0,21.49718,70.9737
21.544346900318832,9827827.0,-12.81722,70.969
46.41588833612777,3875133.0,-31.65507,70.9675
100.0,323951.5,-130.6893,70.9759
215.44346900318823,696097.2,146.4372,70.985
464.15888336127773,1917694.0,14.29952,70.9825
1000.0,1095695.0,25.75097,70.9697
2154.4346900318824,398815.1,-50.39636,70.9812
4641.588833612777,136022.9,-89.57969,70.9779
10000.0,61238.49,-82.37638,70.9785
