Frequency,Impedance,Phase Angle,Temperature (Dry Bath)
10.0,232633.1,-16.33899,71.4082
21.544346900318832,198933.3,-17.19168,71.4004
46.41588833612777,173980.1,-17.86245,71.4067
100.0,113018.9,-3.262552,71.4189
215.44346900318823,145671.5,-35.2119,71.3966
464.15888336127773,137509.7,-16.37165,71.401
1000.0,93777.59,-28.53875,71.4096
2154.4346900318824,85426.81,-31.15698,71.3978
4641.588833612777,57207.53,-49.84838,71.3942
10000.0,40923.15,-59.59656,71.3877
