Frequency,Impedance,Phase Angle,Temperature (Dry Bath)
10.0,11088580.0,-27.63648,70.8845
21.544346900318832,4991295.0,6.840573,70.8863
46.41588833612777,4188927.0,-38.07623,70.8881
100.0,505547.4,-88.22816,70.8844
215.44346900318823,443283.3,-91.60249,70.8942
464.15888336127773,470686.4,-44.45093,70.8939
1000.0,848159.5,-124.7722,70.8928
2154.4346900318824,306964.3,-81.74462,70.8787
4641.588833612777,106833.8,-97.63975,70.8895
10000.0,65157.31,-86.7134,70.8824
