Frequency,Impedance,Phase Angle,Temperature (Dry Bath)
10.0,22477.37,-20.82332,71.5475
21.544346900318832,18867.6,-20.34096,71.5585
46.41588833612777,15837.29,-19.64398,71.5708
100.0,13145.23,-17.76774,71.5641
215.44346900318823,11576.75,-16.47451,71.547
464.15888336127773,10264.66,-13.77649,71.5488
1000.0,9237.405,-12.7523,71.5575
2154.4346900318824,8404.622,-11.08679,71.5455
4641.588833612777,7725.518,-10.36664,71.5477
10000.0,7183.981,-11.94071,71.5374
