Frequency,Impedance,Phase Angle,Temperature (Dry Bath)
10.0,20461.96,-23.99479,71.2491
21.544346900318832,16650.47,-23.82886,71.254
46.41588833612777,13629.35,-23.44864,71.2605
100.0,11234.66,-22.12364,71.2681
215.44346900318823,9527.017,-20.94159,71.2624
464.15888336127773,7937.704,-19.99459,71.2595
1000.0,6749.035,-19.24354,71.2442
2154.4346900318824,5731.938,-19.12283,71.2657
4641.588833612777,4862.799,-18.01039,71.2711
10000.0,4202.447,-17.2585,71.2501
