Frequency,Impedance,Phase Angle,Temperature (Dry Bath)
10.0,58408.98,-13.96591,70.8223
21.544346900318832,53137.62,-11.51875,70.8286
46.41588833612777,48764.84,-10.65963,70.8269
100.0,43059.81,-10.05725,70.8341
215.44346900318823,41759.26,-7.917052,70.8359
464.15888336127773,40624.01,-9.745395,70.8234
1000.0,35798.63,-7.937308,70.826
2154.4346900318824,34087.24,-14.08389,70.8174
4641.588833612777,30888.02,-22.73206,70.8166
10000.0,27472.46,-31.76677,70.8337
