Frequency,Impedance,Phase Angle,Temperature (Dry Bath)
10.0,2995569.0,-17.65194,28.5541
21.544346900318832,2237897.0,-11.22349,28.5592
46.41588833612777,1951703.0,-13.31851,28.567
100.0,663881.0,-16.73676,28.5692
215.44346900318823,1267936.0,56.49103,28.5472
464.15888336127773,728115.3,2.110654,28.2368
1000.0,1117068.0,-36.08869,28.6314
2154.4346900318824,523310.2,-73.00224,28.6502
4641.588833612777,180462.8,-88.64823,28.531
10000.0,89186.9,-86.65834,28.6687
