Frequency,Impedance,Phase Angle,Temperature (Dry Bath)
10.0,4814281.0,-31.00555,70.733
21.544346900318832,4714700.0,-26.40258,70.7138
46.41588833612777,4422626.0,-23.65068,70.724
100.0,3306113.0,-137.2063,70.7356
215.44346900318823,3099812.0,142.7241,70.7372
464.15888336127773,761495.8,70.68822,70.7336
1000.0,403408.4,-62.84093,70.7318
2154.4346900318824,158675.8,-111.976,70.7329
4641.588833612777,115205.6,-75.07512,70.7279
10000.0,48866.81,-85.72078,70.713
