Frequency,Impedance,Phase Angle,Temperature (Dry Bath)
10.0,4624104.0,0.8845936,71.534
21.544346900318832,4166427.0,1.978114,71.5259
46.41588833612777,5585669.0,-8.455594,71.5442
100.0,1086469.0,-42.55084,71.5295
215.44346900318823,1260440.0,75.17849,71.5513
464.15888336127773,885570.1,-33.24561,71.5213
1000.0,1084328.0,-42.83349,71.5309
2154.4346900318824,813180.3,-85.7362,71.5219
4641.588833612777,436492.4,-90.81938,71.5246
10000.0,146688.1,-93.41282,71.5316
