Frequency,Impedance,Phase Angle,Temperature (Dry Bath)
10.0,4710662.0,-6.774392,70.4899
21.544346900318832,4592234.0,-40.2296,70.5209
46.41588833612777,4099864.0,-5.705476,70.5144
100.0,978474.0,173.7823,70.5169
215.44346900318823,982907.8,155.1267,70.5066
464.15888336127773,1044991.0,21.72897,70.5155
1000.0,471392.3,-81.39666,70.5178
2154.4346900318824,302631.3,-79.24436,70.5025
4641.588833612777,191099.7,-91.90044,70.5202
10000.0,66065.49,-84.64696,70.4966
