Frequency,Impedance,Phase Angle,Temperature (Dry Bath)
10.0,152558.7,-14.1921,71.2372
21.544346900318832,136323.5,-12.64626,71.2463
46.41588833612777,123773.9,-12.31309,71.2441
100.0,118191.0,-17.16045,71.2421
215.44346900318823,79756.52,-14.68733,71.2326
464.15888336127773,73507.0,-18.89265,71.2278
1000.0,80501.45,-20.90786,71.2292
2154.4346900318824,74155.17,-21.97965,71.2414
4641.588833612777,87850.05,-26.8705,71.2418
10000.0,62422.48,-36.83413,71.2373
