Frequency,Impedance,Phase Angle,Temperature (Dry Bath)
10.0,2028412.0,-6.693333,71.4098
21.544346900318832,2627342.0,-27.22937,71.4241
46.41588833612777,2098678.0,-12.80201,71.4157
100.0,271174.1,42.22323,71.411
215.44346900318823,16125.43,-96.16689,71.4021
464.15888336127773,424052.1,-64.01352,71.4128
1000.0,625567.6,-133.7947,71.4185
2154.4346900318824,247715.5,-90.21579,71.4194
4641.588833612777,114513.7,-70.52704,71.4257
10000.0,69330.92,-90.15561,71.3973
