Frequency,Impedance,Phase Angle,Temperature (Dry Bath)
10.0,3486598.0,10.49805,71.309
21.544346900318832,5176089.0,-31.443,71.2906
46.41588833612777,4666037.0,-24.05078,71.2926
100.0,548181.8,135.7498,71.2839
215.44346900318823,472763.9,-16.4635,71.2899
464.15888336127773,1084789.0,174.2351,71.2915
1000.0,412649.6,-137.3947,71.2901
2154.4346900318824,912796.9,-26.53251,71.3058
4641.588833612777,280365.8,-105.4979,71.3048
10000.0,130413.4,-89.23956,71.2817
