Frequency,Impedance,Phase Angle,Temperature (Dry Bath)
10.0,13605.28,-28.2975,71.1227
21.544346900318832,10812.69,-25.68301,71.1167
46.41588833612777,8798.32,-22.89327,71.1105
100.0,7463.818,-19.76396,71.1129
215.44346900318823,6324.681,-17.21214,71.11
464.15888336127773,5567.781,-15.3248,71.1263
1000.0,4887.036,-13.61375,71.1174
2154.4346900318824,4406.491,-12.75971,71.1084
4641.588833612777,4010.849,-12.14586,71.1257
10000.0,3699.753,-12.45919,71.1249
