Frequency,Impedance,Phase Angle,Temperature (Dry Bath)
10.0,4269352.0,-8.812601,71.2555
21.544346900318832,6013052.0,-3.868415,71.257
46.41588833612777,4492037.0,2.342555,71.2544
100.0,220852.0,16.45157,71.2622
215.44346900318823,267549.4,23.79184,71.2439
464.15888336127773,572738.6,-99.29482,71.2599
1000.0,448376.6,-17.89425,71.2668
2154.4346900318824,205286.7,-83.38096,71.2514
4641.588833612777,141776.1,-82.87618,71.2522
10000.0,76481.3,-86.49978,71.258
