Frequency,Impedance,Phase Angle,Temperature (Dry Bath)
10.0,105484.8,-17.313,71.3353
21.544346900318832,93212.01,-16.45311,71.3364
46.41588833612777,80888.6,-15.85598,71.3308
100.0,70821.79,-13.14532,71.3401
215.44346900318823,68454.49,-13.20515,71.319
464.15888336127773,59011.43,-16.67353,71.3216
1000.0,48351.1,-12.41372,71.314
2154.4346900318824,46852.62,-13.30228,71.332
4641.588833612777,40696.89,-18.22933,71.3346
10000.0,34514.09,-25.21251,71.3043
