Frequency,Impedance,Phase Angle,Temperature (Dry Bath)
10.0,4536909.0,19.3184,71.4101
21.544346900318832,5656434.0,-2.048824,71.4196
46.41588833612777,6757554.0,-22.64094,71.4118
100.0,368406.3,-27.0377,71.4173
215.44346900318823,1566982.0,-61.04994,71.4108
464.15888336127773,2224664.0,25.91457,71.4249
1000.0,897480.8,-55.56675,71.4172
2154.4346900318824,1014456.0,-121.7122,71.4028
4641.588833612777,161243.1,-73.36947,71.4067
10000.0,96789.76,-77.06619,71.4242
