Frequency,Impedance,Phase Angle,Temperature (Dry Bath)
10.0,6108122.0,4.265417,71.3399
21.544346900318832,5376148.0,-28.20339,71.3485
46.41588833612777,3713648.0,-12.24963,71.3423
100.0,745383.0,-55.82463,71.3458
215.44346900318823,4081017.0,-125.6337,71.3546
464.15888336127773,872903.2,-42.44315,71.3567
1000.0,975237.0,-121.5856,71.3422
2154.4346900318824,277365.7,-73.3844,71.3447
4641.588833612777,136825.6,-90.88308,71.3463
10000.0,66141.01,-75.82185,71.3447
