Frequency,Impedance,Phase Angle,Temperature (Dry Bath)
10.0,3991568.0,-26.37374,70.5549
21.544346900318832,5566361.0,1.09117,70.5791
46.41588833612777,4814964.0,-5.776698,70.5611
100.0,576266.0,103.3468,70.5677
215.44346900318823,918000.3,2.032931,70.568
464.15888336127773,700556.7,-116.8832,70.5528
1000.0,685572.7,32.9124,70.5664
2154.4346900318824,166552.7,-77.20232,70.5549
4641.588833612777,86574.9,-85.61496,70.5529
10000.0,53930.88,-88.57683,70.5442
