Frequency,Impedance,Phase Angle,Temperature (Dry Bath)
10.0,6263860.0,-10.44313,71.5161
21.544346900318832,4737838.0,-20.37475,71.5236
46.41588833612777,4031534.0,6.813049,71.5105
100.0,1298312.0,-96.92103,71.5229
215.44346900318823,1048568.0,-72.21299,71.509
464.15888336127773,1269208.0,126.7236,71.5135
1000.0,428859.3,-81.4233,71.5245
2154.4346900318824,353979.1,-97.34954,71.5131
4641.588833612777,227998.2,-59.78603,71.5241
10000.0,125843.7,-97.66018,71.5014
