Frequency,Impedance,Phase Angle,Temperature (Dry Bath)
10.0,4424261.0,-34.18643,71.3267
21.544346900318832,6187591.0,-19.00944,71.3405
46.41588833612777,4272980.0,-27.73082,71.3256
100.0,1176195.0,-28.01025,71.3385
215.44346900318823,876196.0,5.613945,71.326
464.15888336127773,1022997.0,-48.82743,71.3271
1000.0,999595.7,-77.58669,71.325
2154.4346900318824,484236.6,-89.69246,71.3436
4641.588833612777,319288.7,-83.32319,71.3479
10000.0,120837.1,-83.83863,71.3601
