Frequency,Impedance,Phase Angle,Temperature (Dry Bath)
10.0,10417.75,-25.50436,70.8082
21.544346900318832,8526.319,-22.39736,70.8028
46.41588833612777,7153.317,-19.58091,70.8199
100.0,6191.591,-17.01574,70.7939
215.44346900318823,5430.257,-14.60283,70.8015
464.15888336127773,4874.038,-12.22846,70.8119
1000.0,4422.306,-10.27773,70.8052
2154.4346900318824,4082.782,-9.458292,70.8103
4641.588833612777,3776.604,-8.679147,70.8158
10000.0,3568.854,-9.621139,70.8181
