Frequency,Impedance,Phase Angle,Temperature (Dry Bath)
10.0,4714666.0,-16.12767,70.931
21.544346900318832,4480406.0,-9.546628,70.9326
46.41588833612777,6264900.0,-29.99479,70.9161
100.0,324463.8,45.02561,70.9312
215.44346900318823,1439432.0,89.45793,70.9297
464.15888336127773,629124.4,-66.3348,70.9364
1000.0,490564.6,-70.51597,70.9179
2154.4346900318824,238392.6,-107.1841,70.9268
4641.588833612777,144796.9,-83.75357,70.9295
10000.0,66043.03,-81.31171,70.9221
