Frequency,Impedance,Phase Angle,Temperature (Dry Bath)
10.0,41861.77,-14.54129,71.4799
21.544346900318832,37956.57,-12.77479,71.4838
46.41588833612777,34615.89,-11.72193,71.5064
100.0,34985.05,-10.83689,71.47
215.44346900318823,28864.46,-10.48633,71.4781
464.15888336127773,27813.91,-11.70459,71.4946
1000.0,24592.34,-12.3308,71.4875
2154.4346900318824,23327.14,-13.5732,71.4922
4641.588833612777,21043.87,-14.47363,71.4797
10000.0,19109.23,-25.52636,71.4792
