Frequency,Impedance,Phase Angle,Temperature (Dry Bath)
10.0,11354.46,-23.86341,71.5036
21.544346900318832,9257.979,-24.10987,71.5026
46.41588833612777,7495.075,-23.94785,71.4925
100.0,6071.87,-23.71755,71.4972
215.44346900318823,5019.384,-21.36276,71.4919
464.15888336127773,4188.429,-19.13941,71.4971
1000.0,3563.538,-17.12996,71.5037
2154.4346900318824,3133.583,-14.86502,71.5097
4641.588833612777,2803.101,-13.00087,71.5026
10000.0,2530.908,-12.17832,71.4961
