Frequency,Impedance,Phase Angle,Temperature (Dry Bath)
10.0,3091642.0,-20.67286,71.3528
21.544346900318832,4124228.0,9.364674,71.356
46.41588833612777,5229808.0,-15.71405,71.3514
100.0,377894.7,12.17777,71.3528
215.44346900318823,2371354.0,61.70614,71.349
464.15888336127773,3455787.0,-4.847157,71.356
1000.0,554447.6,-34.60799,71.3517
2154.4346900318824,274337.5,-92.30728,71.3241
4641.588833612777,153397.8,-89.85727,71.3427
10000.0,64661.5,-87.65419,71.3473
