Frequency,Impedance,Phase Angle,Temperature (Dry Bath)
10.0,24003.29,-19.90565,71.2087
21.544346900318832,20511.22,-17.62996,71.2098
46.41588833612777,17846.22,-15.57291,71.2244
100.0,15916.92,-12.34978,71.2171
215.44346900318823,14195.45,-12.14848,71.2401
464.15888336127773,12983.66,-10.97056,71.2226
1000.0,11654.59,-9.939071,71.2255
2154.4346900318824,11106.66,-10.8147,71.2293
4641.588833612777,10656.7,-9.244596,71.2224
10000.0,9926.874,-14.59141,71.2141
