Frequency,Impedance,Phase Angle,Temperature (Dry Bath)
10.0,7948593.0,11.89026,72.2217
21.544346900318832,3936983.0,-38.40431,72.2296
46.41588833612777,7848570.0,-8.716577,72.2002
100.0,476754.2,-19.84027,72.2247
215.44346900318823,419083.1,144.909,72.2179
464.15888336127773,643825.4,136.4145,72.2375
1000.0,597082.9,102.8329,72.2322
2154.4346900318824,402612.9,-169.0151,72.2213
4641.588833612777,251738.4,-21.46564,72.2182
10000.0,100469.5,-75.32807,72.2122
