Frequency,Impedance,Phase Angle,Temperature (Dry Bath)
10.0,16502.24,-20.50977,70.9662
21.544346900318832,14168.3,-17.71231,70.9548
46.41588833612777,12388.16,-15.34334,70.9537
100.0,11126.84,-12.91933,70.9609
215.44346900318823,9918.555,-12.18101,70.9687
464.15888336127773,9086.752,-11.08021,70.9597
1000.0,8294.862,-10.5972,70.9622
2154.4346900318824,7725.881,-9.589054,70.9529
4641.588833612777,7357.386,-10.26198,70.9638
10000.0,6993.816,-12.92726,70.9628
