Frequency,Impedance,Phase Angle,Temperature (Dry Bath)
10.0,7072420.0,-24.28821,71.3859
21.544346900318832,5629178.0,10.32519,71.3825
46.41588833612777,6029845.0,4.963278,71.3741
100.0,450744.2,-104.9571,71.3714
215.44346900318823,8541.384,-46.49091,71.3761
464.15888336127773,860755.3,-50.52912,71.3741
1000.0,229526.9,-24.52792,71.3655
2154.4346900318824,256854.3,-85.39018,71.3603
4641.588833612777,91953.86,-81.44161,71.3685
10000.0,72337.43,-85.76276,71.3809
