Frequency,Impedance,Phase Angle,Temperature (Dry Bath)
10.0,829582.5,-7.748486,71.2977
21.544346900318832,793343.6,-7.131324,71.2887
46.41588833612777,829050.5,-6.264648,71.3025
100.0,550950.7,33.78444,71.2689
215.44346900318823,1506973.0,-137.3941,71.2869
464.15888336127773,326172.5,-20.05258,71.3004
1000.0,683522.3,34.31746,71.2996
2154.4346900318824,308806.2,-97.20143,71.2921
4641.588833612777,225659.4,-83.78984,71.2902
10000.0,106014.8,-65.6644,71.288
