Frequency,Impedance,Phase Angle,Temperature (Dry Bath)
10.0,6970064.0,-10.36628,71.2608
21.544346900318832,4649946.0,3.246116,71.235
46.41588833612777,3346069.0,-17.5542,71.2616
100.0,964258.6,-37.38542,71.269
215.44346900318823,703186.6,-21.52509,71.2653
464.15888336127773,1014066.0,136.9948,71.2487
1000.0,288934.6,-49.85612,71.2646
2154.4346900318824,294871.8,-90.86575,71.2517
4641.588833612777,137711.6,-88.4517,71.2642
10000.0,63334.14,-88.06973,71.2643
