Frequency,Impedance,Phase Angle,Temperature (Dry Bath)
10.0,57785.28,-18.06831,70.6773
21.544346900318832,50974.31,-16.69983,70.7025
46.41588833612777,44536.68,-15.76052,70.6875
100.0,42600.01,-9.854153,70.6877
215.44346900318823,36680.73,-13.87211,70.7108
464.15888336127773,30685.72,-10.3923,70.6869
1000.0,30249.29,-12.41372,70.6903
2154.4346900318824,27090.91,-13.21984,70.6875
4641.588833612777,23430.25,-18.05342,70.6798
10000.0,21219.95,-28.80934,70.6984
