Frequency,Impedance,Phase Angle,Temperature (Dry Bath)
10.0,7015.944,-25.53499,70.5398
21.544346900318832,5741.198,-22.43396,70.5435
46.41588833612777,4836.671,-19.56438,70.5494
100.0,4140.093,-17.09881,70.5491
215.44346900318823,3671.219,-14.64707,70.5526
464.15888336127773,3318.534,-12.52045,70.5446
1000.0,2985.587,-10.41962,70.5424
2154.4346900318824,2763.77,-9.168068,70.5443
4641.588833612777,2590.161,-8.422654,70.5524
10000.0,2442.497,-8.723657,70.5551
