Frequency,Impedance,Phase Angle,Temperature (Dry Bath)
10.0,5650434.0,-0.671226,70.6009
21.544346900318832,5856818.0,-26.07387,70.6146
46.41588833612777,5052457.0,1.708884,70.5982
100.0,864813.7,18.71986,70.6099
215.44346900318823,570717.5,25.59225,70.6142
464.15888336127773,684799.0,-2.508362,70.6144
1000.0,336787.7,-22.8799,70.5978
2154.4346900318824,997212.8,101.9085,70.6143
4641.588833612777,143752.9,-49.65245,70.594
10000.0,59979.87,-88.37908,70.5884
