Frequency,Impedance,Phase Angle,Temperature (Dry Bath)
10.0,10102040.0,0.6706532,71.3434
21.544346900318832,6529724.0,-31.47476,71.3306
46.41588833612777,4327480.0,-40.88396,71.3517
100.0,1536527.0,-54.20058,71.3397
215.44346900318823,282286.1,-94.7467,71.3408
464.15888336127773,1696553.0,-131.2565,71.3477
1000.0,211073.9,-101.6606,71.3481
2154.4346900318824,157583.3,-85.65993,71.3466
4641.588833612777,96138.09,-84.93951,71.3417
10000.0,38909.7,-87.57917,71.3467
