Frequency,Impedance,Phase Angle,Temperature (Dry Bath)
10.0,4366535.0,10.58243,70.9825
21.544346900318832,8760137.0,-18.61474,70.9832
46.41588833612777,3533304.0,-29.21715,70.9937
100.0,393490.8,-19.73971,70.9829
215.44346900318823,1148537.0,54.15454,70.9934
464.15888336127773,1219128.0,-96.81203,70.9825
1000.0,533536.9,-97.71829,70.976
2154.4346900318824,242913.0,-92.06519,70.9869
4641.588833612777,149396.7,-85.46156,70.9779
10000.0,60389.08,-89.01257,71.0053
