Frequency,Impedance,Phase Angle,Temperature (Dry Bath)
10.0,4084807.0,-30.22298,71.0028
21.544346900318832,5135091.0,13.4505,71.0014
46.41588833612777,3801640.0,-29.16796,70.9988
100.0,1045717.0,-99.78181,71.0046
215.44346900318823,659146.9,-113.2419,70.9972
464.15888336127773,916561.6,-2.47676,70.9962
1000.0,375600.7,-80.64833,71.0006
2154.4346900318824,315215.2,-70.98057,70.9935
4641.588833612777,111376.4,-85.40885,70.9968
10000.0,55946.19,-80.84414,71.0067
