Frequency,Impedance,Phase Angle,Temperature (Dry Bath)
10.0,14825.79,-19.40347,71.0068
21.544346900318832,12813.13,-16.72517,70.9977
46.41588833612777,11292.46,-14.55735,70.9951
100.0,10100.3,-11.12011,71.0059
215.44346900318823,9284.516,-11.71282,71.0062
464.15888336127773,8441.356,-10.34198,70.9993
1000.0,7851.488,-9.33961,71.0033
2154.4346900318824,7284.653,-9.505631,71.0052
4641.588833612777,6764.904,-10.2182,70.9995
10000.0,6325.373,-13.65511,71.0155
