Frequency,Impedance,Phase Angle,Temperature (Dry Bath)
10.0,3580673.0,-7.724718,71.3867
21.544346900318832,5707570.0,-33.2816,71.3647
46.41588833612777,5388364.0,-11.99451,71.3606
100.0,1656856.0,-128.1963,71.3793
215.44346900318823,737398.1,-4.17225,71.3781
464.15888336127773,610611.7,-32.32764,71.3698
1000.0,1864690.0,-5.264273,71.3845
2154.4346900318824,596887.0,-85.25011,71.3753
4641.588833612777,318979.6,-70.51237,71.3825
10000.0,130926.3,-92.7324,71.3827
