Frequency,Impedance,Phase Angle,Temperature (Dry Bath)
10.0,7632.115,-35.64821,71.5146
21.544346900318832,5758.565,-31.15855,71.5226
46.41588833612777,4526.046,-26.8275,71.5287
100.0,3687.036,-22.36073,71.5335
215.44346900318823,3115.679,-18.22514,71.5266
464.15888336127773,2695.434,-15.63525,71.5344
1000.0,2405.318,-13.02485,71.5485
2154.4346900318824,2196.427,-11.2415,71.5341
4641.588833612777,2024.354,-10.015,71.5387
10000.0,1893.379,-9.436303,71.5407
