Frequency,Impedance,Phase Angle,Temperature (Dry Bath)
10.0,236234.9,-25.29838,71.2302
21.544346900318832,195862.7,-21.6828,71.2179
46.41588833612777,163886.8,-19.63306,71.2338
100.0,152403.9,-11.91466,71.2086
215.44346900318823,150450.2,-25.4588,71.2243
464.15888336127773,112823.4,-17.22205,71.2236
1000.0,99095.06,-31.17693,71.2242
2154.4346900318824,81443.73,-26.5056,71.2313
4641.588833612777,74417.21,-46.59129,71.2269
10000.0,41424.73,-65.77569,71.2351
