Frequency,Impedance,Phase Angle,Temperature (Dry Bath)
10.0,14743.51,-19.47001,70.9384
21.544346900318832,12747.29,-16.73009,70.9395
46.41588833612777,11224.6,-14.63505,70.945
100.0,10100.27,-13.79185,70.9408
215.44346900318823,9121.022,-11.56936,70.9419
464.15888336127773,8533.348,-10.68615,70.9446
1000.0,7691.186,-9.061792,70.9555
2154.4346900318824,7213.448,-9.72545,70.9468
4641.588833612777,6794.065,-10.81271,70.9438
10000.0,6206.946,-12.67595,70.9433
