Frequency,Impedance,Phase Angle,Temperature (Dry Bath)
10.0,4482115.0,-6.737799,71.2493
21.544346900318832,7635391.0,-16.7893,71.2399
46.41588833612777,4059744.0,-31.29427,71.2408
100.0,1066779.0,164.3226,71.2552
215.44346900318823,1537327.0,4.292667,71.2395
464.15888336127773,1520757.0,-80.3972,71.2399
1000.0,428376.6,-57.03285,71.2335
2154.4346900318824,311145.5,-86.57837,71.252
4641.588833612777,131157.6,-88.02822,71.2466
10000.0,59198.34,-82.55805,71.2516
