Frequency,Impedance,Phase Angle,Temperature (Dry Bath)
10.0,3968451.0,-8.509357,71.0677
21.544346900318832,13035770.0,-14.11968,71.0666
46.41588833612777,4903153.0,-17.35984,71.0815
100.0,947575.5,-152.3707,71.0779
215.44346900318823,604197.4,-118.862,71.0794
464.15888336127773,521513.5,2.737564,71.073
1000.0,1235094.0,26.04657,71.0649
2154.4346900318824,593670.7,-81.08692,71.0836
4641.588833612777,207496.9,-55.90235,71.0817
10000.0,106863.8,-83.89133,71.0805
