Frequency,Impedance,Phase Angle,Temperature (Dry Bath)
10.0,4350840.0,13.85545,71.42
21.544346900318832,5527238.0,-11.25297,71.424
46.41588833612777,5264340.0,-20.69165,71.4307
100.0,474088.0,-34.29437,71.4362
215.44346900318823,3226661.0,98.32874,71.4276
464.15888336127773,767676.3,-96.86717,71.4419
1000.0,472093.4,-26.29195,71.4426
2154.4346900318824,214485.7,-95.93795,71.4321
4641.588833612777,230272.8,-52.48217,71.4401
10000.0,112261.8,-84.15151,71.4432
