Frequency,Impedance,Phase Angle,Temperature (Dry Bath)
10.0,33673.19,-22.44364,71.3348
21.544346900318832,28005.84,-22.18741,71.3194
46.41588833612777,23393.96,-22.03172,71.3401
100.0,19145.92,-19.49346,71.3329
215.44346900318823,15805.94,-23.29443,71.3407
464.15888336127773,13696.16,-22.29938,71.3344
1000.0,11125.11,-23.34153,71.3217
2154.4346900318824,9116.419,-22.38777,71.332
4641.588833612777,7141.091,-21.56433,71.3368
10000.0,6035.849,-20.41681,71.3311
