Frequency,Impedance,Phase Angle,Temperature (Dry Bath)
10.0,159010.7,-9.244815,71.307
21.544346900318832,147350.9,-8.781682,71.3002
46.41588833612777,141486.5,-9.072844,71.3096
100.0,133776.0,-25.86972,71.3004
215.44346900318823,21420.18,137.9876,71.2855
464.15888336127773,168801.8,4.951969,71.283
1000.0,110794.0,-8.766461,71.291
2154.4346900318824,86854.57,-29.82385,71.2893
4641.588833612777,68298.72,-45.71171,71.3066
10000.0,45173.15,-62.10942,71.2909
