Frequency,Impedance,Phase Angle,Temperature (Dry Bath)
10.0,5533462.0,37.11128,71.0837
21.544346900318832,5246312.0,-11.75011,71.0709
46.41588833612777,5352903.0,-31.21445,71.0779
100.0,359839.9,103.9177,71.0626
215.44346900318823,936633.9,-129.9127,71.087
464.15888336127773,509814.7,-54.20262,71.08
1000.0,371478.5,-128.8183,71.0932
2154.4346900318824,335736.9,-62.67135,71.0588
4641.588833612777,141976.8,-68.60984,71.0901
10000.0,56337.87,-85.84076,71.0745
