Frequency,Impedance,Phase Angle,Temperature (Dry Bath)
10.0,4826844.0,4.142943,70.7842
21.544346900318832,5278031.0,-18.47457,70.7945
46.41588833612777,4207071.0,-17.74494,70.7932
100.0,1070583.0,148.6339,70.7857
215.44346900318823,1430891.0,130.398,70.7775
464.15888336127773,435459.8,-79.59679,70.786
1000.0,360936.3,-90.64742,70.7766
2154.4346900318824,263490.7,-67.36994,70.7786
4641.588833612777,114882.2,-80.85212,70.8017
10000.0,51696.11,-85.00403,70.7801
