Frequency,Impedance,Phase Angle,Temperature (Dry Bath)
10.0,178342.6,-13.39338,71.2762
21.544346900318832,162839.3,-11.46199,71.2672
46.41588833612777,145099.0,-11.55818,71.2854
100.0,135137.4,-1.587134,71.2791
215.44346900318823,108841.7,-20.17382,71.2638
464.15888336127773,99528.06,-17.00054,71.269
1000.0,89470.81,-21.14904,71.2627
2154.4346900318824,84944.26,-22.5308,71.2749
4641.588833612777,72020.09,-32.2321,71.2751
10000.0,48140.14,-56.13571,71.2765
