Frequency,Impedance,Phase Angle,Temperature (Dry Bath)
10.0,4460809.0,9.119705,70.4991
21.544346900318832,3977882.0,-7.653386,70.4879
46.41588833612777,4445551.0,-17.02583,70.4909
100.0,4550151.0,-150.3453,70.4916
215.44346900318823,588523.1,-161.1141,70.4782
464.15888336127773,433809.8,-25.5501,70.489
1000.0,402485.8,-22.6485,70.4965
2154.4346900318824,262001.3,-87.58832,70.5089
4641.588833612777,129777.9,-78.86673,70.4915
10000.0,54535.05,-84.59044,70.4817
