Frequency,Impedance,Phase Angle,Temperature (Dry Bath)
10.0,5474.06,-35.97503,70.7651
21.544346900318832,4131.976,-30.26849,70.7566
46.41588833612777,3302.958,-24.76186,70.7563
100.0,2746.617,-20.1756,70.7596
215.44346900318823,2397.106,-16.73057,70.76
464.15888336127773,2120.67,-13.73664,70.7538
1000.0,1941.685,-11.47718,70.7701
2154.4346900318824,1761.732,-9.640506,70.758
4641.588833612777,1634.755,-8.599694,70.7712
10000.0,1543.672,-8.172523,70.7511
