Frequency,Impedance,Phase Angle,Temperature (Dry Bath)
10.0,4174871.0,-33.11738,71.4352
21.544346900318832,4116320.0,-9.399487,71.4306
46.41588833612777,5239294.0,-20.4808,71.4485
100.0,7014263.0,19.37849,71.4416
215.44346900318823,1066019.0,-110.1843,71.4329
464.15888336127773,1477697.0,151.8857,71.421
1000.0,1519005.0,-37.81589,71.4347
2154.4346900318824,372695.0,-62.69831,71.4293
4641.588833612777,219380.1,-67.20158,71.4447
10000.0,107369.8,-81.79861,71.4228
