Frequency,Impedance,Phase Angle,Temperature (Dry Bath)
10.0,6196.902,-25.51637,70.6796
21.544346900318832,4984.767,-24.97722,70.6754
46.41588833612777,4023.205,-23.82721,70.6934
100.0,3293.327,-21.68877,70.691
215.44346900318823,2747.737,-19.61002,70.6819
464.15888336127773,2348.431,-16.72551,70.6858
1000.0,2060.303,-14.36406,70.6807
2154.4346900318824,1843.606,-11.73036,70.6884
4641.588833612777,1703.966,-10.60758,70.684
10000.0,1588.23,-10.13132,70.6817
