Frequency,Impedance,Phase Angle,Temperature (Dry Bath)
10.0,628219.5,-6.721531,71.4638
21.544346900318832,636245.2,-3.662014,71.4699
46.41588833612777,604306.6,-5.188174,71.4589
100.0,293036.9,-15.88884,71.4605
215.44346900318823,434298.0,4.154348,71.4657
464.15888336127773,422758.7,-11.16942,71.4555
1000.0,725691.8,-37.16774,71.4571
2154.4346900318824,350782.1,-36.24126,71.4627
4641.588833612777,148109.9,-71.60778,71.4766
10000.0,105947.0,-69.32391,71.4739
