Frequency,Impedance,Phase Angle,Temperature (Dry Bath)
10.0,4675611.0,-1.972053,71.2542
21.544346900318832,4344885.0,-10.11044,71.2344
46.41588833612777,5009013.0,-1.468626,71.2653
100.0,1333638.0,49.07524,71.2524
215.44346900318823,756092.0,94.17475,71.2604
464.15888336127773,1430291.0,-35.79919,71.2613
1000.0,283699.9,-132.4047,71.2775
2154.4346900318824,482816.0,-109.8557,71.243
4641.588833612777,153925.6,-90.2865,71.2471
10000.0,78482.85,-78.2184,71.2547
