Frequency,Impedance,Phase Angle,Temperature (Dry Bath)
10.0,6505350.0,-43.88568,70.9391
21.544346900318832,14124740.0,-11.92685,70.969
46.41588833612777,5740061.0,-4.281589,70.9493
100.0,550579.9,-108.0212,70.9629
215.44346900318823,1033213.0,7.795439,70.9535
464.15888336127773,1690067.0,155.4438,70.9485
1000.0,1782854.0,-38.4469,70.9502
2154.4346900318824,285721.1,-78.0065,70.9611
4641.588833612777,150495.6,-79.19663,70.9733
10000.0,68739.31,-78.84478,70.9501
