Frequency,Impedance,Phase Angle,Temperature (Dry Bath)
10.0,9455016.0,3.381121,71.0111
21.544346900318832,6017892.0,-43.60494,71.0105
46.41588833612777,4616921.0,-41.28571,71.0009
100.0,1334591.0,63.33403,70.9948
215.44346900318823,1900272.0,-131.2242,71.0074
464.15888336127773,1781191.0,-158.0615,71.0114
1000.0,986151.0,-35.88889,70.9933
2154.4346900318824,285553.7,-94.70155,71.0059
4641.588833612777,130449.7,-86.22447,71.0029
10000.0,57179.32,-91.03791,70.9935
