Frequency,Impedance,Phase Angle,Temperature (Dry Bath)
10.0,4107156.0,-7.205511,70.9572
21.544346900318832,6280819.0,-18.99253,70.9426
46.41588833612777,5126056.0,-5.42915,70.9442
100.0,2389934.0,-49.82631,70.9417
215.44346900318823,2564442.0,-29.12912,70.9464
464.15888336127773,439044.3,-105.8366,70.9375
1000.0,341785.0,-52.62968,70.9408
2154.4346900318824,203895.8,-73.24892,70.9475
4641.588833612777,124894.7,-105.5257,70.9462
10000.0,61840.24,-84.88984,70.9391
