Frequency,Impedance,Phase Angle,Temperature (Dry Bath)
10.0,4462847.0,-21.55795,71.2812
21.544346900318832,2913221.0,-15.0275,71.2828
46.41588833612777,2283643.0,-28.56756,71.2693
100.0,654928.8,-19.84269,71.2795
215.44346900318823,806224.7,-47.2243,71.2875
464.15888336127773,505806.8,40.20038,71.2675
1000.0,1165192.0,-113.3407,71.2759
2154.4346900318824,353556.7,-71.53793,71.2831
4641.588833612777,149934.6,-90.15639,71.2836
10000.0,64534.89,-83.42404,71.2835
