Frequency,Impedance,Phase Angle,Temperature (Dry Bath)
10.0,164180.7,-9.41534,71.3233
21.544346900318832,151978.5,-8.282598,71.3246
46.41588833612777,138469.7,-10.44839,71.3201
100.0,124279.4,-22.68066,71.3161
215.44346900318823,47783.13,108.8027,71.3187
464.15888336127773,115384.2,-7.488083,71.3216
1000.0,109861.8,-17.3596,71.3328
2154.4346900318824,92714.11,-39.37226,71.3248
4641.588833612777,70820.32,-45.14737,71.3382
10000.0,43718.2,-62.6809,71.3328
