Frequency,Impedance,Phase Angle,Temperature (Dry Bath)
10.0,330650.4,-6.199427,70.7694
21.544346900318832,310196.0,-6.809196,70.7603
46.41588833612777,296327.9,-7.591514,70.7812
100.0,185228.4,-4.170685,70.785
215.44346900318823,211456.5,-17.90264,70.7851
464.15888336127773,238491.1,-40.57838,70.7881
1000.0,215597.1,-15.93501,70.7887
2154.4346900318824,193533.5,-41.03946,70.7746
4641.588833612777,121954.2,-54.38925,70.7852
10000.0,57793.0,-68.42675,70.794
