Frequency,Impedance,Phase Angle,Temperature (Dry Bath)
10.0,5877931.0,-24.03835,70.8591
21.544346900318832,4985824.0,-30.30599,70.8576
46.41588833612777,4109260.0,-23.8404,70.8773
100.0,603952.4,123.9678,70.8546
215.44346900318823,971857.9,63.56479,70.8682
464.15888336127773,1851360.0,-26.96525,70.8705
1000.0,714006.9,-99.26581,70.8792
2154.4346900318824,284863.0,-78.39353,70.8748
4641.588833612777,126475.3,-101.7358,70.8823
10000.0,73434.67,-94.73706,70.8795
