Frequency,Impedance,Phase Angle,Temperature (Dry Bath)
10.0,162033.4,-9.982852,71.3454
21.544346900318832,151801.4,-9.199846,71.3535
46.41588833612777,141710.3,-8.766248,71.3569
100.0,120820.7,-2.046624,71.3433
215.44346900318823,7065.836,102.7302,71.3524
464.15888336127773,101946.9,-17.64969,71.345
1000.0,114826.6,-12.26871,71.3604
2154.4346900318824,106221.3,-33.00632,71.3491
4641.588833612777,75600.63,-48.75555,71.3559
10000.0,41293.94,-60.15248,71.3484
