Frequency,Impedance,Phase Angle,Temperature (Dry Bath)
10.0,52690.7,-15.90702,70.5862
21.544346900318832,46577.42,-14.93837,70.575
46.41588833612777,41635.21,-13.38967,70.582
100.0,35671.23,-13.01752,70.5685
215.44346900318823,34431.95,-12.57501,70.5877
464.15888336127773,30139.74,-12.58545,70.5665
1000.0,30805.87,-18.53035,70.5878
2154.4346900318824,29137.63,-13.5464,70.5726
4641.588833612777,25775.1,-15.47288,70.5812
10000.0,21347.93,-30.15545,70.5927
