Frequency,Impedance,Phase Angle,Temperature (Dry Bath)
10.0,7162941.0,-17.06179,71.1826
21.544346900318832,3511279.0,-2.323455,71.1801
46.41588833612777,3008206.0,-15.5602,71.1717
100.0,991820.0,67.74153,71.1772
215.44346900318823,591186.4,-150.6088,71.1512
464.15888336127773,739998.6,-67.40959,71.173
1000.0,1211001.0,-158.6797,71.1834
2154.4346900318824,245800.7,-79.35893,71.1637
4641.588833612777,123402.9,-86.37846,71.1656
10000.0,62998.17,-83.02522,71.1746
