Frequency,Impedance,Phase Angle,Temperature (Dry Bath)
10.0,160687.3,-14.52147,71.2228
21.544346900318832,144943.6,-13.14633,71.205
46.41588833612777,131217.3,-13.16639,71.2212
100.0,89016.01,-18.03054,71.2183
215.44346900318823,111666.6,-6.835346,71.206
464.15888336127773,115880.6,-20.33598,71.2035
1000.0,97849.21,-4.745569,71.2067
2154.4346900318824,96736.31,-3.416113,71.2153
4641.588833612777,88197.32,-24.93897,71.2068
10000.0,58247.18,-24.252,71.1923
