Frequency,Impedance,Phase Angle,Temperature (Dry Bath)
10.0,5548.536,-38.84252,70.6414
21.544346900318832,4059.673,-33.41638,70.625
46.41588833612777,3145.798,-27.8974,70.6431
100.0,2580.252,-22.7336,70.6518
215.44346900318823,2170.094,-18.5467,70.6694
464.15888336127773,1904.176,-15.01497,70.6501
1000.0,1701.618,-12.34348,70.6334
2154.4346900318824,1551.218,-10.68228,70.6401
4641.588833612777,1436.934,-9.185515,70.6256
10000.0,1346.838,-8.502551,70.6409
