Frequency,Impedance,Phase Angle,Temperature (Dry Bath)
10.0,23854.38,-21.0596,71.2354
21.544346900318832,20175.87,-18.32082,71.2397
46.41588833612777,17522.38,-15.53844,71.2479
100.0,15899.05,-12.69484,71.2245
215.44346900318823,14271.94,-10.41121,71.2376
464.15888336127773,13233.45,-7.504055,71.2297
1000.0,12050.61,-8.040393,71.2345
2154.4346900318824,11532.83,-9.313543,71.2549
4641.588833612777,11107.35,-11.01617,71.2327
10000.0,10352.94,-15.40757,71.2547
