Frequency,Impedance,Phase Angle,Temperature (Dry Bath)
10.0,22326.11,-17.77681,71.5178
21.544346900318832,19210.57,-16.86376,71.5266
46.41588833612777,16738.61,-16.10516,71.5026
100.0,14742.04,-14.15265,71.5004
215.44346900318823,12871.43,-13.29923,71.5211
464.15888336127773,11808.83,-11.40819,71.5189
1000.0,10778.76,-11.85084,71.5182
2154.4346900318824,9840.857,-10.17801,71.5086
4641.588833612777,9206.067,-11.12637,71.5135
10000.0,8499.977,-12.89434,71.5065
