Frequency,Impedance,Phase Angle,Temperature (Dry Bath)
10.0,4739494.0,-32.21802,70.9738
21.544346900318832,5285962.0,-8.827564,70.9778
46.41588833612777,4770948.0,-11.46822,70.9691
100.0,800085.8,1.401572,70.9758
215.44346900318823,876006.5,-135.8626,70.9722
464.15888336127773,1070775.0,-48.47498,71.002
1000.0,615171.9,-77.92503,70.9956
2154.4346900318824,178840.6,-73.04217,70.9797
4641.588833612777,104306.1,-81.88642,70.9823
10000.0,57183.32,-88.63128,70.9743
