Frequency,Impedance,Phase Angle,Temperature (Dry Bath)
10.0,7497174.0,47.48055,71.3168
21.544346900318832,6803088.0,-23.19179,71.3115
46.41588833612777,3964285.0,-18.56847,71.2932
100.0,931299.3,57.28458,71.2927
215.44346900318823,1271494.0,-32.80516,71.3017
464.15888336127773,627024.0,-49.07269,71.2908
1000.0,352998.3,-118.7427,71.2957
2154.4346900318824,1455120.0,3.328556,71.3056
4641.588833612777,3691070.0,-100.4775,71.2976
10000.0,106368.7,-62.61622,71.2939
