Frequency,Impedance,Phase Angle,Temperature (Dry Bath)
10.0,26494.81,-13.85671,70.6759
21.544346900318832,24097.31,-11.32022,70.6786
46.41588833612777,22255.68,-9.536082,70.671
100.0,19991.63,-6.905852,70.6762
215.44346900318823,19363.74,-7.502118,70.6747
464.15888336127773,18639.99,-10.42355,70.6753
1000.0,17457.41,-6.008486,70.6784
2154.4346900318824,16800.06,-9.424451,70.6753
4641.588833612777,16941.89,-11.94487,70.6799
10000.0,14854.58,-20.1418,70.676
