Frequency,Impedance,Phase Angle,Temperature (Dry Bath)
10.0,157589.2,-13.91345,71.0304
21.544346900318832,141819.3,-12.44477,71.0266
46.41588833612777,129897.6,-12.18862,71.0132
100.0,104518.1,0.3691367,71.0336
215.44346900318823,105975.2,-7.758899,71.0322
464.15888336127773,93294.76,-13.98719,71.0273
1000.0,93650.13,-17.76216,71.0243
2154.4346900318824,72845.72,-17.96346,71.0206
4641.588833612777,67307.64,-35.01747,71.0181
10000.0,53705.54,-48.18404,71.0333
