Frequency,Impedance,Phase Angle,Temperature (Dry Bath)
10.0,10129260.0,-37.94314,70.6898
21.544346900318832,8908024.0,-29.87982,70.6868
46.41588833612777,3962528.0,-27.54233,70.6874
100.0,372583.3,-41.66539,70.701
215.44346900318823,667657.6,14.04376,70.6829
464.15888336127773,498873.6,38.10578,70.6759
1000.0,244624.9,-37.50094,70.6802
2154.4346900318824,236129.3,-100.5875,70.6833
4641.588833612777,145022.4,-87.94862,70.674
10000.0,64164.82,-85.95656,70.6798
