Frequency,Impedance,Phase Angle,Temperature (Dry Bath)
10.0,55535.93,-18.33504,70.9262
21.544346900318832,48400.15,-16.64647,70.9188
46.41588833612777,42550.79,-15.17216,70.9253
100.0,35219.08,-17.27341,70.9221
215.44346900318823,34356.46,-12.29029,70.9301
464.15888336127773,30893.36,-12.36753,70.9245
1000.0,28687.31,-11.67179,70.9243
2154.4346900318824,25861.94,-13.16544,70.9182
4641.588833612777,23832.82,-17.5985,70.9128
10000.0,20343.1,-27.17547,70.9262
