Frequency,Impedance,Phase Angle,Temperature (Dry Bath)
10.0,10519.14,-22.40941,70.9906
21.544346900318832,8952.752,-18.48562,70.9799
46.41588833612777,7829.924,-15.42801,70.9965
100.0,7053.876,-13.69379,70.9927
215.44346900318823,6485.489,-11.41039,70.975
464.15888336127773,5822.866,-9.912883,70.9812
1000.0,5476.463,-8.48938,70.9743
2154.4346900318824,5148.336,-7.418129,70.9593
4641.588833612777,4852.942,-7.91471,70.9819
10000.0,4605.05,-9.613117,70.977
