Frequency,Impedance,Phase Angle,Temperature (Dry Bath)
10.0,4737551.0,-8.174129,71.0558
21.544346900318832,4386282.0,-26.87307,71.0598
46.41588833612777,5134522.0,-21.65394,71.0506
100.0,677112.1,-76.36171,71.0624
215.44346900318823,882832.4,-82.12319,71.04
464.15888336127773,896849.3,-129.2865,71.049
1000.0,881472.1,-89.48562,71.039
2154.4346900318824,238786.9,-82.35562,71.0618
4641.588833612777,122066.0,-78.61785,71.0657
10000.0,53825.66,-88.45106,71.0674
