Frequency,Impedance,Phase Angle,Temperature (Dry Bath)
10.0,7251.136,-35.7903,70.7294
21.544346900318832,5480.279,-31.12393,70.7376
46.41588833612777,4312.952,-26.61241,70.719
100.0,3514.318,-22.30119,70.7455
215.44346900318823,2981.674,-18.87974,70.7465
464.15888336127773,2613.383,-15.54681,70.7407
1000.0,2321.591,-12.90773,70.7426
2154.4346900318824,2109.969,-11.21159,70.728
4641.588833612777,1957.266,-9.944015,70.7216
10000.0,1824.6,-9.34889,70.728
