Frequency,Impedance,Phase Angle,Temperature (Dry Bath)
10.0,6651468.0,21.76071,71.2695
21.544346900318832,5923902.0,-13.49965,71.2677
46.41588833612777,7028095.0,-9.910754,71.2761
100.0,1044767.0,-36.31634,71.2695
215.44346900318823,2337714.0,-76.78113,71.2709
464.15888336127773,642041.9,-30.26216,71.2816
1000.0,554232.2,-11.76767,71.2852
2154.4346900318824,1592114.0,-47.42022,71.2741
4641.588833612777,242584.0,-89.83492,71.2754
10000.0,153943.1,-69.25862,71.2741
