Frequency,Impedance,Phase Angle,Temperature (Dry Bath)
10.0,71903.13,-14.16557,71.6367
21.544346900318832,64280.42,-12.73231,71.6428
46.41588833612777,58232.13,-11.86825,71.6419
100.0,51769.47,-5.350942,71.624
215.44346900318823,46580.0,-1.715175,71.6339
464.15888336127773,41060.57,-11.55192,71.6479
1000.0,47522.46,-6.244153,71.6686
2154.4346900318824,37740.87,-6.186459,71.64
4641.588833612777,39519.83,-5.892933,71.6496
10000.0,34521.07,-10.02583,71.6357
