Frequency,Impedance,Phase Angle,Temperature (Dry Bath)
10.0,490305.4,-11.03157,71.2986
21.544346900318832,457830.5,-8.158001,71.293
46.41588833612777,424843.2,-12.49943,71.3067
100.0,575446.3,-82.57685,71.2965
215.44346900318823,311067.5,-1.661705,71.2995
464.15888336127773,345655.5,-24.76852,71.2935
1000.0,310525.1,-49.88674,71.3009
2154.4346900318824,148080.4,-47.49829,71.3031
4641.588833612777,126416.0,-19.27464,71.2985
10000.0,86768.15,-53.50176,71.2979
