Frequency,Impedance,Phase Angle,Temperature (Dry Bath)
10.0,154200.6,-18.29527,71.21
21.544346900318832,132486.8,-17.88169,71.1956
46.41588833612777,116034.6,-16.21232,71.2
100.0,102945.4,-34.41223,71.215
215.44346900318823,78541.92,-15.63435,71.2015
464.15888336127773,89510.59,-19.26024,71.1999
1000.0,68131.85,-17.33466,71.2179
2154.4346900318824,53901.79,-35.94262,71.2234
4641.588833612777,38651.36,-51.62407,71.2359
10000.0,24119.28,-56.68941,71.234
