Frequency,Impedance,Phase Angle,Temperature (Dry Bath)
10.0,5400310.0,4.482328,71.1786
21.544346900318832,3664701.0,-23.35811,71.172
46.41588833612777,4673053.0,-25.39593,71.175
100.0,340666.1,-64.01184,71.1891
215.44346900318823,1124263.0,179.0266,71.1827
464.15888336127773,1864760.0,-78.74755,71.1718
1000.0,517264.4,-73.91571,71.1897
2154.4346900318824,255451.4,-79.93522,71.1859
4641.588833612777,112803.4,-83.80825,71.1872
10000.0,62364.29,-90.53094,71.1921
