Frequency,Impedance,Phase Angle,Temperature (Dry Bath)
10.0,6920126.0,-12.31179,71.2404
21.544346900318832,2861580.0,-23.72277,71.2638
46.41588833612777,2439883.0,-26.37773,71.2584
100.0,506185.2,19.73163,71.2577
215.44346900318823,1923767.0,125.0129,71.2652
464.15888336127773,1209890.0,-11.14142,71.2733
1000.0,1629685.0,6.913387,71.2664
2154.4346900318824,374967.0,-97.38628,71.2465
4641.588833612777,146205.8,-79.90425,71.2628
10000.0,70877.93,-87.47948,71.2525
