Frequency,Impedance,Phase Angle,Temperature (Dry Bath)
10.0,9287527.0,-18.42422,71.0824
21.544346900318832,4301391.0,-11.35738,71.0797
46.41588833612777,4644951.0,11.44513,71.0779
100.0,522998.6,-29.11236,71.088
215.44346900318823,3471198.0,29.73855,71.087
464.15888336127773,472142.5,-27.63771,71.0707
1000.0,218753.9,-115.4076,71.068
2154.4346900318824,353884.0,172.4352,71.0673
4641.588833612777,207848.5,-109.9395,71.0766
10000.0,161698.4,-105.2703,71.0901
