Frequency,Impedance,Phase Angle,Temperature (Dry Bath)
10.0,74291.41,-11.32272,71.0574
21.544346900318832,69177.86,-9.983425,71.0356
46.41588833612777,64783.65,-8.395259,71.0321
100.0,56542.32,-4.197049,71.0388
215.44346900318823,59130.65,-11.76646,71.0606
464.15888336127773,55125.6,-11.61835,71.0284
1000.0,83090.33,-7.534375,71.0581
2154.4346900318824,44423.01,-14.9541,71.0313
4641.588833612777,51865.87,-23.62267,71.0352
10000.0,43890.85,-17.78422,71.0563
