Frequency,Impedance,Phase Angle,Temperature (Dry Bath)
10.0,6585.122,-28.46381,70.957
21.544346900318832,5203.524,-26.16637,70.9442
46.41588833612777,4207.8,-23.35469,70.9515
100.0,3492.235,-20.28963,70.9621
215.44346900318823,2984.189,-17.44938,70.9609
464.15888336127773,2605.968,-14.71673,70.9485
1000.0,2319.764,-12.82366,70.9517
2154.4346900318824,2132.691,-10.88944,70.9611
4641.588833612777,1949.059,-10.20731,70.9475
10000.0,1823.381,-10.12401,70.9551
