Frequency,Impedance,Phase Angle,Temperature (Dry Bath)
10.0,117864.1,-26.79227,71.6424
21.544346900318832,96411.4,-26.98297,71.6532
46.41588833612777,77680.1,-28.97784,71.6502
100.0,65401.61,-20.00253,71.6537
215.44346900318823,48524.78,-34.3594,71.6426
464.15888336127773,33402.02,-32.48856,71.6387
1000.0,29106.56,-35.76748,71.6365
2154.4346900318824,20750.46,-25.90816,71.6522
4641.588833612777,16463.35,-24.40284,71.6357
10000.0,14944.54,-20.0551,71.6466
