Frequency,Impedance,Phase Angle,Temperature (Dry Bath)
10.0,8516510.0,7.075366,71.4067
21.544346900318832,5835315.0,35.58649,71.4143
46.41588833612777,5750901.0,-12.65962,71.4136
100.0,1221508.0,-58.86934,71.402
215.44346900318823,3278133.0,8.680169,71.4008
464.15888336127773,2580666.0,32.22726,71.421
1000.0,1039294.0,-68.50098,71.3956
2154.4346900318824,458703.3,-54.64705,71.4039
4641.588833612777,300747.2,-107.5343,71.4158
10000.0,159115.1,-95.7199,71.418
