Frequency,Impedance,Phase Angle,Temperature (Dry Bath)
10.0,79973.66,-14.59047,71.5127
21.544346900318832,71877.38,-12.83061,71.5238
46.41588833612777,64823.1,-12.06957,71.5168
100.0,55628.74,-14.49483,71.5089
215.44346900318823,61087.37,-14.02563,71.5141
464.15888336127773,52437.07,-11.91465,71.5251
1000.0,45154.42,-10.40869,71.5248
2154.4346900318824,46749.54,-13.92802,71.5273
4641.588833612777,42487.33,-15.10555,71.5191
10000.0,35541.35,-25.45637,71.5203
