Frequency,Impedance,Phase Angle,Temperature (Dry Bath)
10.0,1384600.0,-21.80171,71.3931
21.544346900318832,1098803.0,-20.05765,71.3846
46.41588833612777,941966.4,-17.64832,71.3793
100.0,279954.6,-32.99018,71.3868
215.44346900318823,715282.8,-31.65591,71.3757
464.15888336127773,681015.8,-1.435247,71.3806
1000.0,348521.2,-46.87529,71.3775
2154.4346900318824,370984.4,-54.31301,71.3914
4641.588833612777,122221.5,-71.25253,71.3757
10000.0,65820.64,-81.42053,71.3769
