Frequency,Impedance,Phase Angle,Temperature (Dry Bath)
10.0,4753173.0,1.161784,71.3093
21.544346900318832,6411887.0,-0.9656415,71.2956
46.41588833612777,5326732.0,-17.64652,71.2967
100.0,370853.0,131.0514,71.2944
215.44346900318823,605769.2,-42.70079,71.3025
464.15888336127773,662007.9,98.27859,71.3017
1000.0,501091.2,-113.2426,71.3002
2154.4346900318824,632397.9,-71.3146,71.2914
4641.588833612777,882456.8,54.16771,71.2916
10000.0,159823.6,-69.56671,71.281
