Frequency,Impedance,Phase Angle,Temperature (Dry Bath)
10.0,30469.01,-18.80181,71.6042
21.544346900318832,26357.61,-17.6601,71.614
46.41588833612777,22887.72,-17.15985,71.6145
100.0,19689.34,-18.09126,71.6107
215.44346900318823,17600.01,-15.42768,71.6008
464.15888336127773,15488.54,-14.288,71.6
1000.0,13682.04,-13.01402,71.595
2154.4346900318824,12606.98,-11.1726,71.5983
4641.588833612777,11510.75,-11.9774,71.614
10000.0,10658.17,-11.57199,71.5989
