Frequency,Impedance,Phase Angle,Temperature (Dry Bath)
10.0,4238874.0,-4.969697,71.0087
21.544346900318832,6405963.0,-16.63497,70.9995
46.41588833612777,4839558.0,-14.88821,71.009
100.0,1249061.0,14.73536,70.9926
215.44346900318823,617186.1,-65.21779,71.0075
464.15888336127773,1816304.0,-50.62577,70.9921
1000.0,660900.5,-83.69926,70.9886
2154.4346900318824,290906.0,-69.46584,70.9821
4641.588833612777,122434.0,-73.95197,70.9987
10000.0,62759.32,-85.11309,70.9942
