Frequency,Impedance,Phase Angle,Temperature (Dry Bath)
10.0,7326.702,-26.62814,70.8543
21.544346900318832,6030.133,-21.45855,70.865
46.41588833612777,5190.607,-17.21188,70.872
100.0,4558.353,-14.32578,70.8676
215.44346900318823,4175.181,-11.66439,70.8602
464.15888336127773,3831.684,-10.0677,70.8734
1000.0,3538.539,-8.273927,70.8463
2154.4346900318824,3369.84,-7.092824,70.8551
4641.588833612777,3203.284,-6.907037,70.8661
10000.0,3094.557,-8.032913,70.8742
