Frequency,Impedance,Phase Angle,Temperature (Dry Bath)
10.0,62401.68,-14.35148,70.8159
21.544346900318832,56815.34,-12.04947,70.8221
46.41588833612777,51924.2,-10.67461,70.8191
100.0,43465.85,-10.9645,70.8115
215.44346900318823,45418.42,-7.797922,70.8081
464.15888336127773,40878.17,-9.344423,70.8196
1000.0,39602.65,-8.568148,70.8206
2154.4346900318824,39717.94,-15.35064,70.8254
4641.588833612777,34580.04,-24.44296,70.8021
10000.0,27937.52,-34.55251,70.8105
