Frequency,Impedance,Phase Angle,Temperature (Dry Bath)
10.0,121419.0,-14.69415,71.4498
21.544346900318832,108484.3,-13.39169,71.4522
46.41588833612777,97639.57,-12.29904,71.4544
100.0,88730.51,-7.889111,71.4706
215.44346900318823,90622.84,-15.61469,71.4526
464.15888336127773,81744.14,-13.14772,71.4571
1000.0,71953.69,-10.41002,71.4558
2154.4346900318824,60137.42,-20.94418,71.4482
4641.588833612777,60553.93,-22.81544,71.4647
10000.0,47210.34,-35.44602,71.4491
