Frequency,Impedance,Phase Angle,Temperature (Dry Bath)
10.0,5877422.0,-29.06604,71.2517
21.544346900318832,3904780.0,-35.81221,71.231
46.41588833612777,7997176.0,12.86742,71.2175
100.0,848680.7,175.6526,71.2339
215.44346900318823,1648381.0,-93.27187,71.226
464.15888336127773,744918.6,-25.36872,71.2366
1000.0,1212520.0,-133.6325,71.2388
2154.4346900318824,341046.1,-113.2411,71.238
4641.588833612777,127546.0,-99.84639,71.227
10000.0,74339.34,-84.2134,71.2208
