Frequency,Impedance,Phase Angle,Temperature (Dry Bath)
10.0,11432.62,-23.95426,71.5043
21.544346900318832,9327.363,-24.17374,71.5019
46.41588833612777,7569.54,-23.75352,71.4911
100.0,6192.483,-21.59569,71.4942
215.44346900318823,5225.929,-19.6468,71.5002
464.15888336127773,4495.06,-17.41579,71.4916
1000.0,3927.727,-15.53574,71.507
2154.4346900318824,3490.439,-14.35984,71.4962
4641.588833612777,3136.862,-12.72938,71.5029
10000.0,2820.948,-11.61733,71.4789
