Frequency,Impedance,Phase Angle,Temperature (Dry Bath)
10.0,12403.04,-26.96181,71.1989
21.544346900318832,9972.347,-24.29818,71.2017
46.41588833612777,8208.398,-21.59383,71.2069
100.0,6980.831,-17.86379,71.1817
215.44346900318823,6056.159,-16.42068,71.1942
464.15888336127773,5315.32,-14.75763,71.1928
1000.0,4740.725,-12.75093,71.2027
2154.4346900318824,4311.131,-11.83956,71.1929
4641.588833612777,3930.013,-11.36965,71.185
10000.0,3613.827,-12.28398,71.189
