Frequency,Impedance,Phase Angle,Temperature (Dry Bath)
10.0,5185766.0,-13.35217,70.8408
21.544346900318832,5528911.0,-8.876924,70.8495
46.41588833612777,4634436.0,-25.99302,70.8571
100.0,406957.0,43.63804,70.8542
215.44346900318823,976552.1,171.3731,70.8474
464.15888336127773,610337.0,-124.9738,70.842
1000.0,312445.5,-146.4952,70.8457
2154.4346900318824,247156.5,-75.57394,70.8417
4641.588833612777,143179.6,-100.1289,70.8525
10000.0,66392.24,-88.05436,70.8494
