Frequency,Impedance,Phase Angle,Temperature (Dry Bath)
10.0,6255507.0,-31.74057,71.4571
21.544346900318832,3594262.0,-1.644037,71.4686
46.41588833612777,6734091.0,-25.19333,71.484
100.0,830607.2,0.2630718,71.4624
215.44346900318823,3026972.0,-64.12126,71.4394
464.15888336127773,2017407.0,-16.29394,71.4583
1000.0,392277.2,-55.01751,71.4506
2154.4346900318824,1034044.0,-10.06986,71.4811
4641.588833612777,282606.4,-100.9699,71.4661
10000.0,115622.0,-84.01259,71.4647
