Frequency,Impedance,Phase Angle,Temperature (Dry Bath)
10.0,5179459.0,-18.91476,72.1708
21.544346900318832,3158593.0,-2.535494,72.1731
46.41588833612777,5703518.0,1.229206,72.1817
100.0,728281.5,89.29981,72.173
215.44346900318823,839233.1,-27.05985,72.1653
464.15888336127773,393102.9,-137.8984,72.185
1000.0,372700.0,-64.30789,72.1722
2154.4346900318824,618986.2,-26.8117,72.1666
4641.588833612777,320084.0,-77.37555,72.1737
10000.0,108140.6,-95.38289,72.1541
