Frequency,Impedance,Phase Angle,Temperature (Dry Bath)
10.0,6636.737,-39.73124,70.9377
21.544346900318832,4842.965,-34.00548,70.9258
46.41588833612777,3734.552,-28.31962,70.9346
100.0,3027.626,-23.14972,70.9497
215.44346900318823,2553.569,-19.01821,70.9233
464.15888336127773,2225.002,-15.85174,70.9241
1000.0,1976.369,-13.95896,70.9241
2154.4346900318824,1791.589,-11.19375,70.9151
4641.588833612777,1647.858,-9.771064,70.9337
10000.0,1534.007,-8.694002,70.9357
