Frequency,Impedance,Phase Angle,Temperature (Dry Bath)
10.0,3239963.0,-10.6799,71.2869
21.544346900318832,3492142.0,-7.753334,71.283
46.41588833612777,2480990.0,-27.31575,71.2866
100.0,419055.9,-26.83852,71.2933
215.44346900318823,829941.5,-60.12924,71.284
464.15888336127773,685322.1,-79.08699,71.3005
1000.0,993024.9,20.66081,71.2884
2154.4346900318824,515924.2,-84.17532,71.2943
4641.588833612777,105687.1,-87.60373,71.2862
10000.0,64525.82,-85.59858,71.2976
