Frequency,Impedance,Phase Angle,Temperature (Dry Bath)
10.0,6856295.0,1.943625,71.2582
21.544346900318832,4075321.0,-37.38863,71.2454
46.41588833612777,4359382.0,-21.68389,71.2517
100.0,695529.3,44.12614,71.2535
215.44346900318823,1109481.0,117.3441,71.2483
464.15888336127773,425596.6,-91.20798,71.2415
1000.0,225225.4,-82.50644,71.2421
2154.4346900318824,281597.1,-80.54938,71.2437
4641.588833612777,132094.7,-95.25707,71.2468
10000.0,58304.46,-92.9945,71.2345
