Frequency,Impedance,Phase Angle,Temperature (Dry Bath)
10.0,58003.53,-20.04966,71.4935
21.544346900318832,49378.08,-19.55412,71.4631
46.41588833612777,42084.78,-19.48369,71.4828
100.0,34881.5,-18.30156,71.4748
215.44346900318823,29561.38,-17.84728,71.4898
464.15888336127773,25179.01,-16.11428,71.4764
1000.0,23051.02,-15.79869,71.4877
2154.4346900318824,20024.4,-12.76608,71.4827
4641.588833612777,18328.9,-15.58183,71.477
10000.0,17043.66,-16.14521,71.4853
