Frequency,Impedance,Phase Angle,Temperature (Dry Bath)
10.0,9007794.0,-20.24085,71.431
21.544346900318832,3919581.0,-0.9307274,71.4495
46.41588833612777,6013035.0,-12.7232,71.4308
100.0,16918560.0,46.27585,71.4266
215.44346900318823,743248.0,-122.5768,71.4228
464.15888336127773,699733.6,-107.6457,71.4233
1000.0,524194.9,-60.17744,71.4381
2154.4346900318824,530972.5,-96.13618,71.4303
4641.588833612777,217879.4,-94.23614,71.4309
10000.0,140656.9,-83.11004,71.4459
