Frequency,Impedance,Phase Angle,Temperature (Dry Bath)
10.0,5844477.0,-26.47835,71.3791
21.544346900318832,5650665.0,-14.23636,71.4242
46.41588833612777,4061465.0,-15.59701,71.3904
100.0,2413158.0,26.95242,71.3865
215.44346900318823,844881.6,-38.0887,71.3836
464.15888336127773,592278.7,-69.72401,71.3969
1000.0,1574360.0,118.694,71.3883
2154.4346900318824,253101.6,-89.43613,71.378
4641.588833612777,129185.8,-94.08168,71.4129
10000.0,66838.79,-90.4416,71.4069
