Frequency,Impedance,Phase Angle,Temperature (Dry Bath)
10.0,7195719.0,-22.07118,71.4055
21.544346900318832,7144349.0,-30.09745,71.3985
46.41588833612777,4058375.0,-50.15199,71.4086
100.0,234523.4,-15.89167,71.4026
215.44346900318823,17406.87,-45.64603,71.4017
464.15888336127773,1035919.0,-22.88455,71.3847
1000.0,512693.7,-96.05506,71.3936
2154.4346900318824,247224.0,-105.4374,71.4053
4641.588833612777,136032.9,-87.01704,71.4139
10000.0,63914.26,-83.8594,71.3951
