Frequency,Impedance,Phase Angle,Temperature (Dry Bath)
10.0,3877012.0,-10.93845,70.4777
21.544346900318832,4412465.0,12.92235,70.5032
46.41588833612777,3733022.0,-53.43643,70.4936
100.0,378080.8,-63.92689,70.4959
215.44346900318823,2095835.0,-99.24095,70.4978
464.15888336127773,1412440.0,40.06877,70.4865
1000.0,387895.6,-93.35653,70.4992
2154.4346900318824,492200.2,-109.7851,70.4936
4641.588833612777,130836.4,-88.96884,70.4956
10000.0,59840.92,-85.74272,70.4985
