Frequency,Impedance,Phase Angle,Temperature (Dry Bath)
10.0,7340797.0,-0.302637,71.7728
21.544346900318832,8805770.0,-19.74834,71.7785
46.41588833612777,6352370.0,-24.27707,71.7706
100.0,284828.8,-48.36337,71.7851
215.44346900318823,338493.9,-155.5513,71.7728
464.15888336127773,668366.2,-56.17512,71.7821
1000.0,299181.4,155.3543,71.7761
2154.4346900318824,502406.1,-66.3415,71.7717
4641.588833612777,415128.6,-113.742,71.7969
10000.0,142349.8,-105.5025,71.7849
