Frequency,Impedance,Phase Angle,Temperature (Dry Bath)
10.0,14679.85,-19.44029,71.0151
21.544346900318832,12642.39,-16.79859,71.0202
46.41588833612777,11140.95,-14.66532,71.015
100.0,10088.56,-12.94239,71.0201
215.44346900318823,9061.767,-10.5689,70.9948
464.15888336127773,8306.266,-10.28314,71.0
1000.0,7667.056,-10.58153,71.0078
2154.4346900318824,7246.969,-9.632404,70.9799
4641.588833612777,6693.765,-10.60413,70.9997
10000.0,6229.591,-13.55436,71.0055
