Frequency,Impedance,Phase Angle,Temperature (Dry Bath)
10.0,5639456.0,9.517364,71.4572
21.544346900318832,2913259.0,-16.24398,71.4574
46.41588833612777,5182181.0,-7.027497,71.4544
100.0,2205978.0,152.9352,71.4606
215.44346900318823,1263410.0,-101.1613,71.4356
464.15888336127773,672478.7,152.8466,71.4472
1000.0,517574.0,-83.03452,71.4483
2154.4346900318824,434164.3,-59.88388,71.4451
4641.588833612777,317298.1,-88.10167,71.4334
10000.0,178078.3,-87.53716,71.4536
