Frequency,Impedance,Phase Angle,Temperature (Dry Bath)
10.0,8296212.0,-11.16394,71.681
21.544346900318832,4408969.0,3.269534,71.6735
46.41588833612777,4513499.0,-3.774157,71.6788
100.0,698556.0,-99.80806,71.6773
215.44346900318823,778585.7,92.17895,71.6797
464.15888336127773,1203912.0,-124.6047,71.6885
1000.0,1158129.0,-42.32917,71.6944
2154.4346900318824,372445.2,-60.98748,71.6811
4641.588833612777,265409.9,-88.86712,71.6892
10000.0,133852.5,-76.42805,71.6943
