Frequency,Impedance,Phase Angle,Temperature (Dry Bath)
10.0,4547035.0,-23.20717,70.9634
21.544346900318832,5944351.0,24.49851,70.9752
46.41588833612777,4876166.0,-14.88692,70.9792
100.0,591709.9,78.53702,70.9816
215.44346900318823,698181.6,-166.531,70.9672
464.15888336127773,2063198.0,-147.2239,70.9756
1000.0,1662283.0,-55.48185,70.974
2154.4346900318824,791731.0,51.45858,70.9853
4641.588833612777,357262.7,-63.4911,70.9699
10000.0,211303.4,-72.25298,70.9728
