Frequency,Impedance,Phase Angle,Temperature (Dry Bath)
10.0,4467951.0,1.380117,71.497
21.544346900318832,60684680.0,-118.9803,71.5057
46.41588833612777,4972526.0,-24.14138,71.4987
100.0,583887.8,-67.08003,71.4967
215.44346900318823,2034162.0,-86.52302,71.4854
464.15888336127773,498346.8,-16.10781,71.5002
1000.0,189735.3,-108.2153,71.4834
2154.4346900318824,219585.3,-66.92983,71.4906
4641.588833612777,162269.6,-94.84397,71.5004
10000.0,59641.78,-79.9961,71.4863
