Frequency,Impedance,Phase Angle,Temperature (Dry Bath)
10.0,4502813.0,-7.773908,70.9694
21.544346900318832,2570746.0,-22.81369,70.9835
46.41588833612777,2399630.0,-34.84487,70.9555
100.0,456085.7,-29.05743,70.968
215.44346900318823,602859.9,-52.60715,70.9719
464.15888336127773,610236.3,-96.8895,70.9655
1000.0,1824390.0,106.8957,70.9659
2154.4346900318824,244926.5,-74.71912,70.9564
4641.588833612777,117679.7,-87.97065,70.9534
10000.0,70663.5,-76.37341,70.9516
