Frequency,Impedance,Phase Angle,Temperature (Dry Bath)
10.0,63904.18,-13.72452,71.1793
21.544346900318832,57454.35,-12.77677,71.1776
46.41588833612777,52014.41,-11.21788,71.168
100.0,44758.85,-13.16217,71.182
215.44346900318823,45457.05,-9.414601,71.1602
464.15888336127773,36128.03,-5.730763,71.1549
1000.0,35984.34,-2.91852,71.1791
2154.4346900318824,40468.26,-12.42401,71.1731
4641.588833612777,41282.31,-5.443454,71.1618
10000.0,37947.01,-16.09225,71.1657
