Frequency,Impedance,Phase Angle,Temperature (Dry Bath)
10.0,14391.12,-20.08581,71.193
21.544346900318832,12371.54,-17.3934,71.2172
46.41588833612777,10836.46,-15.14758,71.1983
100.0,9567.311,-11.96865,71.2083
215.44346900318823,8827.683,-11.84469,71.1851
464.15888336127773,8025.397,-10.77213,71.1999
1000.0,7332.587,-10.63439,71.1951
2154.4346900318824,6945.459,-10.09313,71.193
4641.588833612777,6457.987,-9.937981,71.1982
10000.0,6089.408,-12.40352,71.195
