Frequency,Impedance,Phase Angle,Temperature (Dry Bath)
10.0,2448998.0,2.470118,70.9409
21.544346900318832,1876087.0,-20.70281,70.922
46.41588833612777,1986184.0,-18.18018,70.9221
100.0,712680.4,16.53153,70.9141
215.44346900318823,708795.4,-91.50084,70.9302
464.15888336127773,1171109.0,-27.81591,70.9129
1000.0,305697.3,-23.0134,70.9223
2154.4346900318824,228868.5,-88.79972,70.9116
4641.588833612777,144091.2,-80.86906,70.9199
10000.0,55762.4,-87.54573,70.9189
