Frequency,Impedance,Phase Angle,Temperature (Dry Bath)
10.0,1187651.0,-21.29742,71.251
21.544346900318832,1035535.0,-19.99657,71.2503
46.41588833612777,893117.7,-19.44141,71.2666
100.0,753767.4,-34.04321,71.2651
215.44346900318823,448342.1,-7.218405,71.2713
464.15888336127773,523076.9,-33.14776,71.258
1000.0,236589.5,-71.23438,71.2601
2154.4346900318824,229252.4,-68.66452,71.2629
4641.588833612777,124999.3,-79.17173,71.2609
10000.0,58582.76,-71.96682,71.2674
