Frequency,Impedance,Phase Angle,Temperature (Dry Bath)
10.0,6974197.0,4.374827,70.5293
21.544346900318832,4429561.0,-6.633222,70.5398
46.41588833612777,3560419.0,-27.58872,70.5401
100.0,1657761.0,86.69816,70.5401
215.44346900318823,681832.5,-47.48103,70.529
464.15888336127773,988092.4,-130.194,70.5543
1000.0,438802.2,-36.17631,70.5363
2154.4346900318824,306984.0,-82.40649,70.5452
4641.588833612777,175684.9,-83.85065,70.5519
10000.0,53236.83,-84.66829,70.5405
