Frequency,Impedance,Phase Angle,Temperature (Dry Bath)
10.0,3988770.0,-11.70003,71.5054
21.544346900318832,8620392.0,-4.889147,71.5116
46.41588833612777,5801376.0,-8.469335,71.5042
100.0,1723349.0,-13.12779,71.5063
215.44346900318823,508418.7,-111.6002,71.496
464.15888336127773,1012512.0,-80.01609,71.5026
1000.0,630531.3,-111.6523,71.496
2154.4346900318824,335834.2,-105.3886,71.5067
4641.588833612777,320858.6,-77.87383,71.4927
10000.0,184785.0,-75.58403,71.4942
