Frequency,Impedance,Phase Angle,Temperature (Dry Bath)
10.0,1089530.0,-12.02745,71.6119
21.544346900318832,961700.8,-11.48776,71.6296
46.41588833612777,926216.7,-8.8529,71.6339
100.0,309463.9,-22.18409,71.6123
215.44346900318823,1854794.0,-88.13438,71.6096
464.15888336127773,427164.2,-73.45004,71.6198
1000.0,445545.2,-74.64166,71.6096
2154.4346900318824,435504.9,-70.14526,71.6118
4641.588833612777,335829.7,-92.44197,71.6182
10000.0,139552.3,-59.42992,71.6036
