Frequency,Impedance,Phase Angle,Temperature (Dry Bath)
10.0,5443063.0,21.54066,71.5392
21.544346900318832,5576034.0,-22.12728,71.5304
46.41588833612777,4742355.0,-18.12355,71.5505
100.0,833647.2,-48.18078,71.5382
215.44346900318823,2977495.0,53.93062,71.5502
464.15888336127773,2454832.0,-76.72893,71.5587
1000.0,723777.1,-72.03198,71.5302
2154.4346900318824,625099.2,-97.71555,71.5534
4641.588833612777,190702.5,-97.58548,71.5506
10000.0,136524.3,-88.08338,71.5508
