Frequency,Impedance,Phase Angle,Temperature (Dry Bath)
10.0,2888708.0,21.40602,71.243
21.544346900318832,6982372.0,15.47803,71.2426
46.41588833612777,4413907.0,-23.44173,71.2307
100.0,882502.1,125.1522,71.23
215.44346900318823,955479.0,22.82906,71.2289
464.15888336127773,823101.9,98.86727,71.2337
1000.0,297816.7,-58.37228,71.2314
2154.4346900318824,279423.5,-89.2426,71.2239
4641.588833612777,158493.2,-83.05894,71.2509
10000.0,68162.68,-85.14605,71.2318
