Frequency,Impedance,Phase Angle,Temperature (Dry Bath)
10.0,42212.61,-19.5865,71.1332
21.544346900318832,35948.55,-19.65559,71.1353
46.41588833612777,30603.25,-20.06282,71.1401
100.0,26206.1,-18.2294,71.1312
215.44346900318823,21952.2,-23.27761,71.137
464.15888336127773,17762.7,-24.39835,71.1306
1000.0,14241.29,-23.24244,71.131
2154.4346900318824,11529.7,-24.59038,71.1366
4641.588833612777,9314.322,-22.57608,71.133
10000.0,7668.524,-20.47152,71.1196
