Frequency,Impedance,Phase Angle,Temperature (Dry Bath)
10.0,56816.93,-17.33673,70.7562
21.544346900318832,50160.58,-15.32446,70.7602
46.41588833612777,44855.75,-14.32788,70.7676
100.0,41478.44,-20.25143,70.7673
215.44346900318823,37101.48,-15.49127,70.7672
464.15888336127773,33111.37,-16.22019,70.7595
1000.0,27312.1,-10.86256,70.7521
2154.4346900318824,26602.29,-17.28506,70.7728
4641.588833612777,24719.5,-15.19509,70.75
10000.0,21542.96,-28.23516,70.7703
