Frequency,Impedance,Phase Angle,Temperature (Dry Bath)
10.0,4078807.0,-9.46533,71.396
21.544346900318832,5213058.0,12.08088,71.4079
46.41588833612777,4367038.0,-12.5401,71.4
100.0,849366.1,-92.14806,71.4037
215.44346900318823,476872.6,-40.75169,71.3978
464.15888336127773,867234.2,16.26254,71.3812
1000.0,1004818.0,-79.41876,71.4145
2154.4346900318824,327422.4,-76.0698,71.3904
4641.588833612777,517724.4,-48.66007,71.3916
10000.0,135827.1,-72.01228,71.3958
