Frequency,Impedance,Phase Angle,Temperature (Dry Bath)
10.0,4895956.0,-0.8724475,71.3196
21.544346900318832,5227077.0,5.19858,71.3324
46.41588833612777,4044142.0,-14.86171,71.3197
100.0,866524.2,81.05582,71.3151
215.44346900318823,364001.5,-77.13909,71.3245
464.15888336127773,910739.9,-157.7869,71.3252
1000.0,263834.9,-83.201,71.319
2154.4346900318824,362947.8,-77.62298,71.3416
4641.588833612777,134369.6,-84.34974,71.3259
10000.0,67306.15,-84.74663,71.3268
