Frequency,Impedance,Phase Angle,Temperature (Dry Bath)
10.0,4076248.0,-7.712197,71.4472
21.544346900318832,5998591.0,-12.65373,71.4526
46.41588833612777,4154372.0,-28.23913,71.46
100.0,890462.0,124.9762,71.4499
215.44346900318823,2365972.0,-134.1394,71.4529
464.15888336127773,2985983.0,9.550183,71.4529
1000.0,2938379.0,-70.50015,71.4347
2154.4346900318824,190092.1,-100.0729,71.4471
4641.588833612777,125245.0,-78.65269,71.4384
10000.0,58975.93,-91.98053,71.4398
