Frequency,Impedance,Phase Angle,Temperature (Dry Bath)
10.0,5695611.0,18.22771,70.8394
21.544346900318832,3590579.0,-4.939935,70.8356
46.41588833612777,4459106.0,-30.47401,70.8313
100.0,349232.4,-80.97622,70.8404
215.44346900318823,1056450.0,-89.60034,70.8345
464.15888336127773,897388.7,-55.8489,70.8458
1000.0,574124.8,-97.24014,70.8413
2154.4346900318824,453958.8,-60.22761,70.8521
4641.588833612777,199394.9,-71.1108,70.8336
10000.0,68205.33,-84.69794,70.8396
