Frequency,Impedance,Phase Angle,Temperature (Dry Bath)
10.0,14433.73,-19.93977,71.2569
21.544346900318832,12390.83,-17.16083,71.2553
46.41588833612777,10902.72,-14.93782,71.2439
100.0,9700.536,-12.09064,71.2531
215.44346900318823,8829.509,-11.58176,71.258
464.15888336127773,8110.295,-10.57864,71.2635
1000.0,7529.457,-10.47386,71.2591
2154.4346900318824,6986.552,-9.734189,71.2463
4641.588833612777,6557.721,-9.537327,71.2662
10000.0,6064.599,-12.75892,71.2686
