Frequency,Impedance,Phase Angle,Temperature (Dry Bath)
10.0,4949846.0,4.900079,71.2569
21.544346900318832,5584158.0,-1.068728,71.2606
46.41588833612777,4821115.0,0.9440662,71.27
100.0,393881.5,-60.36967,71.265
215.44346900318823,602535.8,-133.2987,71.2541
464.15888336127773,981048.5,-170.4073,71.2648
1000.0,257668.2,-53.12543,71.2784
2154.4346900318824,1075345.0,-71.5181,71.2553
4641.588833612777,266138.5,-65.39044,71.2601
10000.0,177732.7,-81.90289,71.285
