Frequency,Impedance,Phase Angle,Temperature (Dry Bath)
10.0,4963891.0,-0.675713,71.3349
21.544346900318832,4209578.0,18.95318,71.3395
46.41588833612777,3984937.0,-31.45511,71.3139
100.0,357547.3,139.5924,71.3446
215.44346900318823,1575087.0,-48.38431,71.3441
464.15888336127773,548462.1,-69.83929,71.3362
1000.0,377594.9,-61.34936,71.3243
2154.4346900318824,445037.4,-90.86393,71.334
4641.588833612777,275815.8,-39.23755,71.3303
10000.0,137984.4,-87.22007,71.3307
