Frequency,Impedance,Phase Angle,Temperature (Dry Bath)
10.0,5073103.0,-3.710098,71.4543
21.544346900318832,4390767.0,1.574997,71.4579
46.41588833612777,5060464.0,-15.51425,71.4368
100.0,911202.4,-42.85437,71.4446
215.44346900318823,2111241.0,85.23313,71.4406
464.15888336127773,892551.2,-63.40968,71.4384
1000.0,697273.9,-93.10316,71.4446
2154.4346900318824,491068.9,-106.1884,71.434
4641.588833612777,265608.9,-65.81548,71.4544
10000.0,169882.1,-84.40614,71.4382
