Frequency,Impedance,Phase Angle,Temperature (Dry Bath)
10.0,8694016.0,6.612732,70.6994
21.544346900318832,4508612.0,-18.1697,70.7074
46.41588833612777,3800590.0,-33.55669,70.7059
100.0,977727.3,-134.3719,70.7234
215.44346900318823,555692.8,-31.41852,70.6968
464.15888336127773,968197.2,-0.251709,70.7066
1000.0,314603.5,-91.13006,70.7068
2154.4346900318824,362106.6,-55.40454,70.706
4641.588833612777,187020.4,-87.60392,70.7054
10000.0,71286.5,-85.25596,70.7018
