Frequency,Impedance,Phase Angle,Temperature (Dry Bath)
10.0,6956340.0,-0.5483694,71.2854
21.544346900318832,4120827.0,-22.81985,71.2837
46.41588833612777,3176341.0,30.70278,71.2884
100.0,306332.1,-11.16471,71.2772
215.44346900318823,25995.06,-32.59653,71.2885
464.15888336127773,569475.7,-11.45328,71.2988
1000.0,768672.5,-74.00868,71.2703
2154.4346900318824,319469.9,-73.89978,71.2918
4641.588833612777,124710.8,-86.36201,71.2895
10000.0,62473.68,-77.90423,71.2898
