Frequency,Impedance,Phase Angle,Temperature (Dry Bath)
10.0,5554711.0,44.57972,71.0227
21.544346900318832,4972340.0,-41.48827,71.0203
46.41588833612777,5783788.0,-21.45947,71.0191
100.0,850164.2,-55.04986,71.0296
215.44346900318823,589891.1,-85.99248,71.0265
464.15888336127773,1194015.0,-134.0518,71.0281
1000.0,281695.0,-71.6914,71.0264
2154.4346900318824,292513.6,-86.05358,71.0178
4641.588833612777,115252.9,-83.1287,71.035
10000.0,59170.25,-81.6866,71.0362
