Frequency,Impedance,Phase Angle,Temperature (Dry Bath)
10.0,3961619.0,7.957081,70.9382
21.544346900318832,3733265.0,-15.37541,70.9332
46.41588833612777,5431250.0,-32.3244,70.9298
100.0,1641036.0,143.705,70.9329
215.44346900318823,936507.3,-83.78822,70.9457
464.15888336127773,651599.5,-72.64629,70.9424
1000.0,549535.9,-63.06855,70.9398
2154.4346900318824,352238.1,-82.6789,70.9372
4641.588833612777,148133.7,-72.34717,70.9378
10000.0,64863.29,-90.18783,70.9354
