Frequency,Impedance,Phase Angle,Temperature (Dry Bath)
10.0,119373.1,-15.53142,71.0542
21.544346900318832,107627.8,-12.89957,71.0687
46.41588833612777,95916.87,-11.93322,71.0703
100.0,79811.26,-9.994412,71.0751
215.44346900318823,75541.01,-10.86146,71.0593
464.15888336127773,71014.25,-18.6818,71.0825
1000.0,73969.88,-15.43806,71.0692
2154.4346900318824,63790.93,-17.09438,71.0622
4641.588833612777,57474.48,-27.50128,71.0702
10000.0,40064.06,-45.53853,71.0685
