Frequency,Impedance,Phase Angle,Temperature (Dry Bath)
10.0,5527720.0,-12.8182,71.1179
21.544346900318832,4772502.0,-9.088876,71.124
46.41588833612777,4651680.0,-37.63849,71.1258
100.0,442372.4,43.79777,71.1191
215.44346900318823,2435831.0,-22.33936,71.1291
464.15888336127773,512537.2,-58.24292,71.1296
1000.0,724754.9,-143.7863,71.1311
2154.4346900318824,237418.8,-76.28389,71.1202
4641.588833612777,137763.0,-100.2633,71.1199
10000.0,56974.82,-82.10525,71.1259
