Frequency,Impedance,Phase Angle,Temperature (Dry Bath)
10.0,12160.59,-25.72206,71.1677
21.544346900318832,9886.345,-23.0907,71.1721
46.41588833612777,8226.799,-20.46703,71.1719
100.0,7063.419,-18.28869,71.1605
215.44346900318823,6155.436,-15.87578,71.1536
464.15888336127773,5406.901,-13.27556,71.1561
1000.0,4899.097,-11.37053,71.1672
2154.4346900318824,4442.457,-9.784193,71.1618
4641.588833612777,4191.31,-9.845364,71.1562
10000.0,3933.185,-10.4592,71.171
