Frequency,Impedance,Phase Angle,Temperature (Dry Bath)
10.0,297941.7,-25.34053,71.195
21.544346900318832,243245.2,-23.69491,71.1912
46.41588833612777,203367.5,-20.67214,71.1749
100.0,257950.8,-19.93296,71.1844
215.44346900318823,156558.4,-14.94556,71.1936
464.15888336127773,116479.4,-24.12113,71.1843
1000.0,112392.3,-25.65808,71.194
2154.4346900318824,104090.4,-38.86725,71.1714
4641.588833612777,62217.09,-34.54873,71.1834
10000.0,44174.0,-51.96931,71.1995
