Frequency,Impedance,Phase Angle,Temperature (Dry Bath)
10.0,4968554.0,16.63007,29.1115
21.544346900318832,3828417.0,6.330789,29.1368
46.41588833612777,6112651.0,-9.854176,29.2304
100.0,440674.5,-3.336505,29.24
215.44346900318823,1091910.0,34.21805,29.2661
464.15888336127773,1382773.0,13.68431,29.2128
1000.0,610863.5,-4.674253,29.3155
2154.4346900318824,604132.2,-87.3382,29.1947
4641.588833612777,218398.0,-83.6154,29.3051
10000.0,127797.2,-81.52077,29.3281
