Frequency,Impedance,Phase Angle,Temperature (Dry Bath)
10.0,4227570.0,-36.15605,71.5695
21.544346900318832,5245712.0,11.34082,71.5653
46.41588833612777,6090446.0,-22.95801,71.5694
100.0,1434905.0,-99.16773,71.5621
215.44346900318823,1672753.0,41.53886,71.5664
464.15888336127773,787207.3,-113.8789,71.5656
1000.0,675019.7,-90.02723,71.5526
2154.4346900318824,472761.5,-96.30032,71.5598
4641.588833612777,225562.4,-83.42137,71.5458
10000.0,154247.5,-93.67913,71.547
