Frequency,Impedance,Phase Angle,Temperature (Dry Bath)
10.0,7416504.0,-19.54635,70.7825
21.544346900318832,4360281.0,-35.71068,70.7812
46.41588833612777,5206506.0,-25.92702,70.7888
100.0,3297914.0,-13.74828,70.8036
215.44346900318823,747652.4,-20.82217,70.7953
464.15888336127773,549779.8,-65.04085,70.783
1000.0,209469.4,-129.7089,70.804
2154.4346900318824,390069.8,-67.63225,70.7904
4641.588833612777,169726.6,-93.99008,70.8086
10000.0,69529.55,-92.67813,70.788
