Frequency,Impedance,Phase Angle,Temperature (Dry Bath)
10.0,683147.3,-3.429285,71.5816
21.544346900318832,671256.1,-5.611961,71.5919
46.41588833612777,595734.2,-5.46653,71.5722
100.0,466294.7,-81.22894,71.5745
215.44346900318823,581427.5,-40.08236,71.5668
464.15888336127773,488935.4,-40.35016,71.5766
1000.0,341839.5,-45.84388,71.5846
2154.4346900318824,302200.7,-48.64341,71.589
4641.588833612777,180343.8,-53.69122,71.5563
10000.0,101211.7,-66.72705,71.5759
