Frequency,Impedance,Phase Angle,Temperature (Dry Bath)
10.0,3955144.0,-10.45783,70.9718
21.544346900318832,3089602.0,-4.303708,70.9858
46.41588833612777,4629472.0,-28.23783,70.9844
100.0,248573.2,-76.1887,70.9962
215.44346900318823,391637.3,-59.99918,70.9791
464.15888336127773,912364.5,113.4991,70.9838
1000.0,949362.3,19.00536,70.9955
2154.4346900318824,352865.7,-62.12646,70.9906
4641.588833612777,118693.6,-88.12813,70.9678
10000.0,71528.92,-76.22067,70.9713
