Frequency,Impedance,Phase Angle,Temperature (Dry Bath)
10.0,5821849.0,33.20776,71.1825
21.544346900318832,3482665.0,-8.355883,71.1826
46.41588833612777,4461341.0,-22.82363,71.1848
100.0,576837.6,111.6567,71.1643
215.44346900318823,1666498.0,-125.9346,71.1815
464.15888336127773,360193.3,-93.58688,71.172
1000.0,467729.1,-98.53724,71.1673
2154.4346900318824,220252.7,-78.09745,71.1682
4641.588833612777,118277.3,-81.95317,71.1672
10000.0,66094.1,-82.23531,71.1728
