Frequency,Impedance,Phase Angle,Temperature (Dry Bath)
10.0,5278600.0,-38.75103,70.2955
21.544346900318832,3691496.0,-20.79861,70.3
46.41588833612777,4124925.0,-3.24752,70.2996
100.0,419075.8,-30.96754,70.3061
215.44346900318823,790008.7,-56.20851,70.2997
464.15888336127773,488573.5,-46.21357,70.2998
1000.0,360233.8,-112.2221,70.2836
2154.4346900318824,278778.0,-83.48021,70.2937
4641.588833612777,154272.8,-87.26424,70.29
10000.0,59645.22,-91.80822,70.2874
