Frequency,Impedance,Phase Angle,Temperature (Dry Bath)
10.0,12538.16,-26.41527,71.3021
21.544346900318832,10136.38,-23.75709,71.2998
46.41588833612777,8385.894,-21.13128,71.3018
100.0,7169.274,-18.34906,71.2967
215.44346900318823,6184.897,-15.88348,71.2872
464.15888336127773,5494.127,-13.93656,71.2795
1000.0,4929.092,-12.90853,71.2843
2154.4346900318824,4480.68,-11.47436,71.2844
4641.588833612777,4122.978,-11.21843,71.2828
10000.0,3752.873,-12.29025,71.2716
