Frequency,Impedance,Phase Angle,Temperature (Dry Bath)
10.0,8538941.0,5.020669,71.2823
21.544346900318832,5199818.0,-8.776003,71.2786
46.41588833612777,6055175.0,-41.35118,71.2912
100.0,509828.7,60.11307,71.2846
215.44346900318823,896028.1,163.3387,71.2956
464.15888336127773,2472767.0,-133.2123,71.2991
1000.0,1204438.0,-38.94916,71.2969
2154.4346900318824,273927.1,-90.23021,71.2944
4641.588833612777,128925.9,-81.78717,71.291
10000.0,74255.03,-95.59863,71.2951
