Frequency,Impedance,Phase Angle,Temperature (Dry Bath)
10.0,4903855.0,31.08682,29.0667
21.544346900318832,4403221.0,5.184761,28.9616
46.41588833612777,6485269.0,-18.9015,28.8283
100.0,659047.9,-63.7042,28.7848
215.44346900318823,7609393.0,159.6319,28.7482
464.15888336127773,884191.7,-102.4032,28.2395
1000.0,540097.9,68.44896,28.6073
2154.4346900318824,1331870.0,-68.62099,28.5859
4641.588833612777,406553.5,-86.58006,28.522
10000.0,173014.9,-87.4972,28.4952
