Frequency,Impedance,Phase Angle,Temperature (Dry Bath)
10.0,6883890.0,-7.585173,71.2372
21.544346900318832,6543852.0,-34.1832,71.2437
46.41588833612777,3921777.0,-34.04506,71.2607
100.0,979774.4,54.50061,71.2419
215.44346900318823,757829.4,-176.4621,71.2352
464.15888336127773,499186.8,-48.42226,71.2556
1000.0,450604.1,37.71937,71.2489
2154.4346900318824,237404.0,-91.42246,71.2493
4641.588833612777,119420.9,-80.15176,71.2268
10000.0,65921.94,-77.54541,71.2492
