Frequency,Impedance,Phase Angle,Temperature (Dry Bath)
10.0,282397.2,-13.57873,71.6372
21.544346900318832,247350.7,-13.74673,71.6262
46.41588833612777,229452.9,-13.83651,71.6485
100.0,231476.1,-23.05109,71.6493
215.44346900318823,158988.6,-19.38024,71.657
464.15888336127773,226809.6,-41.08615,71.6277
1000.0,191592.1,-39.46328,71.6276
2154.4346900318824,97506.58,-24.00899,71.6429
4641.588833612777,94751.39,-46.11506,71.6498
10000.0,83827.56,-52.24419,71.6318
