Frequency,Impedance,Phase Angle,Temperature (Dry Bath)
10.0,151993.8,-12.0595,71.283
21.544346900318832,137264.9,-10.23576,71.2765
46.41588833612777,127159.4,-9.574674,71.2827
100.0,94142.28,-6.96843,71.289
215.44346900318823,111729.6,-10.51361,71.2902
464.15888336127773,108458.2,-16.73992,71.2819
1000.0,79569.53,-25.18948,71.2895
2154.4346900318824,84291.59,-24.67689,71.2836
4641.588833612777,65702.79,-41.36605,71.2994
10000.0,40832.09,-54.26945,71.283
