Frequency,Impedance,Phase Angle,Temperature (Dry Bath)
10.0,24469.4,-18.93229,71.4891
21.544346900318832,21162.01,-17.85024,71.4842
46.41588833612777,18343.16,-17.27346,71.492
100.0,15941.05,-15.67594,71.4881
215.44346900318823,14102.75,-14.58073,71.4795
464.15888336127773,12512.17,-13.2857,71.4926
1000.0,11259.8,-11.68532,71.4867
2154.4346900318824,10127.62,-11.64052,71.4831
4641.588833612777,9378.097,-10.58654,71.4909
10000.0,8653.345,-10.583,71.4933
