Frequency,Impedance,Phase Angle,Temperature (Dry Bath)
10.0,257551.0,-10.94374,71.2551
21.544346900318832,232000.8,-12.26344,71.237
46.41588833612777,211630.7,-13.48911,71.2605
100.0,138691.0,-32.75804,71.2506
215.44346900318823,339935.2,-44.59691,71.256
464.15888336127773,168486.3,-28.61101,71.2613
1000.0,231762.2,-39.31433,71.2498
2154.4346900318824,104128.1,-36.22572,71.2477
4641.588833612777,104471.7,-55.55719,71.2591
10000.0,52661.52,-60.93095,71.264
