Frequency,Impedance,Phase Angle,Temperature (Dry Bath)
10.0,973567.3,-2.561882,70.9846
21.544346900318832,934985.4,-9.33579,70.9839
46.41588833612777,928152.4,-6.484424,70.9706
100.0,11730270.0,144.4087,70.9735
215.44346900318823,504792.3,45.45077,70.9857
464.15888336127773,323584.7,18.91714,70.9729
1000.0,350271.4,-49.9411,70.9789
2154.4346900318824,241206.9,-28.80932,70.9894
4641.588833612777,219324.5,-39.68007,70.9694
10000.0,99650.85,-69.9561,70.9847
