Frequency,Impedance,Phase Angle,Temperature (Dry Bath)
10.0,13766.1,-28.10476,70.9617
21.544346900318832,10932.58,-25.63635,70.965
46.41588833612777,8910.639,-22.91916,70.9406
100.0,7390.324,-19.81597,70.9554
215.44346900318823,6365.241,-17.71955,70.9598
464.15888336127773,5518.429,-15.38654,70.9645
1000.0,4970.931,-13.89965,70.9569
2154.4346900318824,4478.794,-12.49716,70.9625
4641.588833612777,4043.224,-12.08744,70.9556
10000.0,3731.9,-12.96683,70.9594
