Frequency,Impedance,Phase Angle,Temperature (Dry Bath)
10.0,6792.4,-42.39731,70.9025
21.544346900318832,4860.783,-36.01226,70.8969
46.41588833612777,3700.91,-29.69564,70.9008
100.0,2977.673,-24.63659,70.9009
215.44346900318823,2514.82,-19.59696,70.9132
464.15888336127773,2184.652,-16.32345,70.8898
1000.0,1924.135,-13.82554,70.9013
2154.4346900318824,1741.559,-11.61095,70.8999
4641.588833612777,1598.179,-9.895685,70.9057
10000.0,1490.417,-8.763418,70.8834
