Frequency,Impedance,Phase Angle,Temperature (Dry Bath)
10.0,4404615.0,-3.260936,71.1062
21.544346900318832,3311453.0,-22.05083,71.0891
46.41588833612777,4776233.0,-11.22523,71.0984
100.0,1404731.0,-14.15194,71.0985
215.44346900318823,3758707.0,-11.9529,71.1048
464.15888336127773,5467194.0,54.72864,71.0997
1000.0,636742.3,-73.89143,71.1003
2154.4346900318824,482287.2,-80.4387,71.1182
4641.588833612777,278577.4,-84.96334,71.1257
10000.0,180552.3,-79.65969,71.1119
