Frequency,Impedance,Phase Angle,Temperature (Dry Bath)
10.0,6111681.0,-49.32087,70.839
21.544346900318832,5292819.0,-7.023305,70.8322
46.41588833612777,4170702.0,-23.34671,70.8471
100.0,433094.2,55.81766,70.8386
215.44346900318823,786944.4,-29.96531,70.8347
464.15888336127773,351155.7,-10.80631,70.8283
1000.0,865638.5,-27.28908,70.8223
2154.4346900318824,275359.2,-90.42152,70.8481
4641.588833612777,116545.5,-90.15998,70.8403
10000.0,64866.66,-86.90449,70.8501
