Frequency,Impedance,Phase Angle,Temperature (Dry Bath)
10.0,3060407.0,-2.695917,71.5248
21.544346900318832,7368351.0,-6.348545,71.5161
46.41588833612777,4040023.0,-11.64711,71.509
100.0,1392885.0,137.5958,71.5136
215.44346900318823,568085.7,-17.90062,71.5143
464.15888336127773,786174.3,-60.4948,71.5051
1000.0,1036327.0,-5.593941,71.5203
2154.4346900318824,900823.0,-134.0855,71.5103
4641.588833612777,219733.6,-79.30454,71.5136
10000.0,119978.1,-76.49322,71.5118
