Frequency,Impedance,Phase Angle,Temperature (Dry Bath)
10.0,157639.1,-9.668609,71.3498
21.544346900318832,146970.5,-9.58248,71.3579
46.41588833612777,138232.6,-8.303351,71.3559
100.0,149902.3,9.026625,71.3564
215.44346900318823,99392.68,-26.58324,71.3514
464.15888336127773,98591.36,-14.88346,71.3468
1000.0,123340.6,-27.38137,71.3405
2154.4346900318824,92660.81,-34.94923,71.3324
4641.588833612777,66157.69,-43.20078,71.3617
10000.0,42335.55,-67.17865,71.3542
