Frequency,Impedance,Phase Angle,Temperature (Dry Bath)
10.0,34900.44,-30.18684,71.4525
21.544346900318832,27105.03,-28.62748,71.4466
46.41588833612777,21253.77,-26.8048,71.445
100.0,17058.16,-23.72935,71.4525
215.44346900318823,14134.14,-21.53777,71.4442
464.15888336127773,12034.21,-17.75863,71.4433
1000.0,9881.549,-16.48035,71.4485
2154.4346900318824,9078.894,-14.0923,71.4514
4641.588833612777,8456.019,-13.5509,71.4464
10000.0,7792.071,-15.07678,71.4566
