Frequency,Impedance,Phase Angle,Temperature (Dry Bath)
10.0,655822.8,-2.222993,71.4497
21.544346900318832,617364.7,-0.5123243,71.4585
46.41588833612777,585665.6,-5.651663,71.448
100.0,397868.5,-6.808387,71.4494
215.44346900318823,793272.1,18.35243,71.4704
464.15888336127773,411277.3,-35.68338,71.4503
1000.0,589756.8,-57.35195,71.4517
2154.4346900318824,389065.3,-39.77882,71.4591
4641.588833612777,196471.8,-64.004,71.4562
10000.0,102568.0,-68.22194,71.4439
