Frequency,Impedance,Phase Angle,Temperature (Dry Bath)
10.0,23591.29,-14.15493,70.9193
21.544346900318832,21427.03,-11.08539,70.929
46.41588833612777,19880.99,-9.093409,70.9163
100.0,18208.21,-8.031368,70.9146
215.44346900318823,17571.76,-7.036624,70.9207
464.15888336127773,17127.49,-8.75134,70.9163
1000.0,16022.81,-5.939705,70.9147
2154.4346900318824,15439.58,-8.919477,70.9162
4641.588833612777,14423.73,-6.939013,70.9385
10000.0,13861.64,-17.47363,70.9319
