Frequency,Impedance,Phase Angle,Temperature (Dry Bath)
10.0,7213056.0,-6.499751,71.0178
21.544346900318832,5359848.0,-24.28142,71.0039
46.41588833612777,6455445.0,-8.867134,70.9922
100.0,8838652.0,-55.28863,70.9938
215.44346900318823,1044463.0,-113.2332,71.0079
464.15888336127773,2016931.0,-82.42642,71.0047
1000.0,385580.5,-120.0029,71.0039
2154.4346900318824,215940.8,-96.00096,71.0095
4641.588833612777,169673.1,-80.6624,71.0014
10000.0,64716.77,-83.57934,70.9982
