Frequency,Impedance,Phase Angle,Temperature (Dry Bath)
10.0,66972.01,-14.85468,71.5375
21.544346900318832,59849.01,-13.27199,71.5233
46.41588833612777,54501.78,-11.98736,71.5256
100.0,48914.11,-11.71791,71.5388
215.44346900318823,47771.2,-9.602291,71.5212
464.15888336127773,48364.03,-8.805457,71.515
1000.0,40141.07,-9.998388,71.5263
2154.4346900318824,38377.98,-12.25073,71.5421
4641.588833612777,32994.36,-16.07916,71.5539
10000.0,30448.01,-26.08113,71.5339
