Frequency,Impedance,Phase Angle,Temperature (Dry Bath)
10.0,23636.13,-19.02669,71.5345
21.544346900318832,20382.21,-18.02656,71.5283
46.41588833612777,17628.47,-17.5183,71.5235
100.0,15122.35,-16.64852,71.533
215.44346900318823,13223.23,-15.81697,71.5275
464.15888336127773,12109.55,-15.23082,71.54
1000.0,10531.77,-12.55753,71.5434
2154.4346900318824,9621.254,-11.08507,71.5453
4641.588833612777,8841.958,-10.43647,71.5282
10000.0,8339.913,-10.61723,71.555
