Frequency,Impedance,Phase Angle,Temperature (Dry Bath)
10.0,277444.4,-25.54628,71.246
21.544346900318832,223121.1,-22.90433,71.2357
46.41588833612777,190421.3,-19.90037,71.245
100.0,114784.0,-29.80848,71.2375
215.44346900318823,158707.2,-28.94836,71.2484
464.15888336127773,139219.9,-12.24359,71.2523
1000.0,93413.35,-26.01508,71.2376
2154.4346900318824,90444.68,-28.13124,71.2402
4641.588833612777,60255.44,-49.41185,71.2275
10000.0,43017.36,-59.98453,71.2437
