Frequency,Impedance,Phase Angle,Temperature (Dry Bath)
10.0,5728999.0,-29.3102,70.9225
21.544346900318832,5209781.0,-15.15373,70.9362
46.41588833612777,5076560.0,-38.09253,70.9248
100.0,651884.3,5.101926,70.9265
215.44346900318823,2700482.0,-144.4159,70.931
464.15888336127773,436660.5,-15.25876,70.9314
1000.0,501438.2,-136.2026,70.9255
2154.4346900318824,496124.9,-128.2223,70.923
4641.588833612777,148525.0,-76.35712,70.9218
10000.0,64107.74,-84.99877,70.9479
