Frequency,Impedance,Phase Angle,Temperature (Dry Bath)
10.0,156054.2,-18.19012,71.3465
21.544346900318832,130284.5,-17.30489,71.3476
46.41588833612777,114508.4,-16.02864,71.3475
100.0,99362.86,-3.105131,71.3416
215.44346900318823,72494.9,-33.62659,71.3377
464.15888336127773,88285.7,-19.1984,71.3499
1000.0,73914.64,-20.34878,71.3475
2154.4346900318824,56522.89,-31.13991,71.3621
4641.588833612777,41368.76,-49.87631,71.3462
10000.0,25323.54,-57.8239,71.3435
