Frequency,Impedance,Phase Angle,Temperature (Dry Bath)
10.0,32794.95,-13.5396,28.3603
21.544346900318832,29451.49,-12.00507,28.3702
46.41588833612777,26817.97,-11.1212,28.0019
100.0,23826.28,-10.36783,28.3438
215.44346900318823,22587.55,-8.75694,27.9312
464.15888336127773,20730.61,-8.482074,27.9615
1000.0,19885.81,-8.961097,27.9661
2154.4346900318824,18698.41,-8.239137,27.9591
4641.588833612777,17225.04,-8.812242,28.0048
10000.0,16499.54,-11.24782,28.0122
