Frequency,Impedance,Phase Angle,Temperature (Dry Bath)
10.0,14453.83,-26.35738,71.5303
21.544346900318832,11508.74,-26.80649,71.5171
46.41588833612777,9067.104,-26.75076,71.5245
100.0,7139.43,-24.7301,71.5057
215.44346900318823,5764.635,-23.16885,71.524
464.15888336127773,4760.251,-21.12945,71.5172
1000.0,4020.446,-18.74911,71.5301
2154.4346900318824,3453.29,-16.26685,71.5295
4641.588833612777,3079.126,-14.41168,71.5071
10000.0,2776.967,-13.75785,71.503
