Frequency,Impedance,Phase Angle,Temperature (Dry Bath)
10.0,10535.7,-30.25376,71.2863
21.544346900318832,8256.842,-28.99776,71.2795
46.41588833612777,6535.212,-27.03654,71.3092
100.0,5301.584,-23.76331,71.2979
215.44346900318823,4355.638,-20.98751,71.3171
464.15888336127773,3706.598,-18.27205,71.3122
1000.0,3220.407,-15.8032,71.2973
2154.4346900318824,2850.012,-13.86922,71.3069
4641.588833612777,2568.972,-12.32649,71.2864
10000.0,2337.27,-10.93794,71.3268
