Frequency,Impedance,Phase Angle,Temperature (Dry Bath)
10.0,12715160.0,-55.60381,70.9238
21.544346900318832,8576267.0,-3.415013,70.9199
46.41588833612777,5651783.0,-7.900826,70.9144
100.0,375495.7,-52.02238,70.9192
215.44346900318823,4892159.0,-67.39142,70.9247
464.15888336127773,1909615.0,26.06001,70.9068
1000.0,426846.0,-90.80197,70.9159
2154.4346900318824,235745.3,-100.1699,70.9255
4641.588833612777,122503.7,-84.00403,70.9224
10000.0,65231.22,-85.1591,70.9233
