Frequency,Impedance,Phase Angle,Temperature (Dry Bath)
10.0,10469510.0,-13.97813,71.0734
21.544346900318832,6901725.0,-12.03995,71.0763
46.41588833612777,5398213.0,-33.96686,71.0821
100.0,892678.3,177.1349,71.0695
215.44346900318823,1757166.0,-160.9207,71.0602
464.15888336127773,1182357.0,67.73468,71.0814
1000.0,379306.1,-148.2802,71.0879
2154.4346900318824,299083.2,-75.12248,71.0839
4641.588833612777,145818.1,-90.97886,71.0797
10000.0,60576.13,-90.60693,71.0775
