Frequency,Impedance,Phase Angle,Temperature (Dry Bath)
10.0,4642627.0,-15.74594,71.0358
21.544346900318832,2968932.0,-14.98004,71.0148
46.41588833612777,2843853.0,-31.40735,71.0109
100.0,1176459.0,-157.0227,71.018
215.44346900318823,1242403.0,-156.3706,71.0137
464.15888336127773,628740.1,-75.66216,71.0209
1000.0,710563.9,-96.61817,71.0264
2154.4346900318824,307963.9,-60.83603,71.0203
4641.588833612777,111475.1,-81.56317,71.0381
10000.0,59261.06,-92.35455,71.021
