Frequency,Impedance,Phase Angle,Temperature (Dry Bath)
10.0,215546.4,-26.51554,71.2965
21.544346900318832,171827.4,-23.40786,71.3094
46.41588833612777,141662.6,-22.27751,71.3036
100.0,97766.93,-37.57713,71.302
215.44346900318823,30664.51,160.9827,71.3103
464.15888336127773,96786.12,-23.3269,71.3051
1000.0,70470.1,-15.89463,71.2972
2154.4346900318824,64501.59,-26.22468,71.3207
4641.588833612777,52854.58,-36.34979,71.3061
10000.0,33834.75,-51.69572,71.3034
