Frequency,Impedance,Phase Angle,Temperature (Dry Bath)
10.0,4672334.0,-29.20245,70.6994
21.544346900318832,5838005.0,-28.77748,70.7067
46.41588833612777,3790973.0,-18.92523,70.6794
100.0,457920.8,-7.033936,70.7074
215.44346900318823,1243634.0,-21.76746,70.7153
464.15888336127773,648720.0,-76.33958,70.7005
1000.0,631806.8,-33.16648,70.6943
2154.4346900318824,198495.6,-116.5047,70.7109
4641.588833612777,106294.8,-86.88841,70.6911
10000.0,70449.14,-93.79445,70.6827
