Frequency,Impedance,Phase Angle,Temperature (Dry Bath)
10.0,5782714.0,-14.77862,71.0171
21.544346900318832,3758745.0,-20.01893,71.0432
46.41588833612777,4413191.0,-39.41335,71.0405
100.0,491103.9,-27.58369,71.0455
215.44346900318823,682752.7,-155.2273,71.0254
464.15888336127773,2401538.0,-24.09175,71.0212
1000.0,366977.8,-88.46201,71.0371
2154.4346900318824,252524.9,-87.10984,71.0304
4641.588833612777,125881.4,-93.62592,71.0297
10000.0,55804.0,-83.83386,71.0373
