Frequency,Impedance,Phase Angle,Temperature (Dry Bath)
10.0,3670990.0,1.463928,71.0757
21.544346900318832,3480277.0,-23.02906,71.0612
46.41588833612777,3186526.0,-26.32559,71.0828
100.0,260414.5,36.86056,71.0781
215.44346900318823,1061189.0,-73.30732,71.0759
464.15888336127773,495820.3,-114.9229,71.0465
1000.0,589710.4,-32.84822,71.0686
2154.4346900318824,328985.3,-61.98161,71.076
4641.588833612777,120081.7,-76.15813,71.0551
10000.0,61528.7,-84.39073,71.0699
