Frequency,Impedance,Phase Angle,Temperature (Dry Bath)
10.0,4197611.0,-17.38134,70.8939
21.544346900318832,6708606.0,10.05039,70.8951
46.41588833612777,4530140.0,-15.86479,70.8891
100.0,480793.5,18.75834,70.8874
215.44346900318823,1831018.0,119.9883,70.8778
464.15888336127773,852157.2,-61.37977,70.8804
1000.0,462202.2,-79.4197,70.8805
2154.4346900318824,173126.3,-78.92216,70.8964
4641.588833612777,169347.2,-66.20088,70.8727
10000.0,61449.64,-87.95785,70.8766
