Frequency,Impedance,Phase Angle,Temperature (Dry Bath)
10.0,390588.2,-26.46167,71.1538
21.544346900318832,312246.3,-22.1686,71.1622
46.41588833612777,265963.3,-21.09598,71.1655
100.0,173687.6,-35.04003,71.1481
215.44346900318823,239991.1,-10.08054,71.1531
464.15888336127773,160384.2,-10.34695,71.1554
1000.0,187116.7,-48.96937,71.1658
2154.4346900318824,95414.8,-40.15835,71.1649
4641.588833612777,78098.49,-48.8795,71.1462
10000.0,46613.07,-65.0397,71.1544
