Frequency,Impedance,Phase Angle,Temperature (Dry Bath)
10.0,4224032.0,-18.22296,71.3695
21.544346900318832,4852878.0,-25.99712,71.3771
46.41588833612777,4040162.0,-38.05576,71.3833
100.0,1251870.0,-143.2034,71.3744
215.44346900318823,709776.4,-63.5691,71.3846
464.15888336127773,872955.1,-67.62141,71.3853
1000.0,329732.7,-138.5371,71.3845
2154.4346900318824,280843.9,-73.1983,71.3782
4641.588833612777,137996.5,-84.4329,71.3763
10000.0,58612.42,-84.17667,71.3788
