Frequency,Impedance,Phase Angle,Temperature (Dry Bath)
10.0,6156075.0,-25.52012,72.2565
21.544346900318832,4691020.0,4.846576,72.2326
46.41588833612777,4139510.0,-18.54311,72.2518
100.0,497648.3,112.9368,72.2565
215.44346900318823,677311.0,52.39285,72.2482
464.15888336127773,537554.6,-138.206,72.2307
1000.0,767663.3,-12.1155,72.2527
2154.4346900318824,786193.5,13.12455,72.2471
4641.588833612777,189713.6,-49.36822,72.2428
10000.0,153655.8,-80.2615,72.2439
