Frequency,Impedance,Phase Angle,Temperature (Dry Bath)
10.0,227631.4,-23.92547,71.4113
21.544346900318832,190889.2,-21.26688,71.4009
46.41588833612777,157730.9,-20.08895,71.3799
100.0,101160.3,-12.23509,71.404
215.44346900318823,129865.2,-11.41567,71.3633
464.15888336127773,99613.92,-23.90175,71.3749
1000.0,85619.2,-26.93533,71.372
2154.4346900318824,71452.25,-27.18385,71.3629
4641.588833612777,53041.48,-46.66124,71.3399
10000.0,40051.89,-54.95274,71.356
