Frequency,Impedance,Phase Angle,Temperature (Dry Bath)
10.0,4377434.0,-11.24504,71.427
21.544346900318832,8780767.0,44.2392,71.4238
46.41588833612777,4529424.0,-32.15038,71.4233
100.0,386674.4,-33.48819,71.4325
215.44346900318823,2020009.0,-29.48337,71.418
464.15888336127773,486765.3,10.08344,71.4191
1000.0,3458900.0,-156.3769,71.4118
2154.4346900318824,1490879.0,-101.8549,71.4141
4641.588833612777,211646.1,-50.80979,71.4363
10000.0,110259.4,-80.81581,71.4145
