Frequency,Impedance,Phase Angle,Temperature (Dry Bath)
10.0,147942.8,-9.638481,71.3113
21.544346900318832,139218.5,-10.12374,71.3027
46.41588833612777,131050.6,-8.697197,71.3005
100.0,217911.8,-3.328282,71.2849
215.44346900318823,114091.5,-19.76054,71.294
464.15888336127773,106994.6,-19.82979,71.2946
1000.0,114031.5,-33.71576,71.3145
2154.4346900318824,87880.29,-34.58901,71.2878
4641.588833612777,75774.8,-48.33596,71.2952
10000.0,40651.65,-61.591,71.2812
