Frequency,Impedance,Phase Angle,Temperature (Dry Bath)
10.0,25685.05,-21.39234,70.9134
21.544346900318832,21227.63,-22.69403,70.9198
46.41588833612777,17322.31,-24.24649,70.9149
100.0,13580.62,-25.96279,70.9245
215.44346900318823,11509.99,-25.67393,70.9286
464.15888336127773,8994.901,-26.95506,70.9022
1000.0,6911.483,-24.76571,70.9201
2154.4346900318824,5703.833,-25.03205,70.9056
4641.588833612777,4575.514,-22.32182,70.9019
10000.0,3835.196,-20.31179,70.9113
