Frequency,Impedance,Phase Angle,Temperature (Dry Bath)
10.0,3734419.0,9.658192,70.5087
21.544346900318832,4436310.0,-32.94197,70.5063
46.41588833612777,5083621.0,-37.47617,70.5229
100.0,439509.4,-153.0662,70.5124
215.44346900318823,2366346.0,159.2142,70.5225
464.15888336127773,1303274.0,31.66621,70.5206
1000.0,1320777.0,-27.70555,70.5357
2154.4346900318824,187492.6,-87.84322,70.5278
4641.588833612777,150491.3,-66.56305,70.5213
10000.0,53668.46,-92.25392,70.5158
