Frequency,Impedance,Phase Angle,Temperature (Dry Bath)
10.0,39130.49,-14.10688,70.8293
21.544346900318832,35611.44,-12.18052,70.8321
46.41588833612777,32784.22,-10.92139,70.831
100.0,29043.58,-12.42636,70.8268
215.44346900318823,29187.17,-9.802163,70.8399
464.15888336127773,25422.09,-10.68449,70.8221
1000.0,24516.47,-11.73586,70.8551
2154.4346900318824,22450.75,-11.44005,70.8482
4641.588833612777,20673.85,-18.54017,70.8448
10000.0,19011.67,-25.57427,70.832
