Frequency,Impedance,Phase Angle,Temperature (Dry Bath)
10.0,5403085.0,2.62154,70.9566
21.544346900318832,3861685.0,-14.37459,70.963
46.41588833612777,5320768.0,-18.56087,70.978
100.0,782122.6,-79.34042,70.9698
215.44346900318823,745333.2,-61.23063,70.973
464.15888336127773,1155433.0,-18.91084,70.9773
1000.0,923995.9,-83.49733,70.9712
2154.4346900318824,297810.8,-100.4253,70.9704
4641.588833612777,122932.8,-79.34336,70.9602
10000.0,65892.97,-80.01492,70.9662
