Frequency,Impedance,Phase Angle,Temperature (Dry Bath)
10.0,24407.67,-20.03973,71.3287
21.544346900318832,20881.83,-17.81169,71.3441
46.41588833612777,18167.85,-15.68123,71.339
100.0,15536.61,-12.52875,71.3439
215.44346900318823,14711.42,-12.82515,71.3137
464.15888336127773,13237.6,-9.919792,71.3403
1000.0,11952.7,-9.714909,71.3303
2154.4346900318824,11574.39,-9.676859,71.3426
4641.588833612777,10942.58,-11.58968,71.3207
10000.0,10210.76,-15.73346,71.3226
