Frequency,Impedance,Phase Angle,Temperature (Dry Bath)
10.0,16699.61,-23.7804,71.51
21.544346900318832,13556.09,-23.85611,71.5055
46.41588833612777,11045.76,-23.42017,71.5243
100.0,9060.864,-21.9808,71.5001
215.44346900318823,7594.001,-19.87403,71.5158
464.15888336127773,6535.865,-18.22982,71.5207
1000.0,5623.306,-17.40179,71.5084
2154.4346900318824,4900.283,-15.67052,71.5155
4641.588833612777,4331.204,-15.19132,71.5113
10000.0,3821.407,-14.47945,71.5237
