Frequency,Impedance,Phase Angle,Temperature (Dry Bath)
10.0,32791.29,-13.36682,28.6102
21.544346900318832,29502.44,-12.15929,28.9854
46.41588833612777,26923.59,-11.1568,28.8187
100.0,24837.04,-10.35721,29.0726
215.44346900318823,23029.71,-9.776365,28.9585
464.15888336127773,21379.43,-7.852607,28.9967
1000.0,21197.7,-6.677781,29.0717
2154.4346900318824,18392.61,-8.845654,28.9487
4641.588833612777,17697.18,-9.124214,29.1031
10000.0,16624.02,-11.02563,28.7397
