Frequency,Impedance,Phase Angle,Temperature (Dry Bath)
10.0,4927091.0,-1.549041,71.2903
21.544346900318832,4241068.0,7.217427,71.2792
46.41588833612777,4500558.0,-22.70095,71.2947
100.0,730555.9,59.803,71.2931
215.44346900318823,21125.46,122.819,71.2889
464.15888336127773,1370193.0,-151.9101,71.284
1000.0,374789.1,-83.01456,71.2822
2154.4346900318824,245434.0,-38.98687,71.2859
4641.588833612777,102858.6,-79.80691,71.2946
10000.0,63806.32,-85.02219,71.3058
