Frequency,Impedance,Phase Angle,Temperature (Dry Bath)
10.0,4596472.0,-31.20544,71.0084
21.544346900318832,4493679.0,-16.21404,71.0108
46.41588833612777,4398009.0,-7.864238,71.0161
100.0,636652.8,-32.33777,71.0168
215.44346900318823,1144593.0,75.33645,71.0029
464.15888336127773,536258.3,-109.871,71.0024
1000.0,477002.2,-45.53943,71.0026
2154.4346900318824,315686.3,-65.26869,71.0258
4641.588833612777,126792.5,-79.10136,71.0238
10000.0,73569.27,-78.36927,71.0155
