Frequency,Impedance,Phase Angle,Temperature (Dry Bath)
10.0,6618618.0,-0.2953104,71.569
21.544346900318832,5536327.0,6.611546,71.5568
46.41588833612777,4920223.0,-21.72956,71.5624
100.0,449266.6,13.31513,71.5583
215.44346900318823,947004.9,-104.5035,71.5716
464.15888336127773,812564.5,-96.10413,71.5459
1000.0,879241.4,-2.263287,71.5554
2154.4346900318824,602303.5,-85.95229,71.552
4641.588833612777,226473.9,-95.35028,71.5675
10000.0,128920.1,-74.22758,71.5549
