Frequency,Impedance,Phase Angle,Temperature (Dry Bath)
10.0,6346.139,-28.59606,70.9238
21.544346900318832,5014.091,-26.19062,70.933
46.41588833612777,4054.883,-23.2952,70.9101
100.0,3372.887,-20.19477,70.9109
215.44346900318823,2898.242,-17.44168,70.9062
464.15888336127773,2532.963,-14.71664,70.9085
1000.0,2258.046,-12.5677,70.9053
2154.4346900318824,2064.79,-10.82761,70.9064
4641.588833612777,1899.503,-10.41179,70.909
10000.0,1780.831,-10.0591,70.9117
