Frequency,Impedance,Phase Angle,Temperature (Dry Bath)
10.0,6204773.0,-18.78566,71.1053
21.544346900318832,5720644.0,-6.817729,71.1115
46.41588833612777,4451594.0,-32.47205,71.1049
100.0,905126.6,120.3825,71.1101
215.44346900318823,1497071.0,11.56072,71.1071
464.15888336127773,893170.0,-105.9323,71.0986
1000.0,554962.1,-68.40448,71.0981
2154.4346900318824,283909.6,-72.80896,71.1123
4641.588833612777,157718.1,-85.23016,71.098
10000.0,62187.34,-88.16883,71.1041
