Frequency,Impedance,Phase Angle,Temperature (Dry Bath)
10.0,31186.87,-22.7638,28.7607
21.544346900318832,25903.52,-22.27178,28.7592
46.41588833612777,21598.92,-22.17538,28.8591
100.0,18064.17,-22.65465,28.6818
215.44346900318823,15025.27,-22.23523,28.868
464.15888336127773,12433.95,-23.23069,28.9077
1000.0,10399.71,-22.89135,28.8344
2154.4346900318824,8337.933,-22.57739,28.7513
4641.588833612777,6818.838,-22.51364,28.9469
10000.0,5688.297,-20.39239,28.9379
