Frequency,Impedance,Phase Angle,Temperature (Dry Bath)
10.0,1632227.0,-26.64569,71.0076
21.544346900318832,1119743.0,-18.9401,71.0112
46.41588833612777,1143741.0,-24.07065,71.0334
100.0,241258.1,-25.62767,71.0345
215.44346900318823,932784.1,38.74328,71.0186
464.15888336127773,251013.0,-31.16165,71.0204
1000.0,231923.6,-47.69408,71.0303
2154.4346900318824,145186.1,-61.96598,71.0016
4641.588833612777,107987.4,-72.24316,71.0244
10000.0,48703.46,-80.78897,71.0359
