Frequency,Impedance,Phase Angle,Temperature (Dry Bath)
10.0,6384780.0,4.077395,71.1789
21.544346900318832,6171706.0,-15.03408,71.1789
46.41588833612777,5056672.0,-33.1148,71.1809
100.0,611707.6,-61.86166,71.1994
215.44346900318823,2288309.0,96.23285,71.194
464.15888336127773,1327527.0,-37.77942,71.1957
1000.0,777878.3,-52.4713,71.1887
2154.4346900318824,219392.2,-93.33232,71.1838
4641.588833612777,121480.6,-95.62446,71.1857
10000.0,56116.28,-83.20774,71.1855
