Frequency,Impedance,Phase Angle,Temperature (Dry Bath)
10.0,3460063.0,-3.558365,71.1909
21.544346900318832,5456940.0,-33.72958,71.1662
46.41588833612777,5077728.0,-27.62908,71.1804
100.0,590450.0,108.8439,71.1863
215.44346900318823,740765.2,179.8224,71.1822
464.15888336127773,330023.6,-49.38563,71.1949
1000.0,445175.5,121.1954,71.1773
2154.4346900318824,2733260.0,-63.42131,71.1727
4641.588833612777,162691.5,-104.3733,71.1974
10000.0,152258.9,-95.86972,71.1841
