Frequency,Impedance,Phase Angle,Temperature (Dry Bath)
10.0,4671432.0,-15.70983,71.3729
21.544346900318832,3927030.0,8.496826,71.3699
46.41588833612777,6034542.0,-8.353197,71.3549
100.0,1073257.0,32.55258,71.3658
215.44346900318823,926497.8,-16.84287,71.3941
464.15888336127773,1446183.0,-14.49409,71.3655
1000.0,1654345.0,-107.1824,71.3617
2154.4346900318824,365917.8,-42.08,71.3658
4641.588833612777,191622.6,-82.53229,71.3802
10000.0,154021.8,-72.2322,71.373
