Frequency,Impedance,Phase Angle,Temperature (Dry Bath)
10.0,4492786.0,0.5058096,71.2699
21.544346900318832,6228439.0,-18.8513,71.2611
46.41588833612777,4312996.0,-30.58842,71.2798
100.0,910576.3,49.19589,71.2872
215.44346900318823,1053042.0,-82.52891,71.2803
464.15888336127773,493253.4,-56.22113,71.2721
1000.0,790878.5,10.70776,71.2854
2154.4346900318824,208666.7,-95.23516,71.2662
4641.588833612777,125682.4,-89.43481,71.2753
10000.0,58006.64,-87.10238,71.286
