Frequency,Impedance,Phase Angle,Temperature (Dry Bath)
10.0,6883229.0,12.23376,71.5509
21.544346900318832,4040337.0,7.448429,71.5448
46.41588833612777,3615266.0,-13.00281,71.5531
100.0,488337.4,15.63072,71.5662
215.44346900318823,855731.6,-118.6945,71.5537
464.15888336127773,1621005.0,-80.74399,71.5619
1000.0,510848.3,-71.55096,71.5793
2154.4346900318824,775141.4,-63.48626,71.5721
4641.588833612777,336249.0,-67.14241,71.5587
10000.0,182227.3,-92.52881,71.5582
