Frequency,Impedance,Phase Angle,Temperature (Dry Bath)
10.0,3996322.0,2.017643,70.9165
21.544346900318832,3404781.0,-12.58555,70.9035
46.41588833612777,5920253.0,-16.52658,70.9135
100.0,558411.4,-120.8754,70.9147
215.44346900318823,2852004.0,126.8526,70.9023
464.15888336127773,493734.8,6.632574,70.9197
1000.0,499813.7,169.565,70.892
2154.4346900318824,1119537.0,-120.869,70.9136
4641.588833612777,281316.6,-80.21583,70.9034
10000.0,109860.1,-81.82874,70.9198
