Frequency,Impedance,Phase Angle,Temperature (Dry Bath)
10.0,237340.4,-24.79805,71.377
21.544346900318832,191168.3,-21.73241,71.3654
46.41588833612777,163902.0,-19.64984,71.3671
100.0,144211.7,-22.21672,71.3621
215.44346900318823,35450.6,102.3234,71.3695
464.15888336127773,100764.2,-21.86967,71.3719
1000.0,120426.2,-13.85497,71.3624
2154.4346900318824,79784.28,-31.80741,71.373
4641.588833612777,56972.55,-45.11122,71.3601
10000.0,37499.76,-57.41003,71.35
