Frequency,Impedance,Phase Angle,Temperature (Dry Bath)
10.0,3659144.0,9.191657,70.9588
21.544346900318832,2863156.0,-9.23678,70.9503
46.41588833612777,3056757.0,-15.51018,70.9656
100.0,497718.1,-43.66419,70.9418
215.44346900318823,879201.9,4.077691,70.9594
464.15888336127773,907100.9,-52.98047,70.9455
1000.0,848437.6,-22.35915,70.954
2154.4346900318824,188267.6,-77.02785,70.9587
4641.588833612777,143664.1,-86.42973,70.9592
10000.0,63938.58,-95.79764,70.9405
