Frequency,Impedance,Phase Angle,Temperature (Dry Bath)
10.0,5163827.0,-22.04061,71.2521
21.544346900318832,6512852.0,12.33204,71.2631
46.41588833612777,4724867.0,-40.58714,71.2522
100.0,667755.3,-13.75925,71.2581
215.44346900318823,944969.3,-163.2216,71.2429
464.15888336127773,1256402.0,-81.70092,71.2471
1000.0,447295.7,-121.4868,71.2521
2154.4346900318824,1017388.0,-78.28463,71.248
4641.588833612777,157140.2,-81.89534,71.2546
10000.0,66407.49,-85.8827,71.2582
