Frequency,Impedance,Phase Angle,Temperature (Dry Bath)
10.0,30492.81,-12.96615,29.5385
21.544346900318832,27648.95,-11.74618,29.4696
46.41588833612777,25225.56,-10.82161,29.6641
100.0,22686.95,-9.305393,29.3643
215.44346900318823,21505.75,-9.523907,29.3881
464.15888336127773,20117.23,-8.763714,29.7363
1000.0,18765.49,-8.025013,29.7193
2154.4346900318824,17533.72,-8.162656,29.7027
4641.588833612777,16932.88,-9.066653,29.7615
10000.0,15645.93,-10.99221,29.6603
