Frequency,Impedance,Phase Angle,Temperature (Dry Bath)
10.0,4513535.0,-26.82204,71.538
21.544346900318832,3962872.0,-12.64596,71.5102
46.41588833612777,5242784.0,-2.366827,71.5279
100.0,718579.5,58.0617,71.5538
215.44346900318823,815894.5,-42.92403,71.5359
464.15888336127773,645826.0,-112.9198,71.5142
1000.0,417587.4,-73.97434,71.5258
2154.4346900318824,513090.3,-80.60443,71.5443
4641.588833612777,264742.9,-85.44019,71.5342
10000.0,182109.3,-95.43674,71.5435
