Frequency,Impedance,Phase Angle,Temperature (Dry Bath)
10.0,2045533.0,-18.6855,70.6662
21.544346900318832,1805906.0,-16.44498,70.6691
46.41588833612777,1423916.0,-20.10741,70.6784
100.0,388975.5,-24.71254,70.6846
215.44346900318823,2015782.0,12.50865,70.6838
464.15888336127773,916229.2,-50.65011,70.674
1000.0,3354016.0,-130.8047,70.6728
2154.4346900318824,181453.9,-84.93263,70.6771
4641.588833612777,146004.3,-64.67154,70.6684
10000.0,53282.61,-84.85261,70.6859
