Frequency,Impedance,Phase Angle,Temperature (Dry Bath)
10.0,6006265.0,-7.980926,71.2765
21.544346900318832,7101543.0,-2.486175,71.2791
46.41588833612777,4714754.0,-50.11676,71.2752
100.0,353136.2,-76.67902,71.2677
215.44346900318823,1218254.0,16.15499,71.2835
464.15888336127773,556351.1,-126.9545,71.2739
1000.0,288085.9,-107.2498,71.2732
2154.4346900318824,344320.2,-81.85013,71.2783
4641.588833612777,153628.4,-84.09192,71.2783
10000.0,65868.58,-89.08912,71.2655
