Frequency,Impedance,Phase Angle,Temperature (Dry Bath)
10.0,3708160.0,-5.3547,71.5319
21.544346900318832,4547704.0,2.76007,71.5268
46.41588833612777,5401060.0,-14.00168,71.5363
100.0,1100330.0,-109.4553,71.5693
215.44346900318823,1309334.0,-20.69099,71.5305
464.15888336127773,5784280.0,-108.2136,71.541
1000.0,772672.1,-81.95179,71.5391
2154.4346900318824,519747.4,-100.1466,71.5514
4641.588833612777,173806.0,-88.18007,71.5356
10000.0,136008.1,-98.28133,71.5387
