Frequency,Impedance,Phase Angle,Temperature (Dry Bath)
10.0,6513.0,-37.87376,70.7734
21.544346900318832,4838.697,-32.51057,70.7897
46.41588833612777,3777.926,-27.35259,70.7873
100.0,3075.288,-22.67128,70.7882
215.44346900318823,2611.585,-18.82567,70.7992
464.15888336127773,2272.61,-15.69277,70.7779
1000.0,2027.463,-13.33671,70.7738
2154.4346900318824,1842.179,-11.07439,70.7723
4641.588833612777,1691.442,-9.605342,70.7687
10000.0,1584.04,-8.875492,70.7858
