Frequency,Impedance,Phase Angle,Temperature (Dry Bath)
10.0,33222.63,-11.01688,70.9504
21.544346900318832,31013.16,-9.417504,70.9575
46.41588833612777,29014.43,-8.766609,70.9556
100.0,27459.06,-7.860983,70.9645
215.44346900318823,26417.74,-8.360871,70.961
464.15888336127773,24257.55,-7.881948,70.9469
1000.0,22210.04,-9.697602,70.9518
2154.4346900318824,20747.45,-9.807214,70.9522
4641.588833612777,18657.87,-14.2964,70.9451
10000.0,17019.05,-22.22418,70.9312
