Frequency,Impedance,Phase Angle,Temperature (Dry Bath)
10.0,5311617.0,-37.11564,70.7822
21.544346900318832,5434586.0,22.05236,70.769
46.41588833612777,4726682.0,-14.76729,70.7756
100.0,600694.0,-21.78749,70.7692
215.44346900318823,573742.4,-110.9524,70.7896
464.15888336127773,678600.6,-83.64841,70.7857
1000.0,589303.7,13.44357,70.7895
2154.4346900318824,209645.3,-53.86426,70.7744
4641.588833612777,162820.5,-85.02107,70.7736
10000.0,59363.03,-88.83215,70.7669
