Frequency,Impedance,Phase Angle,Temperature (Dry Bath)
10.0,21586.85,-20.87194,71.1067
21.544346900318832,18010.51,-22.41011,71.1027
46.41588833612777,14733.42,-23.56355,71.0963
100.0,12199.94,-24.93164,71.0983
215.44346900318823,9796.061,-26.48045,71.1007
464.15888336127773,7732.969,-24.55159,71.1079
1000.0,6357.247,-26.46906,71.0956
2154.4346900318824,5181.182,-23.3293,71.087
4641.588833612777,4151.092,-21.62283,71.0986
10000.0,3538.299,-19.67642,71.0917
