Frequency,Impedance,Phase Angle,Temperature (Dry Bath)
10.0,5864074.0,-13.59314,70.8525
21.544346900318832,4456207.0,0.613549,70.8288
46.41588833612777,4581603.0,-36.02997,70.845
100.0,436987.8,34.45479,70.841
215.44346900318823,3738994.0,-53.22291,70.8441
464.15888336127773,833129.4,-70.64641,70.8483
1000.0,572407.5,-152.0635,70.8404
2154.4346900318824,384051.8,-82.83942,70.8328
4641.588833612777,117616.6,-85.29757,70.8459
10000.0,53907.71,-87.99864,70.8494
