Frequency,Impedance,Phase Angle,Temperature (Dry Bath)
10.0,6412515.0,4.850607,70.8006
21.544346900318832,4283418.0,-24.03085,70.8027
46.41588833612777,5796370.0,-34.57481,70.8121
100.0,433764.5,-30.79306,70.8045
215.44346900318823,861234.7,103.5416,70.8115
464.15888336127773,910889.9,-70.9542,70.7983
1000.0,427686.8,-98.38578,70.8127
2154.4346900318824,234090.9,-100.4116,70.8152
4641.588833612777,156664.9,-96.92807,70.8022
10000.0,68585.28,-93.45457,70.7976
