Frequency,Impedance,Phase Angle,Temperature (Dry Bath)
10.0,5865136.0,-1.979957,71.4473
21.544346900318832,6670987.0,-11.2347,71.4311
46.41588833612777,4655016.0,-10.85384,71.4463
100.0,548045.3,2.828058,71.4491
215.44346900318823,1191244.0,-20.19946,71.4327
464.15888336127773,1165778.0,-121.1627,71.4457
1000.0,670404.6,-93.05528,71.4688
2154.4346900318824,281872.0,-101.6646,71.4331
4641.588833612777,243468.7,-86.10534,71.4226
10000.0,100643.0,-92.44886,71.4393
