Frequency,Impedance,Phase Angle,Temperature (Dry Bath)
10.0,3638589.0,-2.591203,70.9186
21.544346900318832,4461881.0,-22.3256,70.9277
46.41588833612777,5260355.0,3.471482,70.9387
100.0,1439873.0,163.3794,70.9395
215.44346900318823,873740.4,4.361698,70.9426
464.15888336127773,529317.8,8.572514,70.9444
1000.0,522148.2,6.95113,70.9472
2154.4346900318824,417443.6,-46.81856,70.9406
4641.588833612777,191509.4,-73.96258,70.9483
10000.0,174083.7,-106.9878,70.9365
