Frequency,Impedance,Phase Angle,Temperature (Dry Bath)
10.0,4419335.0,-0.6315211,71.2895
21.544346900318832,3818888.0,-9.914237,71.2762
46.41588833612777,5865374.0,-11.22052,71.2798
100.0,332513.0,-31.36624,71.2888
215.44346900318823,276304.9,-136.4338,71.2953
464.15888336127773,699419.3,-60.10649,71.2866
1000.0,554214.5,-117.4984,71.2963
2154.4346900318824,255150.6,-84.02439,71.2915
4641.588833612777,778454.2,-176.3121,71.303
10000.0,130893.9,-70.05298,71.2885
