Frequency,Impedance,Phase Angle,Temperature (Dry Bath)
10.0,7099825.0,4.326754,71.4258
21.544346900318832,6073427.0,-9.045251,71.423
46.41588833612777,7568774.0,42.54476,71.4256
100.0,433299.9,-146.077,71.4234
215.44346900318823,28116.84,-137.8819,71.4089
464.15888336127773,201716.0,-78.23328,71.4108
1000.0,472257.5,-59.36746,71.4064
2154.4346900318824,291377.6,-84.44106,71.4196
4641.588833612777,134434.7,-89.88928,71.4149
10000.0,67528.0,-87.09817,71.4046
