Frequency,Impedance,Phase Angle,Temperature (Dry Bath)
10.0,3906810.0,5.019843,70.9474
21.544346900318832,4577370.0,-9.261784,70.9508
46.41588833612777,3656378.0,-30.98126,70.9396
100.0,634136.2,86.93809,70.9471
215.44346900318823,1458101.0,-39.0839,70.9451
464.15888336127773,568045.1,-119.5448,70.9469
1000.0,329968.0,-34.62055,70.9446
2154.4346900318824,223603.9,-89.1866,70.9369
4641.588833612777,123700.7,-71.55979,70.9411
10000.0,56555.39,-89.89437,70.9418
