Frequency,Impedance,Phase Angle,Temperature (Dry Bath)
10.0,4631817.0,-28.82717,70.6532
21.544346900318832,2798072.0,-0.6950153,70.6445
46.41588833612777,3045029.0,-10.13696,70.6419
100.0,590563.3,73.50584,70.638
215.44346900318823,311135.0,29.49799,70.6518
464.15888336127773,982016.4,-86.52369,70.6623
1000.0,534709.4,-81.42613,70.6874
2154.4346900318824,322042.0,-32.15567,70.6721
4641.588833612777,112665.9,-84.1996,70.6655
10000.0,70716.08,-85.79868,70.682
