Frequency,Impedance,Phase Angle,Temperature (Dry Bath)
10.0,4541734.0,-20.83226,71.3272
21.544346900318832,6940822.0,-41.94152,71.3216
46.41588833612777,5506957.0,-16.51692,71.3147
100.0,238051.8,-93.57778,71.3133
215.44346900318823,771954.5,-61.63333,71.3246
464.15888336127773,1436575.0,-106.9353,71.3086
1000.0,450741.5,-123.7588,71.2981
2154.4346900318824,362963.5,-103.9523,71.3149
4641.588833612777,146283.0,-94.94173,71.3213
10000.0,66950.72,-79.97099,71.3303
