Frequency,Impedance,Phase Angle,Temperature (Dry Bath)
10.0,2775806.0,-14.48884,71.3849
21.544346900318832,1906298.0,-19.40701,71.4127
46.41588833612777,2263136.0,-22.34417,71.3905
100.0,354058.4,-75.59426,71.4065
215.44346900318823,14042.72,-106.4657,71.4113
464.15888336127773,439188.9,-25.35216,71.39
1000.0,216240.3,-16.41955,71.3926
2154.4346900318824,286828.9,-98.08438,71.3959
4641.588833612777,124781.6,-92.37229,71.3892
10000.0,66532.6,-84.17543,71.3961
