Frequency,Impedance,Phase Angle,Temperature (Dry Bath)
10.0,312968.1,-24.73622,71.3303
21.544346900318832,264334.1,-22.92462,71.3279
46.41588833612777,219332.6,-19.92162,71.3183
100.0,135976.1,-13.17441,71.3217
215.44346900318823,163389.5,-24.84817,71.3319
464.15888336127773,167302.6,-28.41441,71.3288
1000.0,116369.6,-16.69891,71.3315
2154.4346900318824,97707.81,-28.19989,71.315
4641.588833612777,67582.71,-44.71254,71.3274
10000.0,44527.06,-63.42963,71.3211
