Frequency,Impedance,Phase Angle,Temperature (Dry Bath)
10.0,6994205.0,-13.52039,71.0853
21.544346900318832,3865871.0,-4.660563,71.1174
46.41588833612777,6922232.0,-12.46542,71.0953
100.0,506692.0,-28.20699,71.0938
215.44346900318823,2306880.0,179.25,71.1032
464.15888336127773,1119298.0,-33.28595,71.103
1000.0,420163.9,-58.99873,71.1123
2154.4346900318824,418450.2,-97.66968,71.1023
4641.588833612777,303424.6,-43.86064,71.1184
10000.0,166529.8,-70.45833,71.1152
