Frequency,Impedance,Phase Angle,Temperature (Dry Bath)
10.0,4742837.0,-12.88427,70.8442
21.544346900318832,3941581.0,-8.334191,70.8345
46.41588833612777,5248190.0,-19.3352,70.8498
100.0,4064172.0,-44.94362,70.8386
215.44346900318823,2278586.0,157.7254,70.8399
464.15888336127773,1426122.0,124.2118,70.8597
1000.0,2174690.0,-75.3472,70.8475
2154.4346900318824,318542.2,-75.49632,70.8356
4641.588833612777,141255.1,-72.50902,70.8422
10000.0,67938.19,-84.62676,70.8448
