Frequency,Impedance,Phase Angle,Temperature (Dry Bath)
10.0,3767201.0,-24.51548,70.9028
21.544346900318832,5525390.0,-8.739302,70.9095
46.41588833612777,2326865.0,-28.07254,70.9028
100.0,725581.3,-85.24108,70.9273
215.44346900318823,364271.6,-63.92739,70.9121
464.15888336127773,611859.4,-62.47442,70.902
1000.0,385563.3,-67.0487,70.9145
2154.4346900318824,354384.7,-77.45853,70.9102
4641.588833612777,146388.7,-88.26251,70.9162
10000.0,67600.16,-93.91882,70.9173
