Frequency,Impedance,Phase Angle,Temperature (Dry Bath)
10.0,8806048.0,14.01942,71.2093
21.544346900318832,4574788.0,-21.93099,71.202
46.41588833612777,6205831.0,4.04442,71.2228
100.0,395039.1,-79.08782,71.2132
215.44346900318823,518065.0,79.30654,71.2191
464.15888336127773,323239.0,-165.8763,71.2052
1000.0,420261.2,-110.8257,71.2139
2154.4346900318824,576937.9,-146.6837,71.2125
4641.588833612777,454172.6,-11.08481,71.2226
10000.0,191807.6,-109.4002,71.219
