Frequency,Impedance,Phase Angle,Temperature (Dry Bath)
10.0,115109.3,-27.74531,72.0942
21.544346900318832,91930.58,-28.11928,72.0976
46.41588833612777,72938.65,-28.55366,72.1064
100.0,60972.74,-25.1579,72.1079
215.44346900318823,40366.01,-35.35823,72.1108
464.15888336127773,30611.56,-33.26272,72.1199
1000.0,24982.42,-32.20789,72.0934
2154.4346900318824,19073.67,-27.01396,72.1032
4641.588833612777,15412.11,-23.25344,72.1271
10000.0,13206.73,-21.68783,72.1276
