Frequency,Impedance,Phase Angle,Temperature (Dry Bath)
10.0,6509207.0,-12.67278,28.8026
21.544346900318832,7045616.0,2.046125,28.8783
46.41588833612777,7256578.0,-0.1215825,28.8751
100.0,5518098.0,55.66499,28.8753
215.44346900318823,2807871.0,-104.724,28.9149
464.15888336127773,479914.0,-0.3082337,28.893
1000.0,391733.5,-103.7074,28.8083
2154.4346900318824,424894.6,-63.30187,28.7974
4641.588833612777,346228.1,-71.59505,28.9411
10000.0,163021.4,-86.38686,28.8529
