Frequency,Impedance,Phase Angle,Temperature (Dry Bath)
10.0,4987305.0,17.64801,70.9921
21.544346900318832,4382626.0,-25.60951,70.9645
46.41588833612777,3112182.0,-24.69194,70.9859
100.0,1409921.0,124.9092,70.9694
215.44346900318823,1089247.0,-118.876,70.9625
464.15888336127773,508146.7,-107.8233,70.9711
1000.0,492717.4,-128.3834,70.9782
2154.4346900318824,241011.8,-82.70287,70.9788
4641.588833612777,157718.0,-86.92462,70.9676
10000.0,59673.71,-93.17161,70.9598
