Frequency,Impedance,Phase Angle,Temperature (Dry Bath)
10.0,20106.05,-29.17037,70.6324
21.544346900318832,15867.49,-26.94173,70.6153
46.41588833612777,12730.86,-24.6925,70.6444
100.0,10533.62,-21.93813,70.6171
215.44346900318823,8790.834,-18.98671,70.6286
464.15888336127773,7628.199,-16.4866,70.6326
1000.0,6723.121,-14.54887,70.6252
2154.4346900318824,6041.973,-11.90946,70.6285
4641.588833612777,5632.843,-11.65109,70.6256
10000.0,5259.075,-12.0591,70.6321
