Frequency,Impedance,Phase Angle,Temperature (Dry Bath)
10.0,4280983.0,-12.57293,71.2938
21.544346900318832,3486481.0,-18.76456,71.3004
46.41588833612777,11201420.0,-0.2641462,71.2973
100.0,2345678.0,163.0274,71.3035
215.44346900318823,59512.9,-130.5836,71.2838
464.15888336127773,2372554.0,-13.08532,71.2897
1000.0,674182.0,-47.20218,71.287
2154.4346900318824,251662.4,-96.92079,71.2939
4641.588833612777,147054.1,-70.15938,71.2853
10000.0,67102.82,-86.20539,71.3032
