Frequency,Impedance,Phase Angle,Temperature (Dry Bath)
10.0,4897964.0,-2.1895,71.5187
21.544346900318832,9940560.0,13.36547,71.5366
46.41588833612777,4220668.0,-21.41006,71.5347
100.0,484025.2,-47.40158,71.5265
215.44346900318823,397563.9,-1.92559,71.5143
464.15888336127773,4685515.0,-96.37959,71.5384
1000.0,992733.0,-89.13673,71.5142
2154.4346900318824,332282.0,-101.9079,71.5284
4641.588833612777,223144.4,-69.22072,71.5269
10000.0,137941.4,-90.77247,71.5162
