Frequency,Impedance,Phase Angle,Temperature (Dry Bath)
10.0,2348941.0,-2.809644,71.4256
21.544346900318832,2017412.0,-19.53418,71.4357
46.41588833612777,1869882.0,-20.3968,71.4297
100.0,284308.9,-1.235632,71.4221
215.44346900318823,196252.0,23.63742,71.4247
464.15888336127773,1031384.0,-43.59011,71.4344
1000.0,300515.1,-123.8726,71.4151
2154.4346900318824,279830.9,-86.43266,71.4254
4641.588833612777,148386.4,-68.23268,71.426
10000.0,70327.96,-73.8555,71.4329
