Frequency,Impedance,Phase Angle,Temperature (Dry Bath)
10.0,19651.95,-20.12739,71.0665
21.544346900318832,16870.66,-17.60153,71.0623
46.41588833612777,14715.2,-15.6131,71.075
100.0,12745.22,-14.11646,71.07
215.44346900318823,11639.91,-12.81369,71.0725
464.15888336127773,10633.47,-12.67642,71.0573
1000.0,9592.606,-11.13589,71.0704
2154.4346900318824,9034.796,-8.532289,71.0666
4641.588833612777,8415.66,-10.91257,71.0512
10000.0,8062.456,-13.54658,71.0779
