Frequency,Impedance,Phase Angle,Temperature (Dry Bath)
10.0,67725.57,-32.02128,71.3744
21.544346900318832,51627.87,-29.74555,71.3848
46.41588833612777,40498.6,-27.26712,71.3911
100.0,33836.7,-26.15615,71.3725
215.44346900318823,26953.75,-21.61638,71.3691
464.15888336127773,22949.31,-20.08628,71.3666
1000.0,20977.47,-14.22338,71.3657
2154.4346900318824,17505.65,-15.60328,71.3691
4641.588833612777,15685.66,-15.80814,71.3588
10000.0,14513.6,-15.3586,71.3791
