Frequency,Impedance,Phase Angle,Temperature (Dry Bath)
10.0,13102.17,-20.8783,71.3216
21.544346900318832,11177.82,-17.99153,71.3053
46.41588833612777,9745.294,-15.40242,71.28
100.0,8816.636,-12.95633,71.3019
215.44346900318823,7850.542,-10.83353,71.3024
464.15888336127773,7331.0,-7.885882,71.2864
1000.0,6774.98,-8.630608,71.2781
2154.4346900318824,6389.83,-9.05321,71.2893
4641.588833612777,5972.878,-10.3167,71.2895
10000.0,5643.368,-14.79186,71.2856
