Frequency,Impedance,Phase Angle,Temperature (Dry Bath)
10.0,3169810.0,16.69335,71.2129
21.544346900318832,7691184.0,4.166072,71.2102
46.41588833612777,4480805.0,-27.26354,71.2039
100.0,1662764.0,-15.51958,71.2114
215.44346900318823,5826147.0,125.0131,71.2251
464.15888336127773,1396989.0,-103.0526,71.2134
1000.0,757355.7,-28.83785,71.2214
2154.4346900318824,637179.4,-117.1471,71.2408
4641.588833612777,254717.0,-98.33043,71.2313
10000.0,134736.7,-77.95755,71.2231
