Frequency,Impedance,Phase Angle,Temperature (Dry Bath)
10.0,10471720.0,-7.131103,71.3167
21.544346900318832,5435650.0,-34.87798,71.3334
46.41588833612777,4931950.0,-28.6648,71.335
100.0,367425.1,-23.33864,71.3252
215.44346900318823,518413.6,-5.002421,71.3253
464.15888336127773,474642.6,-174.7315,71.3287
1000.0,232461.9,-63.26419,71.3275
2154.4346900318824,322386.9,-95.09398,71.3117
4641.588833612777,140554.2,-91.89328,71.3192
10000.0,65492.51,-79.71884,71.3206
