Frequency,Impedance,Phase Angle,Temperature (Dry Bath)
10.0,15201.0,-17.93035,71.1713
21.544346900318832,13288.21,-16.54937,71.1713
46.41588833612777,11681.29,-15.87579,71.1625
100.0,10557.78,-14.90319,71.17
215.44346900318823,9204.006,-13.85709,71.1817
464.15888336127773,8343.594,-12.25583,71.1755
1000.0,7417.701,-12.23171,71.1791
2154.4346900318824,6868.784,-10.27397,71.1795
4641.588833612777,6237.148,-10.8351,71.1609
10000.0,5852.371,-12.7284,71.1707
