Frequency,Impedance,Phase Angle,Temperature (Dry Bath)
10.0,4276566.0,-6.012378,71.0555
21.544346900318832,4232374.0,19.36074,71.0684
46.41588833612777,6151162.0,3.905451,71.0567
100.0,2648292.0,143.9784,71.0604
215.44346900318823,872564.6,-62.00335,71.0603
464.15888336127773,411861.5,122.336,71.0595
1000.0,239456.2,-62.67387,71.0632
2154.4346900318824,480474.3,-76.71473,71.0624
4641.588833612777,411427.3,-33.88727,71.0602
10000.0,119428.2,-82.50217,71.078
