Frequency,Impedance,Phase Angle,Temperature (Dry Bath)
10.0,6090987.0,-0.4255956,71.2888
21.544346900318832,5231757.0,-10.69822,71.2754
46.41588833612777,5434253.0,8.39148,71.2829
100.0,402269.6,116.3334,71.2894
215.44346900318823,647992.7,125.9215,71.2749
464.15888336127773,637631.8,-56.54077,71.2771
1000.0,417338.9,-66.07685,71.2798
2154.4346900318824,254720.6,-99.22973,71.2794
4641.588833612777,150043.3,-82.18008,71.2771
10000.0,66000.19,-81.37601,71.2883
