Frequency,Impedance,Phase Angle,Temperature (Dry Bath)
10.0,5174159.0,10.7997,71.4824
21.544346900318832,5107248.0,-3.944612,71.4274
46.41588833612777,4034306.0,-19.25229,71.4402
100.0,639008.6,174.0169,71.4258
215.44346900318823,1551106.0,-136.2107,71.4346
464.15888336127773,707532.8,-44.72422,71.4338
1000.0,530515.0,-65.97563,71.4076
2154.4346900318824,196059.1,-77.74627,71.4137
4641.588833612777,103864.6,-78.32187,71.4327
10000.0,55773.61,-85.28706,71.4212
