Frequency,Impedance,Phase Angle,Temperature (Dry Bath)
10.0,294262.4,-4.581885,71.3795
21.544346900318832,287062.3,-5.830888,71.3735
46.41588833612777,276072.8,-6.629466,71.3794
100.0,355399.5,-11.37293,71.3666
215.44346900318823,244353.7,-22.91921,71.4
464.15888336127773,240984.2,-14.30633,71.3873
1000.0,165182.6,-43.10617,71.387
2154.4346900318824,152053.9,-29.67538,71.4105
4641.588833612777,115784.5,-56.90885,71.3939
10000.0,61393.9,-67.48983,71.3923
