Frequency,Impedance,Phase Angle,Temperature (Dry Bath)
10.0,5402751.0,4.864027,71.3421
21.544346900318832,7742954.0,-20.13624,71.3415
46.41588833612777,7149262.0,-4.390576,71.3444
100.0,1210819.0,41.04724,71.3512
215.44346900318823,2100167.0,-44.0777,71.3413
464.15888336127773,489149.2,-84.31429,71.3367
1000.0,435171.7,-56.6233,71.3577
2154.4346900318824,288802.3,-84.45877,71.3477
4641.588833612777,133998.7,-84.85161,71.3635
10000.0,59661.5,-90.4322,71.3591
