Frequency,Impedance,Phase Angle,Temperature (Dry Bath)
10.0,5334.643,-35.40748,70.4454
21.544346900318832,4042.027,-29.79517,70.4752
46.41588833612777,3241.002,-24.32492,70.4665
100.0,2718.445,-19.58833,70.474
215.44346900318823,2358.106,-16.12067,70.4501
464.15888336127773,2104.011,-13.69691,70.4525
1000.0,1904.869,-11.94248,70.435
2154.4346900318824,1747.549,-9.76235,70.4532
4641.588833612777,1624.255,-8.388716,70.4564
10000.0,1538.039,-8.155986,70.4537
