Frequency,Impedance,Phase Angle,Temperature (Dry Bath)
10.0,5072779.0,4.806724,71.2185
21.544346900318832,7828673.0,-6.378772,71.2102
46.41588833612777,4880294.0,-25.6388,71.2051
100.0,3441435.0,163.6414,71.2194
215.44346900318823,762785.9,-166.8259,71.2453
464.15888336127773,2808927.0,-47.33139,71.2215
1000.0,2388183.0,-27.96117,71.2167
2154.4346900318824,391598.8,-90.2889,71.2341
4641.588833612777,141829.6,-98.10566,71.2175
10000.0,62465.92,-95.63701,71.2085
