Frequency,Impedance,Phase Angle,Temperature (Dry Bath)
10.0,4150063.0,-17.23901,71.4888
21.544346900318832,5504175.0,3.002588,71.4882
46.41588833612777,5514676.0,-8.400816,71.4995
100.0,341849.1,-74.78849,71.4963
215.44346900318823,1451698.0,45.25657,71.4993
464.15888336127773,546103.9,-45.52315,71.4993
1000.0,705199.7,-123.0747,71.5253
2154.4346900318824,409079.7,-86.18603,71.4831
4641.588833612777,240782.3,-103.5057,71.518
10000.0,118687.5,-84.36016,71.5023
