Frequency,Impedance,Phase Angle,Temperature (Dry Bath)
10.0,5172.613,-34.87426,70.362
21.544346900318832,3931.858,-29.2891,70.3717
46.41588833612777,3165.272,-23.89766,70.3881
100.0,2669.892,-19.55629,70.4152
215.44346900318823,2325.739,-16.25524,70.3923
464.15888336127773,2067.375,-12.81891,70.3851
1000.0,1864.052,-10.86991,70.3982
2154.4346900318824,1725.475,-9.477408,70.3914
4641.588833612777,1604.963,-8.496631,70.411
10000.0,1520.379,-7.911282,70.4082
