Frequency,Impedance,Phase Angle,Temperature (Dry Bath)
10.0,6863492.0,-7.504412,70.9308
21.544346900318832,4722287.0,-4.675558,70.9561
46.41588833612777,7261468.0,-14.75818,70.9443
100.0,1657395.0,-23.38096,70.9381
215.44346900318823,1102042.0,-87.47073,70.9324
464.15888336127773,275395.4,-123.0143,70.9394
1000.0,384076.7,-69.08378,70.9376
2154.4346900318824,578107.4,110.8608,70.9403
4641.588833612777,459999.7,-64.20115,70.9291
10000.0,105744.1,-86.24332,70.9328
