Frequency,Impedance,Phase Angle,Temperature (Dry Bath)
10.0,24555.68,-21.97134,71.2141
21.544346900318832,20282.84,-23.52263,71.2046
46.41588833612777,16364.88,-24.96996,71.2115
100.0,13555.33,-24.51701,71.2205
215.44346900318823,10558.95,-26.69441,71.2197
464.15888336127773,8390.933,-26.3268,71.2164
1000.0,6656.636,-24.70933,71.2068
2154.4346900318824,5312.715,-24.20663,71.2276
4641.588833612777,4375.018,-22.55129,71.2173
10000.0,3619.145,-21.05261,71.2126
