Frequency,Impedance,Phase Angle,Temperature (Dry Bath)
10.0,19003.69,-24.0906,71.4519
21.544346900318832,15461.21,-24.05557,71.438
46.41588833612777,12629.61,-23.55138,71.4426
100.0,10469.86,-21.5328,71.4524
215.44346900318823,8802.422,-20.78894,71.4365
464.15888336127773,7291.592,-19.83219,71.441
1000.0,6246.107,-18.79893,71.4522
2154.4346900318824,5379.169,-18.21835,71.4371
4641.588833612777,4579.435,-17.33481,71.4347
10000.0,3996.956,-16.0017,71.4518
