Frequency,Impedance,Phase Angle,Temperature (Dry Bath)
10.0,5202246.0,18.52538,71.4311
21.544346900318832,6402104.0,7.645727,71.4391
46.41588833612777,4121269.0,-15.44001,71.4398
100.0,669904.6,22.10418,71.4199
215.44346900318823,249203.1,-105.672,71.4236
464.15888336127773,593882.7,-41.60418,71.4131
1000.0,474851.4,-113.7309,71.4492
2154.4346900318824,481425.7,-93.71298,71.4281
4641.588833612777,132317.4,-53.49616,71.4231
10000.0,60274.53,-89.3122,71.4293
