Frequency,Impedance,Phase Angle,Temperature (Dry Bath)
10.0,5565893.0,-9.997746,71.2885
21.544346900318832,5158988.0,16.04388,71.2706
46.41588833612777,5093814.0,-7.687303,71.2793
100.0,508030.3,49.69796,71.2864
215.44346900318823,1269287.0,163.7377,71.2877
464.15888336127773,1186548.0,-127.5713,71.2763
1000.0,2233632.0,-126.5978,71.2962
2154.4346900318824,692831.7,-98.72996,71.2873
4641.588833612777,246351.1,-99.94635,71.2859
10000.0,125364.7,-85.34454,71.2964
