Frequency,Impedance,Phase Angle,Temperature (Dry Bath)
10.0,213296.1,-26.30177,71.4198
21.544346900318832,175820.3,-23.36165,71.419
46.41588833612777,145735.2,-21.11968,71.4111
100.0,172144.2,-6.795086,71.411
215.44346900318823,14364.7,-41.30992,71.4168
464.15888336127773,76918.06,-19.35173,71.408
1000.0,87418.14,-18.97507,71.4188
2154.4346900318824,61381.59,-25.55859,71.4195
4641.588833612777,49491.76,-39.99873,71.4115
10000.0,37589.0,-53.45349,71.4094
