Frequency,Impedance,Phase Angle,Temperature (Dry Bath)
10.0,6109354.0,-3.381277,70.9524
21.544346900318832,3242342.0,-13.60621,70.9498
46.41588833612777,6407246.0,-43.15298,70.95
100.0,1757299.0,-174.9846,70.967
215.44346900318823,576166.1,-17.28551,70.9584
464.15888336127773,525340.8,-50.97026,70.9635
1000.0,518774.8,-65.26341,70.9556
2154.4346900318824,176076.2,-79.33296,70.9368
4641.588833612777,135352.0,-83.98059,70.9684
10000.0,51829.93,-79.51268,70.9651
