Frequency,Impedance,Phase Angle,Temperature (Dry Bath)
10.0,5921531.0,-14.24957,71.1144
21.544346900318832,4852089.0,-24.23656,71.1264
46.41588833612777,5663812.0,-30.42404,71.1171
100.0,584906.3,-44.03637,71.1147
215.44346900318823,1429141.0,-80.28358,71.1282
464.15888336127773,1545478.0,-54.91809,71.1171
1000.0,848202.8,-63.1998,71.1178
2154.4346900318824,304533.4,-80.12223,71.1266
4641.588833612777,97453.22,-85.9868,71.1195
10000.0,58820.79,-83.92279,71.1296
