Frequency,Impedance,Phase Angle,Temperature (Dry Bath)
10.0,161589.1,-9.64353,71.3298
21.544346900318832,151887.4,-8.62465,71.3306
46.41588833612777,143389.9,-8.802769,71.3218
100.0,112957.7,-10.57875,71.3353
215.44346900318823,118633.1,-14.02206,71.3454
464.15888336127773,119521.1,-10.15298,71.3376
1000.0,112522.1,-16.45081,71.342
2154.4346900318824,91417.45,-29.78829,71.3432
4641.588833612777,75986.39,-41.10987,71.3371
10000.0,44622.67,-60.96246,71.3363
