Frequency,Impedance,Phase Angle,Temperature (Dry Bath)
10.0,6334633.0,4.074282,71.2779
21.544346900318832,6740972.0,-30.95341,71.2719
46.41588833612777,3024918.0,35.96154,71.2811
100.0,738565.0,-25.16711,71.27
215.44346900318823,34221.81,115.3603,71.2866
464.15888336127773,4402133.0,-51.92473,71.2804
1000.0,382886.4,-144.625,71.2712
2154.4346900318824,520838.6,-94.74016,71.2774
4641.588833612777,179496.0,-74.20022,71.2817
10000.0,71320.23,-80.86499,71.2744
