Frequency,Impedance,Phase Angle,Temperature (Dry Bath)
10.0,3813266.0,-9.876466,71.129
21.544346900318832,3764424.0,3.156159,71.1335
46.41588833612777,5933774.0,-43.83338,71.1294
100.0,558012.7,-9.859835,71.141
215.44346900318823,1004806.0,-35.14184,71.1363
464.15888336127773,1217174.0,-102.7681,71.1393
1000.0,4378307.0,-69.34597,71.1294
2154.4346900318824,177443.6,-94.33029,71.1547
4641.588833612777,115365.4,-90.72568,71.1373
10000.0,61909.33,-81.9314,71.1451
