Frequency,Impedance,Phase Angle,Temperature (Dry Bath)
10.0,5447573.0,15.84844,70.8753
21.544346900318832,5106448.0,-7.795988,70.8829
46.41588833612777,5535254.0,-42.0182,70.8814
100.0,1011866.0,-2.899839,70.8818
215.44346900318823,1910115.0,-100.0344,70.8776
464.15888336127773,357141.7,-61.79943,70.8995
1000.0,1699866.0,14.11948,70.8774
2154.4346900318824,332361.8,-95.40778,70.8646
4641.588833612777,162560.1,-81.34083,70.8796
10000.0,65622.25,-86.86237,70.8797
