Frequency,Impedance,Phase Angle,Temperature (Dry Bath)
10.0,23589.08,-19.81812,71.3845
21.544346900318832,20175.99,-17.56193,71.3893
46.41588833612777,17588.33,-15.59501,71.3827
100.0,15800.6,-15.19848,71.3695
215.44346900318823,13912.45,-12.19543,71.3858
464.15888336127773,12954.12,-11.21564,71.396
1000.0,11271.69,-10.65202,71.379
2154.4346900318824,10771.32,-9.707635,71.3633
4641.588833612777,10488.5,-10.36919,71.3783
10000.0,9762.906,-15.21062,71.3813
