Frequency,Impedance,Phase Angle,Temperature (Dry Bath)
10.0,3388838.0,0.6153266,71.3789
21.544346900318832,3996702.0,-12.94984,71.3751
46.41588833612777,5251869.0,-18.44803,71.3846
100.0,1296252.0,56.46479,71.3725
215.44346900318823,1247709.0,-101.4174,71.3641
464.15888336127773,3750359.0,115.0998,71.3912
1000.0,1274086.0,-22.12774,71.3524
2154.4346900318824,737956.0,-72.96839,71.3807
4641.588833612777,149521.9,-80.65234,71.3801
10000.0,130268.1,-89.31658,71.3828
