Frequency,Impedance,Phase Angle,Temperature (Dry Bath)
10.0,60315.78,-14.97849,71.4927
21.544346900318832,54303.43,-13.45343,71.5146
46.41588833612777,49024.16,-12.43921,71.4978
100.0,45816.41,-13.06529,71.5027
215.44346900318823,40596.3,-12.94205,71.5059
464.15888336127773,36907.58,-16.44615,71.5092
1000.0,34923.59,-9.737217,71.4915
2154.4346900318824,33110.21,-10.16599,71.4789
4641.588833612777,31330.53,-14.75595,71.4774
10000.0,27515.43,-19.22999,71.4989
