Frequency,Impedance,Phase Angle,Temperature (Dry Bath)
10.0,24379.31,-20.85459,71.3647
21.544346900318832,20693.64,-18.33723,71.3665
46.41588833612777,17887.1,-15.84054,71.353
100.0,16850.51,-11.80613,71.3562
215.44346900318823,30170.47,2.034684,71.367
464.15888336127773,13477.77,-10.47923,71.3638
1000.0,12526.89,-9.541769,71.3585
2154.4346900318824,11691.4,-8.128458,71.3614
4641.588833612777,11035.32,-12.1533,71.3499
10000.0,10682.9,-14.4582,71.3535
