Frequency,Impedance,Phase Angle,Temperature (Dry Bath)
10.0,4873170.0,-13.38,71.3487
21.544346900318832,4304395.0,-35.83701,71.3667
46.41588833612777,3544161.0,-48.96037,71.338
100.0,529536.7,-58.555,71.3427
215.44346900318823,840688.2,142.1557,71.3657
464.15888336127773,550300.9,-95.54066,71.3451
1000.0,201745.4,-83.00659,71.35
2154.4346900318824,154094.0,-82.89579,71.348
4641.588833612777,77052.34,-89.56729,71.3439
10000.0,37262.53,-85.58259,71.3321
