Frequency,Impedance,Phase Angle,Temperature (Dry Bath)
10.0,5551553.0,7.871905,71.1739
21.544346900318832,4172587.0,8.940619,71.1791
46.41588833612777,6268550.0,-21.39173,71.1849
100.0,477608.8,-30.60702,71.1717
215.44346900318823,4028615.0,-98.11771,71.1791
464.15888336127773,693555.5,-56.32695,71.1878
1000.0,587623.7,-38.87987,71.1756
2154.4346900318824,274570.9,-103.4495,71.1825
4641.588833612777,173916.3,-66.30848,71.1769
10000.0,59884.5,-81.82807,71.1778
