Frequency,Impedance,Phase Angle,Temperature (Dry Bath)
10.0,1159646.0,-22.35571,71.1974
21.544346900318832,1097453.0,-21.19242,71.1868
46.41588833612777,825192.5,-19.79332,71.1787
100.0,461093.6,-41.07079,71.178
215.44346900318823,583984.5,-44.56358,71.175
464.15888336127773,644420.3,-6.437275,71.1867
1000.0,467498.0,-46.10482,71.1888
2154.4346900318824,265328.5,-71.00441,71.1868
4641.588833612777,157790.3,-76.17306,71.1884
10000.0,52972.86,-82.18499,71.1855
