Frequency,Impedance,Phase Angle,Temperature (Dry Bath)
10.0,14045.67,-20.68531,70.9219
21.544346900318832,12065.33,-17.59049,70.9196
46.41588833612777,10578.04,-15.21533,70.9222
100.0,9484.697,-13.40113,70.9318
215.44346900318823,8548.632,-12.27878,70.9223
464.15888336127773,7839.518,-10.01066,70.9064
1000.0,6995.676,-7.499105,70.91
2154.4346900318824,6686.347,-8.143615,70.905
4641.588833612777,6298.702,-8.978974,70.9194
10000.0,6009.325,-12.09874,70.9118
