Frequency,Impedance,Phase Angle,Temperature (Dry Bath)
10.0,3750420.0,5.938352,71.1823
21.544346900318832,4909169.0,-13.65976,71.1988
46.41588833612777,5187813.0,-9.4049,71.1951
100.0,353566.8,88.20271,71.1893
215.44346900318823,1285763.0,-68.55582,71.1836
464.15888336127773,594331.3,83.75078,71.1764
1000.0,472668.4,-55.04878,71.1941
2154.4346900318824,354546.4,-96.96215,71.1729
4641.588833612777,220691.1,-103.7418,71.1904
10000.0,123586.2,-105.4512,71.1783
