Frequency,Impedance,Phase Angle,Temperature (Dry Bath)
10.0,7379899.0,-13.35445,70.4839
21.544346900318832,6348310.0,-9.605711,70.458
46.41588833612777,4299479.0,-42.46439,70.4899
100.0,770235.4,-118.7295,70.4903
215.44346900318823,263208.3,126.6455,70.4667
464.15888336127773,523741.6,-78.85981,70.5013
1000.0,357219.3,-37.42715,70.4797
2154.4346900318824,205594.3,-67.18537,70.4918
4641.588833612777,134624.3,-91.19383,70.4929
10000.0,62105.48,-89.2055,70.508
