Frequency,Impedance,Phase Angle,Temperature (Dry Bath)
10.0,4711112.0,-14.7446,70.7622
21.544346900318832,5222443.0,-19.59186,70.7482
46.41588833612777,5042938.0,-24.94317,70.767
100.0,686311.7,102.0783,70.7747
215.44346900318823,835334.2,89.00436,70.7885
464.15888336127773,641071.3,-69.5435,70.7596
1000.0,348535.2,-114.2709,70.7617
2154.4346900318824,263140.6,-52.12961,70.7676
4641.588833612777,117222.0,-80.02979,70.7655
10000.0,56556.47,-85.77439,70.765
