Frequency,Impedance,Phase Angle,Temperature (Dry Bath)
10.0,24758.73,-20.48716,71.3267
21.544346900318832,21123.48,-17.92637,71.3371
46.41588833612777,18335.28,-15.6404,71.3403
100.0,17024.39,-15.09944,71.3232
215.44346900318823,14846.16,-11.49004,71.3489
464.15888336127773,13438.8,-9.577215,71.3274
1000.0,12614.82,-9.317114,71.3305
2154.4346900318824,11813.34,-9.569725,71.3216
4641.588833612777,11057.89,-10.71875,71.3501
10000.0,10245.3,-15.59382,71.3349
