Frequency,Impedance,Phase Angle,Temperature (Dry Bath)
10.0,20553.6,-22.39805,25.6987
21.544346900318832,16868.04,-24.03038,25.723
46.41588833612777,13595.02,-25.28444,25.7671
100.0,10798.83,-26.38902,25.6349
215.44346900318823,8654.911,-25.75499,25.8174
464.15888336127773,6976.134,-24.7844,25.8362
1000.0,5578.398,-23.30755,25.7824
2154.4346900318824,4643.258,-21.33809,25.7474
4641.588833612777,3882.76,-19.63906,25.5686
10000.0,3338.054,-18.14266,25.8724
