Frequency,Impedance,Phase Angle,Temperature (Dry Bath)
10.0,4394480.0,24.64258,71.0705
21.544346900318832,6229985.0,3.79271,71.075
46.41588833612777,4022379.0,-8.406875,71.0765
100.0,369095.7,122.0854,71.0702
215.44346900318823,925189.9,86.73276,71.0915
464.15888336127773,938200.9,-24.68052,71.0816
1000.0,1089786.0,-0.8158355,71.0612
2154.4346900318824,839342.8,-6.749898,71.0797
4641.588833612777,196120.9,9.395205,71.0823
10000.0,135680.0,-67.92585,71.0824
