Frequency,Impedance,Phase Angle,Temperature (Dry Bath)
10.0,10185120.0,8.005108,70.4461
21.544346900318832,11719690.0,33.68164,70.4513
46.41588833612777,3952845.0,-26.8615,70.4347
100.0,497049.2,71.9849,70.4444
215.44346900318823,2174304.0,-41.49366,70.4445
464.15888336127773,1175773.0,22.79637,70.4274
1000.0,229328.4,-100.1849,70.4425
2154.4346900318824,293364.7,-93.15892,70.4498
4641.588833612777,143085.8,-88.97973,70.4374
10000.0,62637.87,-86.64631,70.445
