Frequency,Impedance,Phase Angle,Temperature (Dry Bath)
10.0,8693865.0,20.87131,29.0983
21.544346900318832,7485455.0,-6.926357,29.1075
46.41588833612777,7055875.0,2.523145,29.1616
100.0,1190325.0,77.98724,29.2036
215.44346900318823,1332383.0,14.01858,29.1082
464.15888336127773,5784142.0,-115.8666,28.6035
1000.0,2740040.0,-144.5902,28.6633
2154.4346900318824,639995.2,-68.31718,28.6006
4641.588833612777,239593.9,-86.77726,28.6577
10000.0,129331.8,-83.38125,28.7223
