Frequency,Impedance,Phase Angle,Temperature (Dry Bath)
10.0,74709.99,-14.28315,71.0015
21.544346900318832,66872.05,-12.38261,71.0104
46.41588833612777,61057.86,-10.83714,71.005
100.0,56862.85,-4.370927,70.9985
215.44346900318823,55372.9,-16.36511,70.9814
464.15888336127773,48808.21,-7.684163,70.9658
1000.0,43972.44,-14.39365,70.9764
2154.4346900318824,42114.49,-14.94494,70.9665
4641.588833612777,37250.73,-23.68939,70.9661
10000.0,31496.71,-36.84307,70.9825
