Frequency,Impedance,Phase Angle,Temperature (Dry Bath)
10.0,6041142.0,-12.76096,71.3039
21.544346900318832,3624944.0,-9.470614,71.3068
46.41588833612777,5035040.0,-26.13648,71.3164
100.0,440602.2,-5.83211,71.306
215.44346900318823,655528.6,-127.5051,71.3134
464.15888336127773,2096701.0,-154.2095,71.3133
1000.0,400698.6,-121.8194,71.3054
2154.4346900318824,285676.0,-98.91293,71.3085
4641.588833612777,152075.0,-85.80364,71.3125
10000.0,71801.39,-86.85308,71.3173
