Frequency,Impedance,Phase Angle,Temperature (Dry Bath)
10.0,5500069.0,-29.10176,71.3702
21.544346900318832,5827658.0,-7.043939,71.377
46.41588833612777,4630179.0,3.509499,71.3675
100.0,561883.4,12.82885,71.3717
215.44346900318823,2213879.0,-28.38032,71.3723
464.15888336127773,2520275.0,-148.2891,71.3631
1000.0,636021.4,146.4516,71.3612
2154.4346900318824,476472.0,-103.4373,71.357
4641.588833612777,302753.5,-87.8432,71.3701
10000.0,133850.9,-74.75811,71.37
