Frequency,Impedance,Phase Angle,Temperature (Dry Bath)
10.0,5287305.0,27.79452,71.3004
21.544346900318832,5953788.0,20.58937,71.2987
46.41588833612777,6984443.0,-10.65414,71.3041
100.0,1688745.0,118.1873,71.3149
215.44346900318823,350241.3,-8.339944,71.2905
464.15888336127773,357931.5,-66.98606,71.298
1000.0,252782.5,-179.4055,71.3076
2154.4346900318824,245595.4,-64.86902,71.2928
4641.588833612777,528714.3,-129.1319,71.2904
10000.0,147749.7,-68.53012,71.2946
