Frequency,Impedance,Phase Angle,Temperature (Dry Bath)
10.0,6366950.0,-24.61048,71.4803
21.544346900318832,4425612.0,-17.99773,71.4838
46.41588833612777,4663561.0,-36.50635,71.4827
100.0,4139204.0,151.528,71.4838
215.44346900318823,1587036.0,-170.4053,71.503
464.15888336127773,669029.9,-64.61723,71.5027
1000.0,513865.8,-143.4322,71.4956
2154.4346900318824,446996.0,-81.91093,71.4903
4641.588833612777,215390.6,-84.41195,71.4797
10000.0,152036.7,-80.97359,71.4951
