Frequency,Impedance,Phase Angle,Temperature (Dry Bath)
10.0,11277.5,-24.7288,71.3935
21.544346900318832,9069.992,-25.32349,71.3871
46.41588833612777,7237.408,-25.21016,71.3901
100.0,5804.823,-23.71782,71.3851
215.44346900318823,4738.492,-22.27883,71.3854
464.15888336127773,3954.108,-20.27562,71.3897
1000.0,3370.04,-17.33486,71.3956
2154.4346900318824,2925.617,-15.57596,71.3851
4641.588833612777,2614.038,-13.14432,71.3729
10000.0,2366.999,-12.44525,71.3831
