Frequency,Impedance,Phase Angle,Temperature (Dry Bath)
10.0,23465.07,-19.66372,71.0292
21.544346900318832,20098.81,-17.49015,71.0346
46.41588833612777,17486.88,-15.78199,71.0469
100.0,15863.51,-15.49343,71.0439
215.44346900318823,13975.08,-13.57023,71.0527
464.15888336127773,12298.62,-10.45369,71.0412
1000.0,11563.39,-11.11967,71.028
2154.4346900318824,10470.81,-10.24707,71.0506
4641.588833612777,9959.946,-11.63481,71.045
10000.0,9340.286,-15.51932,71.031
