Frequency,Impedance,Phase Angle,Temperature (Dry Bath)
10.0,4004959.0,-3.826631,70.9814
21.544346900318832,14930900.0,-8.073577,70.9928
46.41588833612777,5448231.0,-9.155256,70.9842
100.0,640950.0,-12.24235,71.0032
215.44346900318823,490106.1,-66.04525,70.983
464.15888336127773,711814.5,172.0425,70.9927
1000.0,615985.4,10.00686,70.9977
2154.4346900318824,434495.9,-19.4447,71.007
4641.588833612777,514958.3,-52.5375,71.0036
10000.0,145839.9,-98.64974,71.0092
