Frequency,Impedance,Phase Angle,Temperature (Dry Bath)
10.0,4922020.0,7.090758,71.4067
21.544346900318832,4403220.0,-15.16617,71.4408
46.41588833612777,3432230.0,-31.27852,71.4354
100.0,732633.4,1.955818,71.4413
215.44346900318823,1387101.0,121.6127,71.4165
464.15888336127773,688393.0,7.916803,71.427
1000.0,213659.5,-23.69746,71.4467
2154.4346900318824,180669.6,-78.62274,71.431
4641.588833612777,130103.0,-77.32689,71.4227
10000.0,52305.2,-90.69844,71.4465
