Frequency,Impedance,Phase Angle,Temperature (Dry Bath)
10.0,7520654.0,20.88625,71.0508
21.544346900318832,4118722.0,-3.588363,71.0567
46.41588833612777,11297630.0,-10.64416,71.0555
100.0,659018.3,-26.04383,71.0624
215.44346900318823,1180388.0,113.2405,71.0585
464.15888336127773,542210.1,-131.006,71.0644
1000.0,245097.6,-166.6189,71.0595
2154.4346900318824,646307.8,-109.4159,71.0654
4641.588833612777,509295.4,-83.95292,71.074
10000.0,231220.3,-100.265,71.0601
