Frequency,Impedance,Phase Angle,Temperature (Dry Bath)
10.0,6404730.0,-11.40355,71.4425
21.544346900318832,10275440.0,-48.46607,71.4584
46.41588833612777,5404360.0,-3.254372,71.4513
100.0,266858.7,-87.9246,71.4496
215.44346900318823,15874.9,21.99139,71.4573
464.15888336127773,811585.8,-103.4533,71.4657
1000.0,358114.4,-68.5942,71.4531
2154.4346900318824,242097.8,-91.92735,71.4578
4641.588833612777,123047.4,-83.54704,71.4538
10000.0,65526.75,-89.84666,71.4663
