Frequency,Impedance,Phase Angle,Temperature (Dry Bath)
10.0,1104509.0,-9.223581,71.1427
21.544346900318832,1136888.0,-5.378526,71.1367
46.41588833612777,931802.2,-11.1713,71.1539
100.0,234367.5,41.13788,71.1225
215.44346900318823,653192.5,93.88714,71.1353
464.15888336127773,259594.3,-13.53697,71.1099
1000.0,709020.4,-14.90247,71.1028
2154.4346900318824,508141.3,-77.79036,71.1133
4641.588833612777,182698.6,-64.46684,71.1199
10000.0,97872.89,-75.25256,71.1235
