Frequency,Impedance,Phase Angle,Temperature (Dry Bath)
10.0,4927437.0,-31.16639,71.3183
21.544346900318832,7046141.0,14.63826,71.3037
46.41588833612777,4640526.0,-25.93703,71.311
100.0,1252451.0,4.331234,71.3071
215.44346900318823,2161108.0,178.5246,71.3195
464.15888336127773,1109918.0,-44.36778,71.3086
1000.0,476672.5,-86.76532,71.3012
2154.4346900318824,634908.9,-34.62288,71.3134
4641.588833612777,424936.9,-128.627,71.3098
10000.0,103261.9,-91.92781,71.2916
