Frequency,Impedance,Phase Angle,Temperature (Dry Bath)
10.0,13755.82,-27.96238,71.0392
21.544346900318832,10934.25,-25.40302,71.0368
46.41588833612777,8917.883,-22.73074,71.0392
100.0,7553.85,-18.72245,71.0425
215.44346900318823,6436.331,-16.90552,71.0368
464.15888336127773,5622.068,-15.62218,71.0456
1000.0,4967.63,-14.24345,71.0354
2154.4346900318824,4492.024,-12.70987,71.0285
4641.588833612777,4058.213,-11.98562,71.0419
10000.0,3715.717,-12.83726,71.0483
