Frequency,Impedance,Phase Angle,Temperature (Dry Bath)
10.0,241711.8,-22.56359,71.3427
21.544346900318832,196003.9,-21.28219,71.334
46.41588833612777,162029.6,-19.6491,71.3179
100.0,155854.6,-38.95424,71.3421
215.44346900318823,25400.33,-46.1163,71.3377
464.15888336127773,109644.7,-29.56848,71.3255
1000.0,106468.3,-18.62454,71.3274
2154.4346900318824,83443.86,-25.99183,71.3063
4641.588833612777,64389.65,-38.08212,71.3211
10000.0,41881.18,-55.13367,71.329
