Frequency,Impedance,Phase Angle,Temperature (Dry Bath)
10.0,231307.3,-17.21005,71.3509
21.544346900318832,200768.7,-16.09628,71.3485
46.41588833612777,176589.1,-16.69291,71.3625
100.0,159848.9,-16.48917,71.354
215.44346900318823,152616.3,-21.47156,71.3604
464.15888336127773,104473.3,-20.37471,71.3397
1000.0,110938.8,-27.0458,71.3596
2154.4346900318824,91756.81,-29.56763,71.3645
4641.588833612777,59621.37,-34.69367,71.3582
10000.0,41927.39,-49.62748,71.3591
