Frequency,Impedance,Phase Angle,Temperature (Dry Bath)
10.0,72148.31,-10.55041,71.1098
21.544346900318832,67667.36,-9.182224,71.1112
46.41588833612777,62980.49,-7.471348,71.0997
100.0,56206.81,0.1844298,71.1023
215.44346900318823,60719.89,0.903577,71.1018
464.15888336127773,58473.37,-12.57544,71.1037
1000.0,70922.15,-15.44797,71.0973
2154.4346900318824,53147.13,-11.00976,71.1039
4641.588833612777,45175.3,-22.87729,71.1033
10000.0,40777.01,-30.21468,71.0971
