Frequency,Impedance,Phase Angle,Temperature (Dry Bath)
10.0,5024130.0,13.56834,71.1387
21.544346900318832,4936043.0,-9.501675,71.1365
46.41588833612777,8129080.0,-14.37608,71.1458
100.0,2219448.0,-111.5497,71.1252
215.44346900318823,1231334.0,-47.82613,71.1447
464.15888336127773,1190353.0,-62.8794,71.137
1000.0,637892.2,-124.8407,71.1504
2154.4346900318824,325636.9,-93.3005,71.1449
4641.588833612777,410558.7,-16.76295,71.128
10000.0,125660.8,-96.40948,71.1494
