Frequency,Impedance,Phase Angle,Temperature (Dry Bath)
10.0,6411255.0,-17.92959,71.4603
21.544346900318832,4637328.0,-25.21981,71.4521
46.41588833612777,5399487.0,-14.84235,71.4504
100.0,392834.3,157.9749,71.4555
215.44346900318823,650109.3,-179.6349,71.4573
464.15888336127773,995787.7,-164.8252,71.4455
1000.0,294243.7,-49.29749,71.45
2154.4346900318824,318778.1,-91.30764,71.4483
4641.588833612777,122521.8,-92.39568,71.4642
10000.0,58541.39,-86.69676,71.4479
