Frequency,Impedance,Phase Angle,Temperature (Dry Bath)
10.0,6033.778,-24.797,70.905
21.544346900318832,4971.491,-21.79009,70.9169
46.41588833612777,4201.592,-19.07341,70.9089
100.0,3641.325,-16.20018,70.927
215.44346900318823,3194.388,-14.05262,70.9209
464.15888336127773,2867.621,-12.23626,70.8985
1000.0,2611.952,-10.44116,70.9005
2154.4346900318824,2417.601,-9.259259,70.9092
4641.588833612777,2274.465,-8.415322,70.9002
10000.0,2150.64,-8.311962,70.8932
