Frequency,Impedance,Phase Angle,Temperature (Dry Bath)
10.0,12171720.0,13.1643,71.0706
21.544346900318832,4573999.0,-23.93326,71.06
46.41588833612777,5220351.0,-3.237293,71.055
100.0,771519.1,12.50366,71.0571
215.44346900318823,1054545.0,-25.2622,71.0578
464.15888336127773,934997.0,-76.17306,71.0599
1000.0,612198.7,-80.32699,71.0622
2154.4346900318824,291017.6,-77.0633,71.0455
4641.588833612777,133467.8,-85.04589,71.0449
10000.0,70237.11,-90.0247,71.0628
