Frequency,Impedance,Phase Angle,Temperature (Dry Bath)
10.0,24235.83,-20.96821,71.2716
21.544346900318832,20565.58,-18.05474,71.2827
46.41588833612777,17894.09,-15.52381,71.2817
100.0,16667.77,-14.66414,71.2667
215.44346900318823,6205.514,-17.63117,71.2663
464.15888336127773,13399.42,-9.563079,71.2686
1000.0,12367.69,-6.908017,71.2688
2154.4346900318824,11866.07,-8.389264,71.2554
4641.588833612777,10909.91,-10.61445,71.2658
10000.0,10370.56,-15.03269,71.2717
