Frequency,Impedance,Phase Angle,Temperature (Dry Bath)
10.0,9634194.0,49.59638,71.4608
21.544346900318832,3544061.0,-24.59131,71.461
46.41588833612777,4833510.0,-34.02861,71.465
100.0,1184388.0,-128.3178,71.4655
215.44346900318823,34792.53,69.13627,71.467
464.15888336127773,511687.1,-145.1447,71.4736
1000.0,296840.1,-100.2617,71.4658
2154.4346900318824,399378.5,-99.24346,71.47
4641.588833612777,150889.8,-86.54617,71.4608
10000.0,56640.7,-92.47011,71.4711
