Frequency,Impedance,Phase Angle,Temperature (Dry Bath)
10.0,4477706.0,5.589693,71.4668
21.544346900318832,5004720.0,-20.10148,71.4702
46.41588833612777,5610955.0,-3.542181,71.468
100.0,666491.5,-103.9707,71.4611
215.44346900318823,2904414.0,-166.1566,71.4741
464.15888336127773,702205.2,-105.3792,71.4778
1000.0,1540696.0,-13.09616,71.4791
2154.4346900318824,496375.9,-50.11272,71.4733
4641.588833612777,236173.3,-109.6853,71.4798
10000.0,170655.5,-77.71662,71.4653
