Frequency,Impedance,Phase Angle,Temperature (Dry Bath)
10.0,16893620.0,5.093833,70.6304
21.544346900318832,5636384.0,-22.22522,70.6228
46.41588833612777,4500157.0,-40.49867,70.6261
100.0,459449.6,11.15667,70.6244
215.44346900318823,1441125.0,-53.48007,70.6371
464.15888336127773,708596.6,7.152471,70.6093
1000.0,321160.3,-86.10024,70.6092
2154.4346900318824,316074.7,-94.11205,70.6247
4641.588833612777,134396.2,-81.56468,70.6233
10000.0,81291.3,-81.96021,70.6175
