Frequency,Impedance,Phase Angle,Temperature (Dry Bath)
10.0,7552.689,-35.65446,70.6043
21.544346900318832,5707.896,-31.08143,70.5886
46.41588833612777,4487.508,-26.65754,70.6039
100.0,3667.429,-22.02682,70.596
215.44346900318823,3098.939,-18.77717,70.6107
464.15888336127773,2703.616,-15.30927,70.6015
1000.0,2408.818,-13.22628,70.603
2154.4346900318824,2198.24,-10.95212,70.5908
4641.588833612777,2030.466,-9.763096,70.5961
10000.0,1897.78,-9.145946,70.5927
