Frequency,Impedance,Phase Angle,Temperature (Dry Bath)
10.0,27679.32,-16.51296,71.5026
21.544346900318832,24090.18,-15.06638,71.4942
46.41588833612777,21346.06,-14.22725,71.4728
100.0,19017.35,-12.41242,71.488
215.44346900318823,17745.28,-14.13832,71.4843
464.15888336127773,15762.65,-10.83038,71.5043
1000.0,14631.98,-10.37013,71.4953
2154.4346900318824,13295.86,-10.35041,71.5033
4641.588833612777,12240.93,-12.53806,71.4948
10000.0,11516.7,-16.02643,71.4903
