Frequency,Impedance,Phase Angle,Temperature (Dry Bath)
10.0,41053.95,-12.78184,71.3895
21.544346900318832,37220.6,-11.20932,71.3968
46.41588833612777,34186.56,-9.997448,71.3883
100.0,31346.91,-9.088168,71.3886
215.44346900318823,29086.56,-10.29369,71.3843
464.15888336127773,27710.22,-9.09,71.4025
1000.0,26059.65,-7.862736,71.3867
2154.4346900318824,24573.06,-8.934361,71.3976
4641.588833612777,22728.76,-12.60179,71.3975
10000.0,22043.32,-20.24029,71.3882
