Frequency,Impedance,Phase Angle,Temperature (Dry Bath)
10.0,4060512.0,3.502436,71.1504
21.544346900318832,5174488.0,-18.1842,71.1266
46.41588833612777,4139888.0,-29.42771,71.1337
100.0,478413.0,-167.7763,71.1518
215.44346900318823,869010.2,-175.0787,71.1413
464.15888336127773,1279434.0,-87.16628,71.1446
1000.0,594006.8,-107.7494,71.1512
2154.4346900318824,336739.2,-91.01413,71.157
4641.588833612777,105421.2,-80.60822,71.1581
10000.0,62075.11,-84.69906,71.1455
