Frequency,Impedance,Phase Angle,Temperature (Dry Bath)
10.0,6024120.0,-26.17803,70.7638
21.544346900318832,3680513.0,-1.740801,70.7652
46.41588833612777,4587928.0,-5.983239,70.7589
100.0,865399.7,56.51933,70.7671
215.44346900318823,1940076.0,-163.5116,70.7553
464.15888336127773,815775.7,-122.0976,70.7643
1000.0,228907.1,-12.27995,70.7463
2154.4346900318824,290678.1,-85.89135,70.7654
4641.588833612777,153334.9,-96.84019,70.7675
10000.0,66631.57,-87.29139,70.7466
