Frequency,Impedance,Phase Angle,Temperature (Dry Bath)
10.0,5038282.0,0.9596193,71.3457
21.544346900318832,5546210.0,-30.39411,71.3121
46.41588833612777,4601609.0,-24.98296,71.3306
100.0,378772.4,96.30682,71.3492
215.44346900318823,816621.4,-112.8721,71.3381
464.15888336127773,759148.4,16.74237,71.3285
1000.0,814956.5,-46.8513,71.3407
2154.4346900318824,619034.2,-86.5858,71.3358
4641.588833612777,111740.0,-85.37434,71.3319
10000.0,61012.95,-90.05004,71.3511
