Frequency,Impedance,Phase Angle,Temperature (Dry Bath)
10.0,78962.12,-15.00089,71.4422
21.544346900318832,70190.78,-13.73495,71.4495
46.41588833612777,63251.5,-12.92713,71.4405
100.0,55976.73,-11.15882,71.4473
215.44346900318823,52325.0,-9.095713,71.456
464.15888336127773,46832.24,-6.196845,71.4472
1000.0,45757.62,-7.428984,71.4513
2154.4346900318824,49930.19,-16.83119,71.4391
4641.588833612777,39612.82,-9.975235,71.4459
10000.0,40816.23,-15.64277,71.435
