Frequency,Impedance,Phase Angle,Temperature (Dry Bath)
10.0,555851.3,-26.94238,71.4193
21.544346900318832,448402.9,-28.03095,71.4328
46.41588833612777,370189.3,-19.89705,71.4211
100.0,565366.0,-43.27774,71.4252
215.44346900318823,30701.67,84.8478,71.4295
464.15888336127773,275537.0,-28.88556,71.4284
1000.0,169397.9,-16.16818,71.4217
2154.4346900318824,112871.0,-35.83839,71.4271
4641.588833612777,89156.34,-61.08164,71.4214
10000.0,51763.65,-65.25892,71.4246
