Frequency,Impedance,Phase Angle,Temperature (Dry Bath)
10.0,8825012.0,-26.62832,71.3462
21.544346900318832,11586030.0,-22.75944,71.3419
46.41588833612777,3866363.0,-8.117532,71.3549
100.0,538202.6,-31.09663,71.3463
215.44346900318823,23353.29,-50.5481,71.3354
464.15888336127773,2968314.0,15.07541,71.3488
1000.0,900107.3,-149.6534,71.3413
2154.4346900318824,317237.0,-99.18936,71.3401
4641.588833612777,158731.0,-78.89403,71.3349
10000.0,66324.13,-85.89683,71.3414
