Frequency,Impedance,Phase Angle,Temperature (Dry Bath)
10.0,3506271.0,7.067178,70.8706
21.544346900318832,6216933.0,-24.77462,70.8756
46.41588833612777,4563996.0,-48.60659,70.8699
100.0,758629.5,-123.1587,70.8628
215.44346900318823,747617.8,126.176,70.8892
464.15888336127773,319809.2,-19.83149,70.8701
1000.0,1779121.0,-28.79617,70.8729
2154.4346900318824,396503.6,-80.17596,70.8644
4641.588833612777,131422.2,-83.7874,70.871
10000.0,68075.86,-90.195,70.8899
