Frequency,Impedance,Phase Angle,Temperature (Dry Bath)
10.0,4261566.0,-7.666038,71.3316
21.544346900318832,6807041.0,19.00918,71.3333
46.41588833612777,4627824.0,-34.08008,71.3363
100.0,568480.9,-69.32751,71.3313
215.44346900318823,744276.7,165.4195,71.3427
464.15888336127773,1232796.0,-152.2182,71.324
1000.0,564398.3,-146.6651,71.3357
2154.4346900318824,252770.4,-84.20176,71.3347
4641.588833612777,111221.8,-89.33603,71.3228
10000.0,60564.78,-89.68066,71.3426
