Frequency,Impedance,Phase Angle,Temperature (Dry Bath)
10.0,4656941.0,-2.683954,71.3655
21.544346900318832,5826978.0,-13.39088,71.3691
46.41588833612777,3440647.0,81.66839,71.3782
100.0,481983.8,158.1943,71.371
215.44346900318823,68389.88,41.13858,71.3715
464.15888336127773,576045.4,-9.121032,71.3658
1000.0,447548.6,-100.3118,71.3688
2154.4346900318824,376546.3,-103.651,71.3623
4641.588833612777,139821.7,-91.79345,71.3489
10000.0,65275.19,-83.07689,71.3574
