Frequency,Impedance,Phase Angle,Temperature (Dry Bath)
10.0,2651883.0,-5.859011,71.0805
21.544346900318832,2638135.0,-9.840614,71.0857
46.41588833612777,2281995.0,-23.79082,71.087
100.0,431915.4,77.56109,71.1025
215.44346900318823,2874847.0,-21.51097,71.0931
464.15888336127773,1265110.0,57.46485,71.1036
1000.0,366095.9,91.13904,71.0942
2154.4346900318824,280499.8,-63.59383,71.1015
4641.588833612777,125858.8,-84.73881,71.0999
10000.0,106387.6,-75.00083,71.1027
