Frequency,Impedance,Phase Angle,Temperature (Dry Bath)
10.0,5988304.0,10.86862,71.4806
21.544346900318832,4081857.0,-11.52338,71.4835
46.41588833612777,5043055.0,-39.38498,71.4706
100.0,545225.4,-63.97945,71.4879
215.44346900318823,350957.7,-45.92747,71.479
464.15888336127773,367843.6,-152.5714,71.4765
1000.0,454492.9,-111.365,71.4872
2154.4346900318824,303167.0,-65.78349,71.4752
4641.588833612777,109506.6,-74.60371,71.4571
10000.0,51258.92,-94.50269,71.48
