Frequency,Impedance,Phase Angle,Temperature (Dry Bath)
10.0,7648187.0,-19.98803,71.2692
21.544346900318832,7213736.0,20.37842,71.2498
46.41588833612777,5923103.0,-22.36277,71.2708
100.0,716116.1,-147.5738,71.2728
215.44346900318823,854104.7,17.562,71.2761
464.15888336127773,2833338.0,-173.0986,71.2624
1000.0,921678.8,47.84157,71.2803
2154.4346900318824,528096.3,-128.2526,71.2746
4641.588833612777,140674.6,-126.1279,71.2865
10000.0,138556.0,-92.06207,71.2839
