Frequency,Impedance,Phase Angle,Temperature (Dry Bath)
10.0,4009184.0,-14.09833,71.6603
21.544346900318832,7363886.0,-20.23316,71.6634
46.41588833612777,6501576.0,6.093308,71.6656
100.0,591125.1,-160.7303,71.6602
215.44346900318823,249257.5,103.9846,71.6629
464.15888336127773,1605459.0,165.1025,71.6629
1000.0,569448.2,-146.9808,71.6685
2154.4346900318824,553943.4,-112.1564,71.6775
4641.588833612777,236097.6,-69.14076,71.6691
10000.0,128561.9,-93.60955,71.6737
