Frequency,Impedance,Phase Angle,Temperature (Dry Bath)
10.0,314146.5,-24.59142,71.2516
21.544346900318832,262243.9,-21.89513,71.2247
46.41588833612777,216370.2,-21.21937,71.2526
100.0,166523.3,-4.067615,71.2487
215.44346900318823,168575.3,-26.45342,71.2415
464.15888336127773,125238.6,-21.18819,71.225
1000.0,113531.6,-33.04749,71.2224
2154.4346900318824,99767.71,-35.71119,71.2459
4641.588833612777,69650.0,-53.38891,71.2532
10000.0,43116.11,-67.66916,71.2309
