Frequency,Impedance,Phase Angle,Temperature (Dry Bath)
10.0,4550846.0,-22.12731,70.9374
21.544346900318832,2668913.0,-18.89724,70.928
46.41588833612777,3157322.0,-19.6268,70.9413
100.0,759511.3,175.1654,70.9337
215.44346900318823,743068.3,-164.186,70.9366
464.15888336127773,2770049.0,-50.82316,70.9315
1000.0,473166.3,-83.09622,70.9341
2154.4346900318824,275695.7,-97.61583,70.9312
4641.588833612777,134344.5,-86.56707,70.923
10000.0,55952.91,-88.91718,70.909
