Frequency,Impedance,Phase Angle,Temperature (Dry Bath)
10.0,6144.54,-34.04133,71.101
21.544346900318832,4789.372,-38.57194,71.1052
46.41588833612777,3414.974,-46.03266,71.1103
100.0,2204.521,-53.47227,71.1106
215.44346900318823,1323.705,-59.00134,71.1098
464.15888336127773,756.3848,-60.12322,71.102
1000.0,434.4398,-56.39648,71.1007
2154.4346900318824,264.5601,-47.11601,71.1277
4641.588833612777,184.1169,-34.00055,71.1092
10000.0,149.4037,-21.63832,71.0994
