Frequency,Impedance,Phase Angle,Temperature (Dry Bath)
10.0,76724.21,-7.652197,71.1785
21.544346900318832,64220.84,-10.56063,71.1977
46.41588833612777,54684.74,-12.74459,71.168
100.0,45790.86,-13.6135,71.1668
215.44346900318823,37948.55,-13.01526,71.1914
464.15888336127773,33469.94,-16.47138,71.1606
1000.0,29013.36,-19.34907,71.1805
2154.4346900318824,24152.52,-17.6361,71.1839
4641.588833612777,20474.9,-21.50859,71.184
10000.0,16925.97,-24.53753,71.175
