Frequency,Impedance,Phase Angle,Temperature (Dry Bath)
10.0,1690.626,-46.42372,71.1592
21.544346900318832,1137.639,-48.45451,71.1639
46.41588833612777,744.5765,-50.75982,71.172
100.0,474.4121,-52.67482,71.1647
215.44346900318823,296.7778,-53.40442,71.1767
464.15888336127773,184.6424,-52.38685,71.1739
1000.0,116.4971,-49.1499,71.1723
2154.4346900318824,76.41629,-43.37009,71.1607
4641.588833612777,53.52704,-35.40579,71.1766
10000.0,41.05809,-26.24177,71.1796
