Frequency,Impedance,Phase Angle,Temperature (Dry Bath)
10.0,2193.627,-12.71074,70.9607
21.544346900318832,1977.537,-11.11332,70.9631
46.41588833612777,1822.256,-9.768608,70.9779
100.0,1704.667,-9.197821,70.9711
215.44346900318823,1585.092,-9.268563,70.9661
464.15888336127773,1466.607,-9.845153,70.9686
1000.0,1329.867,-10.57672,70.9714
2154.4346900318824,1206.674,-10.45614,70.9831
4641.588833612777,1104.604,-9.875062,70.9678
10000.0,1025.368,-8.797915,70.9765
