Frequency,Impedance,Phase Angle,Temperature (Dry Bath)
10.0,159450.9,-21.09038,67.7852
21.5,137625.8,-17.72777,67.7646
46.4,121462.0,-15.59548,67.7814
100.0,106859.7,-14.45985,67.7672
215.4,99770.4,-10.65188,67.7895
464.2,92600.32,-12.31436,67.7827
1000.0,84786.52,-13.5413,67.7696
2154.4,76648.61,-17.35781,67.7601
4641.6,68973.39,-24.46695,67.7747
10000.0,55811.15,-35.62175,67.7516
