Frequency,Impedance,Phase Angle,Temperature (Dry Bath)
10.0,28197630.0,-6.114994,67.3776
21.5,18941830.0,-28.00712,67.3814
46.4,14753980.0,-36.32953,67.3688
100.0,3183036.0,-82.18296,67.3678
215.4,273859.2,-66.83477,67.3809
464.2,3070055.0,-65.87326,67.3646
1000.0,1227660.0,-91.42498,67.3677
2154.4,538083.3,-84.93985,67.3746
4641.6,265945.6,-86.28004,67.3703
10000.0,128294.2,-86.90174,67.3809
