Frequency,Impedance,Phase Angle,Temperature (Dry Bath)
10.0,44296870.0,-23.70333,67.7791
21.5,22819060.0,-34.60192,67.7773
46.4,9637637.0,-53.81965,67.7912
100.0,5374584.0,-56.06604,67.7959
215.4,2911518.0,-63.70705,67.8067
464.2,2169009.0,-91.33672,67.7997
1000.0,1140071.0,-80.82326,67.8027
2154.4,562313.4,-84.14523,67.7993
4641.6,258963.8,-88.71192,67.7923
10000.0,133553.5,-93.5622,67.8013
