Frequency,Impedance,Phase Angle,Temperature (Dry Bath)
10.0,22702170.0,-8.210991,67.1055
21.5,27433950.0,-43.9925,67.1155
46.4,15329040.0,-54.25987,67.1075
100.0,50573090.0,-140.3775,67.0959
215.4,251437.5,48.3751,67.1426
464.2,1626525.0,-95.81794,67.1179
1000.0,911830.4,-85.77259,67.1187
2154.4,535860.8,-82.5784,67.1348
4641.6,249704.7,-85.31335,67.1302
10000.0,122059.4,-84.96244,67.1416
