Frequency,Impedance,Phase Angle,Temperature (Dry Bath)
10.0,69939.19,-16.17743,71.4923
21.544346900318832,61945.56,-14.60477,71.4938
46.41588833612777,55215.45,-13.26389,71.4946
100.0,52263.64,-8.583531,71.5044
215.44346900318823,44930.57,-9.670948,71.5021
464.15888336127773,44281.97,-6.863053,71.5065
1000.0,39549.43,-17.66975,71.5056
2154.4346900318824,36459.44,-13.67566,71.4969
4641.588833612777,30489.43,-21.89634,71.4933
10000.0,29088.63,-35.89192,71.4905
