Frequency,Impedance,Phase Angle,Temperature (Dry Bath)
10.0,1423060.0,-15.01101,68.0569
21.5,1243646.0,-14.09237,68.0495
46.4,1101538.0,-13.45866,68.058
100.0,1003159.0,-17.93228,68.0714
215.4,840761.1,-20.68577,68.0652
464.2,875693.9,-22.20045,68.0493
1000.0,641400.3,-40.24636,68.0625
2154.4,516110.5,-55.8839,68.0791
4641.6,251730.0,-71.5955,68.0542
10000.0,123400.1,-82.69073,68.0609
