Frequency,Impedance,Phase Angle,Temperature (Dry Bath)
10.0,22258490.0,-4.442464,68.2338
21.5,24077730.0,-26.47865,68.2338
46.4,18525100.0,-41.4722,68.2338
100.0,6092326.0,-51.37893,68.2338
215.4,10674960.0,-66.23651,68.2338
464.2,3253331.0,-81.96646,68.2338
1000.0,1511244.0,-88.35694,68.2338
2154.4,697549.7,-88.87361,68.2338
4641.6,323814.2,-88.08859,68.2338
10000.0,162875.8,-99.92617,68.2338
