Frequency,Impedance,Phase Angle,Temperature (Dry Bath)
10.0,25463170.0,2.523873,68.1439
21.5,24047110.0,-33.39171,68.1439
46.4,21391080.0,-45.08374,68.1439
100.0,5443751.0,-9.918082,68.1439
215.4,6726528.0,-70.25235,68.1439
464.2,3137609.0,-79.57258,68.1439
1000.0,1451735.0,-87.35767,68.1439
2154.4,619977.7,-85.63154,68.1439
4641.6,331134.2,-93.23472,68.1439
10000.0,143769.5,-99.33625,68.1439
