Frequency,Impedance,Phase Angle,Temperature (Dry Bath)
10.0,5604944.0,6.267054,70.6281
21.544346900318832,4762564.0,-27.31824,70.6346
46.41588833612777,5774874.0,-38.52327,70.6471
100.0,351228.1,-124.9994,70.6417
215.44346900318823,3249255.0,90.54056,70.6411
464.15888336127773,1189950.0,-142.5406,70.6403
1000.0,288286.3,-75.18839,70.634
2154.4346900318824,287501.6,-80.19474,70.6276
4641.588833612777,112599.7,-85.07856,70.6561
10000.0,68665.32,-84.28686,70.6397
