Frequency,Impedance,Phase Angle,Temperature (Dry Bath)
10.0,100719.0,-3.935233,66.9856
21.5,98696.21,-3.363053,66.9794
46.4,97275.26,-3.522277,67.0053
100.0,96816.77,-3.432847,66.9917
215.4,95311.62,-4.25737,66.9762
464.2,92767.54,-6.067948,66.9805
1000.0,91277.1,-7.76506,66.9656
2154.4,87004.73,-13.42343,66.9881
4641.6,76875.84,-22.84406,66.9858
10000.0,64605.32,-36.89611,66.9892
