Frequency,Impedance,Phase Angle,Temperature (Dry Bath)
10.0,17910880.0,-26.82228,68.0848
21.5,14781380.0,-33.35067,68.0848
46.4,22456060.0,-44.52373,68.0848
100.0,6185820.0,-30.61826,68.0848
215.4,5273109.0,-58.62801,68.0848
464.2,2306120.0,-80.01525,68.0848
1000.0,1518693.0,-82.98823,68.0848
2154.4,685176.6,-84.83045,68.0848
4641.6,331219.0,-91.93629,68.0848
10000.0,147970.6,-97.83612,68.0848
