Frequency,Impedance,Phase Angle,Temperature (Dry Bath)
10.0,147689.2,-13.66686,70.9721
21.544346900318832,134349.5,-12.01852,70.9648
46.41588833612777,121038.2,-12.07246,70.9713
100.0,96847.35,-14.52075,70.9564
215.44346900318823,86585.49,-10.31833,70.9694
464.15888336127773,92396.34,-8.73889,70.9791
1000.0,81694.86,-15.3128,70.9755
2154.4346900318824,65411.1,-24.01782,70.9608
4641.588833612777,57359.19,-31.38763,70.9725
10000.0,45955.85,-50.17181,70.9749
