Frequency,Impedance,Phase Angle,Temperature (Dry Bath)
10.0,51944.69,-17.70113,70.9396
21.544346900318832,45317.0,-15.96279,70.9495
46.41588833612777,39903.74,-14.73749,70.9482
100.0,33850.72,-13.42216,70.9383
215.44346900318823,31989.5,-13.42737,70.9341
464.15888336127773,28642.97,-9.335818,70.9402
1000.0,25102.79,-15.57167,70.9452
2154.4346900318824,25476.37,-11.7744,70.9493
4641.588833612777,24192.79,-18.44498,70.9398
10000.0,20443.81,-26.12663,70.9454
