Frequency,Impedance,Phase Angle,Temperature (Dry Bath)
10.0,193545.2,-23.62362,67.3813
21.5,162285.0,-20.30318,67.3684
46.4,140044.3,-17.75979,67.3749
100.0,122654.7,-15.3406,67.3854
215.4,120169.1,-30.68603,67.376
464.2,105048.3,-14.46372,67.3643
1000.0,94626.46,-14.70777,67.3705
2154.4,85412.23,-19.5999,67.387
4641.6,73321.11,-26.84197,67.3677
10000.0,58670.41,-38.17495,67.3679
