Frequency,Impedance,Phase Angle,Temperature (Dry Bath)
10.0,208656.5,-23.47538,67.3794
21.5,175108.6,-20.53774,67.378
46.4,150879.1,-18.10092,67.3859
100.0,135853.2,-15.20559,67.3935
215.4,405393.1,-15.25209,67.3926
464.2,111963.0,-14.48503,67.3962
1000.0,101446.6,-15.13958,67.3802
2154.4,90808.43,-20.75648,67.4069
4641.6,76844.62,-28.04049,67.4067
10000.0,58988.64,-40.16609,67.3997
