Frequency,Impedance,Phase Angle,Temperature (Dry Bath)
10.0,55434.3,-33.36368,67.1252
21.5,42913.34,-29.49123,67.1369
46.4,34817.71,-25.82761,67.1275
100.0,29191.71,-22.32461,67.1108
215.4,25204.48,-19.59247,67.1292
464.2,22437.05,-16.13275,67.1437
1000.0,20156.09,-13.94019,67.1363
2154.4,18382.61,-12.92162,67.1298
4641.6,16944.45,-12.98275,67.1343
10000.0,15561.04,-15.12599,67.1426
