Frequency,Impedance,Phase Angle,Temperature (Dry Bath)
10.0,130021.0,-3.803202,67.2576
21.5,127075.2,-3.320254,67.242
46.4,124036.6,-3.314621,67.2325
100.0,123314.1,-3.301138,67.2647
215.4,120420.6,-5.110984,67.2607
464.2,116995.9,-5.940586,67.2664
1000.0,110601.1,-9.621901,67.2603
2154.4,104332.5,-15.45073,67.2529
4641.6,92682.86,-26.8744,67.2445
10000.0,71833.83,-41.98216,67.2541
