Frequency,Impedance,Phase Angle,Temperature (Dry Bath)
10.0,4601539.0,-19.14458,71.1715
21.544346900318832,3506103.0,2.418286,71.1707
46.41588833612777,4507240.0,-21.82183,71.1758
100.0,222492.3,3.972965,71.1662
215.44346900318823,748639.8,22.78934,71.1624
464.15888336127773,428511.8,-124.4796,71.1734
1000.0,335344.2,-85.0525,71.1639
2154.4346900318824,269649.1,-63.68143,71.1675
4641.588833612777,146005.9,-69.39051,71.1664
10000.0,59246.69,-87.1893,71.1584
