Frequency,Impedance,Phase Angle,Temperature (Dry Bath)
10.0,93494820.0,-11.57738,68.0527
21.5,52601200.0,-10.05839,68.0527
46.4,42430720.0,-44.23055,68.0527
100.0,4596683.0,-40.82634,68.0527
215.4,8297445.0,-98.26974,68.0527
464.2,2937106.0,-74.3456,68.0527
1000.0,1508507.0,-82.95257,68.0527
2154.4,726777.2,-87.26613,68.0527
4641.6,346578.8,-96.83252,68.0527
10000.0,155389.2,-96.09408,68.0527
