Frequency,Impedance,Phase Angle,Temperature (Dry Bath)
10.0,1382665.0,-16.1127,67.8776
21.5,1212745.0,-14.68027,67.8888
46.4,1137720.0,-13.48404,67.8812
100.0,1018210.0,-15.59565,67.8759
215.4,950565.5,-17.40982,67.87
464.2,879220.3,-23.02474,67.8803
1000.0,672514.5,-38.19086,67.8833
2154.4,491842.1,-52.63825,67.8816
4641.6,270098.8,-74.0946,67.8707
10000.0,128671.2,-85.74156,67.8805
