Frequency,Impedance,Phase Angle,Temperature (Dry Bath)
10.0,125550.2,-4.139471,67.1355
21.5,123056.3,-3.683064,67.1276
46.4,119815.0,-3.159983,67.1301
100.0,119578.9,-4.602911,67.1474
215.4,117214.3,-5.01838,67.1159
464.2,113968.3,-6.916417,67.134
1000.0,109583.8,-8.341316,67.13
2154.4,102300.1,-15.79054,67.1372
4641.6,94128.26,-25.54961,67.1456
10000.0,71838.76,-41.55721,67.1162
