Frequency,Impedance,Phase Angle,Temperature (Dry Bath)
10.0,1541302.0,-18.76845,67.1299
21.5,1386473.0,-16.39505,67.1209
46.4,1246154.0,-15.17419,67.1164
100.0,1073110.0,1.936564,67.1311
215.4,1049147.0,-31.23209,67.1351
464.2,955082.0,-34.86803,67.1445
1000.0,710963.1,-50.05195,67.1378
2154.4,428116.7,-64.54719,67.1402
4641.6,219692.3,-73.85299,67.1425
10000.0,112573.4,-78.67131,67.1728
