Frequency,Impedance,Phase Angle,Temperature (Dry Bath)
10.0,3948285.0,-9.077323,71.258
21.544346900318832,4802313.0,-3.609963,71.2457
46.41588833612777,4217199.0,-13.09062,71.2415
100.0,303169.1,-77.17505,71.2593
215.44346900318823,251822.3,-144.7559,71.2502
464.15888336127773,608148.4,116.4169,71.2545
1000.0,337901.6,-85.78694,71.2578
2154.4346900318824,246669.3,-91.98513,71.2501
4641.588833612777,132033.1,-85.71884,71.2354
10000.0,64575.36,-79.5398,71.2596
