Frequency,Impedance,Phase Angle,Temperature (Dry Bath)
10.0,55026.91,-16.80612,70.7699
21.544346900318832,48712.32,-14.86405,70.7692
46.41588833612777,43691.17,-14.04547,70.7937
100.0,38680.09,-8.806329,70.7558
215.44346900318823,36068.0,-11.45249,70.7473
464.15888336127773,31851.01,-12.6251,70.7794
1000.0,29248.38,-10.81776,70.7535
2154.4346900318824,27003.63,-14.68589,70.7639
4641.588833612777,24239.55,-17.95786,70.7637
10000.0,21489.76,-27.39987,70.7601
