Frequency,Impedance,Phase Angle,Temperature (Dry Bath)
10.0,5385032.0,0.260545,65.6988
21.544346900318832,7202298.0,-17.41066,65.7125
46.41588833612777,3949680.0,-32.0384,65.7087
100.0,681920.0,-32.58876,65.707
215.44346900318823,16118.53,20.95096,65.7248
464.15888336127773,866329.4,-51.87582,65.71
1000.0,857573.5,-96.52949,65.7045
2154.4346900318824,261105.3,-85.25232,65.7263
4641.588833612777,145680.8,-83.01914,65.7142
10000.0,70097.52,-82.52076,65.6932
