Frequency,Impedance,Phase Angle,Temperature (Dry Bath)
10.0,30582350.0,-29.81145,67.071
21.5,21454960.0,-38.22689,67.098
46.4,15000250.0,-56.2152,67.0902
100.0,7796439.0,-62.78334,67.088
215.4,2352193.0,-57.92062,67.0872
464.2,1444148.0,-76.52223,67.085
1000.0,792028.8,-80.39175,67.0929
2154.4,427350.1,-84.97046,67.0725
4641.6,202011.2,-82.01469,67.071
10000.0,99112.67,-81.49201,67.0779
