Frequency,Impedance,Phase Angle,Temperature (Dry Bath)
10.0,120553.1,-3.334884,67.4168
21.5,118563.7,-3.128199,67.4117
46.4,116953.0,-3.139131,67.4128
100.0,114212.4,-4.427253,67.4201
215.4,128794.4,-15.01645,67.4185
464.2,112590.9,-5.573789,67.4
1000.0,107430.2,-8.930874,67.3865
2154.4,100831.8,-14.50678,67.3945
4641.6,92068.36,-23.91932,67.4159
10000.0,73545.31,-40.73194,67.4168
