Frequency,Impedance,Phase Angle,Temperature (Dry Bath)
10.0,4809291.0,0.2268027,70.9337
21.544346900318832,4365219.0,-35.14243,70.9239
46.41588833612777,3629579.0,-30.52034,70.9373
100.0,1168203.0,-178.132,70.919
215.44346900318823,3088881.0,8.78613,70.9342
464.15888336127773,281439.9,-109.5145,70.9322
1000.0,450655.2,-39.88944,70.9423
2154.4346900318824,334377.4,-77.38959,70.9308
4641.588833612777,124802.7,-92.00585,70.9463
10000.0,61488.44,-92.13905,70.9502
