Frequency,Impedance,Phase Angle,Temperature (Dry Bath)
10.0,5093771.0,16.23044,71.5144
21.544346900318832,3393290.0,9.825641,71.5105
46.41588833612777,5600773.0,-8.798575,71.5089
100.0,4751163.0,16.26556,71.5203
215.44346900318823,2159871.0,-133.4555,71.5118
464.15888336127773,409538.2,175.104,71.5195
1000.0,2113490.0,-22.28183,71.501
2154.4346900318824,671611.6,-114.977,71.5215
4641.588833612777,205548.0,-98.65501,71.542
10000.0,102135.6,-89.80526,71.5252
