Frequency,Impedance,Phase Angle,Temperature (Dry Bath)
10.0,6470280.0,-15.00439,66.1501
21.544346900318832,3693381.0,-13.76601,66.143
46.41588833612777,4606793.0,-3.598161,66.1469
100.0,887012.8,16.0715,66.1517
215.44346900318823,230641.3,107.5153,66.1462
464.15888336127773,1214975.0,-40.97754,66.1558
1000.0,503470.4,-43.59361,66.1643
2154.4346900318824,429464.0,-121.9426,66.1418
4641.588833612777,136917.5,-77.38221,66.1474
10000.0,61457.89,-85.85188,66.1544
