Frequency,Impedance,Phase Angle,Temperature (Dry Bath)
10.0,2349506.0,-11.01716,68.0527
21.5,2247184.0,-11.48161,68.0527
46.4,2056110.0,-12.07651,68.0527
100.0,1452529.0,-20.88922,68.0527
215.4,1833901.0,-31.71983,68.0527
464.2,1171830.0,-39.67366,68.0527
1000.0,959517.4,-45.69736,68.0527
2154.4,525944.3,-64.61236,68.0527
4641.6,312433.4,-78.21635,68.0527
10000.0,155086.8,-90.95027,68.0527
