Frequency,Impedance,Phase Angle,Temperature (Dry Bath)
10.0,30401340.0,-24.30604,67.1153
21.5,20341870.0,-32.33244,67.1194
46.4,13716770.0,-61.5295,67.1037
100.0,8101289.0,-41.26027,67.1051
215.4,5909354.0,-102.8462,67.1127
464.2,2181758.0,-82.72884,67.1057
1000.0,946439.5,-88.47915,67.1137
2154.4,433601.4,-81.28718,67.1068
4641.6,199689.5,-82.6103,67.1184
10000.0,100477.6,-80.72388,67.1179
