Frequency,Impedance,Phase Angle,Temperature (Dry Bath)
10.0,6877683.0,-11.85763,67.9295
21.5,6963143.0,-15.4976,67.9316
46.4,8009538.0,-21.83182,67.9473
100.0,3422667.0,-26.88553,67.9306
215.4,5580468.0,-19.60701,67.9383
464.2,1958551.0,-58.74537,67.9315
1000.0,1301954.0,-66.57704,67.9402
2154.4,614192.0,-82.86437,67.9434
4641.6,285197.2,-86.98082,67.9283
10000.0,147661.2,-100.4074,67.9461
