Frequency,Impedance,Phase Angle,Temperature (Dry Bath)
10.0,21339610.0,-9.664391,68.182
21.5,20741820.0,-29.75432,68.183
46.4,23477130.0,-46.99154,68.1787
100.0,5464218.0,-70.9628,68.185
215.4,4313445.0,-71.02886,68.1888
464.2,3320160.0,-89.50377,68.1887
1000.0,1558070.0,-89.86707,68.1646
2154.4,702335.5,-87.58284,68.185
4641.6,348131.5,-92.38548,68.1796
10000.0,154604.1,-101.0853,68.1769
