Frequency,Impedance,Phase Angle,Temperature (Dry Bath)
10.0,6256390.0,-3.309609,66.6
21.544346900318832,4393768.0,16.46641,66.6
46.41588833612777,6272350.0,5.880293,66.6
100.0,575559.1,-14.88681,66.6
215.44346900318823,1367420.0,-175.7936,66.6
464.15888336127773,533180.8,36.42978,66.6
1000.0,870303.6,163.9243,66.6
2154.4346900318824,590693.4,-19.46216,66.6
4641.588833612777,402744.7,-116.9416,66.6
10000.0,344040.8,-47.6088,66.6
