Frequency,Impedance,Phase Angle,Temperature (Dry Bath)
10.0,39813090.0,-23.60151,67.2615
21.5,21448660.0,-44.77963,67.2635
46.4,14896200.0,-53.85071,67.2645
100.0,8117853.0,-119.8034,67.271
215.4,1632787.0,-62.87374,67.266
464.2,2173390.0,-80.5628,67.2781
1000.0,857637.9,-78.36944,67.268
2154.4,521601.7,-81.76423,67.2691
4641.6,268743.1,-80.60612,67.2791
10000.0,124693.6,-77.48295,67.2663
