Frequency,Impedance,Phase Angle,Temperature (Dry Bath)
10.0,40647180.0,-23.74373,67.1677
21.5,31497100.0,-11.39912,67.1641
46.4,18253050.0,-45.84044,67.1623
100.0,3668627.0,-27.09449,67.1695
215.4,104412.1,-56.56727,67.162
464.2,2274684.0,-65.39217,67.1728
1000.0,1267942.0,-86.81192,67.1669
2154.4,507446.5,-92.58262,67.1838
4641.6,254161.7,-87.82095,67.1712
10000.0,122239.2,-85.34475,67.1542
