Frequency,Impedance,Phase Angle,Temperature (Dry Bath)
10.0,2557703.0,-11.95247,68.2568
21.5,2280849.0,-12.33211,68.2568
46.4,1952830.0,-13.29969,68.2568
100.0,1810670.0,-19.38207,68.2568
215.4,1715119.0,-23.12632,68.2568
464.2,1405358.0,-31.26597,68.2568
1000.0,928557.1,-46.78146,68.2568
2154.4,607442.1,-63.95629,68.2568
4641.6,306613.8,-77.1771,68.2568
10000.0,151809.7,-86.71079,68.2568
