Frequency,Impedance,Phase Angle,Temperature (Dry Bath)
10.0,30159200.0,-12.18287,67.4386
21.5,26712420.0,-33.06646,67.4454
46.4,16657620.0,-52.12507,67.4501
100.0,11968800.0,21.76814,67.4287
215.4,2316430.0,-66.14585,67.4351
464.2,1885785.0,-89.34716,67.4435
1000.0,1351263.0,-90.35196,67.4262
2154.4,576030.0,-86.92407,67.4263
4641.6,280642.8,-85.38937,67.4322
10000.0,132465.2,-85.00967,67.4332
