Frequency,Impedance,Phase Angle,Temperature (Dry Bath)
10.0,1518037.0,-14.0352,68.2754
21.5,1379138.0,-13.34205,68.2754
46.4,1296170.0,-13.23208,68.2754
100.0,1067716.0,-20.32048,68.2754
215.4,1080089.0,-10.9873,68.2754
464.2,942125.3,-23.37023,68.2754
1000.0,708257.3,-41.76479,68.2754
2154.4,519622.4,-67.35103,68.2754
4641.6,300515.3,-70.93851,68.2754
10000.0,140188.4,-87.76517,68.2754
