Frequency,Impedance,Phase Angle,Temperature (Dry Bath)
10.0,3392037.0,-4.902491,70.5809
21.544346900318832,3443824.0,-7.26854,70.5696
46.41588833612777,2946730.0,-20.03376,70.5591
100.0,1435535.0,136.4609,70.543
215.44346900318823,677015.7,-61.39345,70.5637
464.15888336127773,6013417.0,24.01408,70.558
1000.0,416023.5,-102.0483,70.5362
2154.4346900318824,209939.5,-99.5923,70.563
4641.588833612777,138462.3,-81.91392,70.5574
10000.0,51785.0,-89.22585,70.5753
