Frequency,Impedance,Phase Angle,Temperature (Dry Bath)
10.0,30743770.0,-4.342755,67.2317
21.5,33244130.0,-30.82647,67.2543
46.4,10338160.0,-51.43157,67.2431
100.0,6982762.0,38.19682,67.2405
215.4,380344.5,-78.87518,67.2394
464.2,2399014.0,-94.62514,67.2456
1000.0,1284831.0,-85.86334,67.238
2154.4,552696.2,-86.38208,67.2589
4641.6,255997.2,-83.93265,67.2512
10000.0,122657.2,-86.59014,67.2495
