Frequency,Impedance,Phase Angle,Temperature (Dry Bath)
10.0,5496932.0,-12.33026,71.5445
21.544346900318832,3846727.0,3.892948,71.5426
46.41588833612777,3846113.0,-6.068893,71.5344
100.0,3485164.0,-35.89178,71.5272
215.44346900318823,6129506.0,-117.077,71.5365
464.15888336127773,1075190.0,-150.6975,71.5383
1000.0,352887.5,-80.71497,71.5201
2154.4346900318824,568232.2,-59.29182,71.5369
4641.588833612777,334283.1,-82.54965,71.5326
10000.0,115695.9,-80.1775,71.5204
