Frequency,Impedance,Phase Angle,Temperature (Dry Bath)
10.0,1309306.0,-15.02863,68.0855
21.5,1212394.0,-13.70602,68.0792
46.4,1076821.0,-13.31781,68.0743
100.0,955624.4,-19.52451,68.0707
215.4,971300.8,-22.64779,68.0662
464.2,887748.0,-21.95981,68.0824
1000.0,708405.7,-38.83897,68.0867
2154.4,477655.5,-60.44329,68.0846
4641.6,273368.3,-71.64434,68.0889
10000.0,132979.4,-87.64521,68.0763
