Frequency,Impedance,Phase Angle,Temperature (Dry Bath)
10.0,3973753.0,-28.88931,69.6387
21.544346900318832,4568131.0,4.107431,69.6354
46.41588833612777,4607199.0,-34.68442,69.6542
100.0,629955.4,120.5032,69.6405
215.44346900318823,366248.8,56.58793,69.6347
464.15888336127773,13339940.0,-177.5617,69.6504
1000.0,6479643.0,-28.47019,69.6451
2154.4346900318824,336665.7,-115.8124,69.6618
4641.588833612777,116453.4,-85.55424,69.6475
10000.0,59661.62,-87.95396,69.6755
