Frequency,Impedance,Phase Angle,Temperature (Dry Bath)
10.0,32169170.0,-40.03292,68.0527
21.5,30834420.0,-35.34506,68.0527
46.4,37465100.0,-48.43055,68.0527
100.0,4462962.0,-44.23656,68.0527
215.4,8492332.0,-92.56043,68.0527
464.2,2688743.0,-78.32086,68.0527
1000.0,1280023.0,-81.59541,68.0527
2154.4,650015.8,-84.66674,68.0527
4641.6,303037.4,-89.29283,68.0527
10000.0,146544.2,-98.29723,68.0527
