Frequency,Impedance,Phase Angle,Temperature (Dry Bath)
10.0,14783.56,-17.70453,71.2216
21.544346900318832,12944.15,-16.24002,71.2378
46.41588833612777,11455.19,-15.49689,71.2147
100.0,10373.32,-14.40225,71.2261
215.44346900318823,9132.803,-14.18451,71.2193
464.15888336127773,8108.598,-12.74934,71.243
1000.0,7287.618,-12.05375,71.2488
2154.4346900318824,6787.966,-10.5719,71.2437
4641.588833612777,6190.456,-10.59346,71.2429
10000.0,5913.876,-12.2571,71.251
