Frequency,Impedance,Phase Angle,Temperature (Dry Bath)
10.0,27474550.0,-24.87964,68.1043
21.5,18920320.0,-15.63599,68.1037
46.4,15990180.0,-50.74499,68.109
100.0,3038924.0,-28.73399,68.1081
215.4,4405698.0,-51.71174,68.1088
464.2,2361024.0,-74.73793,68.0971
1000.0,1685290.0,-94.71754,68.1027
2154.4,744647.0,-88.94187,68.1086
4641.6,308385.9,-94.25391,68.105
10000.0,145632.9,-95.97821,68.0938
