Frequency,Impedance,Phase Angle,Temperature (Dry Bath)
10.0,4835081.0,9.536327,70.9073
21.544346900318832,3947837.0,-16.98678,70.9024
46.41588833612777,4132036.0,-21.37343,70.9046
100.0,1137847.0,158.6464,70.8965
215.44346900318823,758106.3,152.9743,70.9039
464.15888336127773,674362.6,-67.31278,70.9226
1000.0,279753.6,-83.69201,70.8963
2154.4346900318824,285356.2,-71.6563,70.9155
4641.588833612777,111092.8,-89.21429,70.9119
10000.0,57962.56,-82.78285,70.9187
