Frequency,Impedance,Phase Angle,Temperature (Dry Bath)
10.0,19090990.0,-1.864178,67.3857
21.5,14154200.0,-24.55832,67.3697
46.4,15034650.0,-30.57172,67.371
100.0,3051142.0,-31.22311,67.37
215.4,151857.0,25.73796,67.385
464.2,2429477.0,-72.15065,67.3732
1000.0,1079532.0,-82.56006,67.3687
2154.4,584179.4,-85.12069,67.3512
4641.6,256716.8,-83.63689,67.3781
10000.0,126758.2,-85.21006,67.3781
