Frequency,Impedance,Phase Angle,Temperature (Dry Bath)
10.0,173118.4,-11.82524,66.3154
21.544346900318832,159141.4,-10.8092,66.3197
46.41588833612777,145945.0,-10.6396,66.3301
100.0,147570.6,4.133329,66.3132
215.44346900318823,109697.6,-28.21928,66.3149
464.15888336127773,114407.4,-6.383833,66.3049
1000.0,119021.3,-23.48675,66.3271
2154.4346900318824,108188.7,-25.57103,66.3154
4641.588833612777,74996.37,-37.73558,66.3445
10000.0,54405.1,-51.14027,66.3276
