Frequency,Impedance,Phase Angle,Temperature (Dry Bath)
10.0,1473312.0,-16.38707,68.0398
21.5,1312697.0,-13.90127,68.0426
46.4,1151785.0,-13.85933,68.0545
100.0,972339.6,-8.905947,68.0438
215.4,932272.2,-22.10359,68.048
464.2,863340.7,-20.60712,68.0479
1000.0,758782.8,-43.8287,68.0418
2154.4,475146.4,-58.22444,68.0548
4641.6,236358.3,-67.18218,68.0489
10000.0,137878.4,-82.88376,68.0641
