Frequency,Impedance,Phase Angle,Temperature (Dry Bath)
10.0,57925.93,-33.01508,67.015
21.5,44912.39,-29.1141,67.0049
46.4,36670.35,-25.34116,67.0254
100.0,30772.96,-21.83557,67.0067
215.4,26771.23,-18.402,67.027
464.2,23777.08,-15.83134,67.0185
1000.0,21366.33,-13.82603,67.0376
2154.4,19592.82,-12.74856,67.0158
4641.6,18011.8,-13.22773,67.0339
10000.0,16660.83,-15.45603,67.0201
