Frequency,Impedance,Phase Angle,Temperature (Dry Bath)
10.0,3308984.0,13.24194,71.3708
21.544346900318832,4700472.0,-20.2431,71.3611
46.41588833612777,4205645.0,-9.275131,71.3459
100.0,669282.4,-81.33029,71.3571
215.44346900318823,419055.1,-122.4373,71.3547
464.15888336127773,1882218.0,-10.13529,71.371
1000.0,666917.2,-62.79736,71.346
2154.4346900318824,413693.2,-28.21634,71.3764
4641.588833612777,226225.8,-102.6761,71.377
10000.0,129954.3,-94.05784,71.3708
