Frequency,Impedance,Phase Angle,Temperature (Dry Bath)
10.0,70930610.0,-12.24092,67.7838
21.5,46178400.0,-26.31372,67.7813
46.4,22487120.0,-52.76665,67.7872
100.0,11758930.0,-52.72343,67.7731
215.4,4536798.0,-73.45836,67.7747
464.2,3631868.0,-78.02288,67.7766
1000.0,1369192.0,-82.09012,67.7781
2154.4,727837.0,-89.48201,67.7808
4641.6,379301.0,-95.79947,67.7718
10000.0,148090.0,-90.53473,67.7764
