Frequency,Impedance,Phase Angle,Temperature (Dry Bath)
10.0,134908.2,-3.963676,67.1684
21.5,132178.2,-3.594701,67.1543
46.4,128956.7,-3.170361,67.1573
100.0,126386.8,-3.829497,67.1725
215.4,77839.42,-12.76421,67.1529
464.2,118434.3,-5.997078,67.1527
1000.0,115714.0,-10.26236,67.1534
2154.4,109833.6,-16.53165,67.1537
4641.6,97718.62,-27.13562,67.1724
10000.0,73747.82,-43.71407,67.1478
