Frequency,Impedance,Phase Angle,Temperature (Dry Bath)
10.0,1612693.0,-22.00109,70.5189
21.544346900318832,1714434.0,-23.22747,70.5017
46.41588833612777,1128016.0,-30.57163,70.5116
100.0,1570448.0,-30.61912,70.5022
215.44346900318823,1308733.0,-4.323209,70.5141
464.15888336127773,318239.1,-31.52191,70.5374
1000.0,662247.1,13.64416,70.4915
2154.4346900318824,208712.9,-65.82624,70.5108
4641.588833612777,102116.3,-68.99091,70.5089
10000.0,54295.72,-77.30431,70.5026
