Frequency,Impedance,Phase Angle,Temperature (Dry Bath)
10.0,1567145.0,-17.97565,68.1287
21.5,1389412.0,-15.82766,68.1265
46.4,1221260.0,-14.5331,68.1321
100.0,1006525.0,-5.927235,68.1337
215.4,1048511.0,-14.38659,68.1395
464.2,859268.0,-28.9636,68.1267
1000.0,708530.7,-48.93774,68.1284
2154.4,434064.8,-61.79817,68.1294
4641.6,246797.3,-74.65439,68.1396
10000.0,126227.9,-86.59767,68.1346
