Frequency,Impedance,Phase Angle,Temperature (Dry Bath)
10.0,115113.9,-3.105343,67.1551
21.5,112914.5,-2.651031,67.1603
46.4,111205.2,-2.569069,67.1429
100.0,109562.0,-2.713373,67.1457
215.4,108705.1,-6.724862,67.1477
464.2,107706.8,-5.075973,67.1367
1000.0,101302.0,-9.076366,67.1448
2154.4,98861.6,-13.91966,67.1417
4641.6,88642.84,-25.38685,67.1445
10000.0,69973.66,-41.91814,67.1187
