Frequency,Impedance,Phase Angle,Temperature (Dry Bath)
10.0,48672260.0,-25.22149,67.8963
21.5,51190650.0,-22.10154,67.8885
46.4,31570670.0,-55.10659,67.8815
100.0,4267879.0,-36.29049,67.8856
215.4,10265260.0,-50.14657,67.8919
464.2,3464343.0,-69.07649,67.9038
1000.0,1293414.0,-86.54975,67.8971
2154.4,597960.1,-82.21934,67.8824
4641.6,284508.2,-88.59284,67.8932
10000.0,137268.1,-95.81746,67.8987
