Frequency,Impedance,Phase Angle,Temperature (Dry Bath)
10.0,1517971.0,-13.55914,68.3229
21.5,1431322.0,-14.11418,68.3385
46.4,1320586.0,-13.58608,68.326
100.0,1095898.0,-11.11842,68.3217
215.4,1016595.0,-16.21482,68.3221
464.2,850332.2,-32.43934,68.3165
1000.0,784147.9,-39.21183,68.3173
2154.4,487876.4,-57.45864,68.3166
4641.6,269388.2,-76.64863,68.3043
10000.0,134501.5,-88.44691,68.3301
