Frequency,Impedance,Phase Angle,Temperature (Dry Bath)
10.0,117586.6,-3.500215,67.3054
21.5,115262.7,-3.199006,67.3156
46.4,113074.6,-2.897467,67.3224
100.0,110869.4,-4.359763,67.321
215.4,112088.3,-5.096721,67.3257
464.2,110903.7,-6.174535,67.3191
1000.0,106091.7,-8.612212,67.3378
2154.4,101810.8,-14.35675,67.3237
4641.6,92013.88,-23.32698,67.3289
10000.0,72793.14,-39.5144,67.3139
