Frequency,Impedance,Phase Angle,Temperature (Dry Bath)
10.0,32272880.0,-8.674762,66.9361
21.5,20600350.0,-34.214,66.9209
46.4,20269400.0,-47.27254,66.9395
100.0,2777945.0,-110.9512,66.9217
215.4,220312.7,-60.31326,66.9207
464.2,2932186.0,-73.59223,66.9318
1000.0,961146.6,-83.92125,66.9038
2154.4,571775.6,-88.77714,66.9266
4641.6,256014.3,-83.41321,66.9245
10000.0,120338.7,-84.77489,66.9168
