Frequency,Impedance,Phase Angle,Temperature (Dry Bath)
10.0,3950759.0,-6.712229,71.0872
21.544346900318832,3780455.0,-12.95977,71.0715
46.41588833612777,5493929.0,-44.04457,71.0745
100.0,380575.5,-15.99798,71.0826
215.44346900318823,1142772.0,-156.8473,71.0749
464.15888336127773,1959459.0,-129.3248,71.1019
1000.0,431108.4,-84.0237,71.0885
2154.4346900318824,196783.8,-73.51203,71.0748
4641.588833612777,110991.0,-74.60168,71.091
10000.0,60944.35,-89.49124,71.0626
