Frequency,Impedance,Phase Angle,Temperature (Dry Bath)
10.0,4200807.0,-19.15231,72.2507
21.544346900318832,4483746.0,4.680148,72.2419
46.41588833612777,3696822.0,11.69564,72.2389
100.0,406801.1,-47.25341,72.2442
215.44346900318823,1710295.0,147.9034,72.2506
464.15888336127773,396469.7,-56.95448,72.2419
1000.0,771826.7,-88.99706,72.2382
2154.4346900318824,466323.4,74.40232,72.2464
4641.588833612777,188047.7,-134.664,72.2269
10000.0,133409.4,-96.03166,72.2441
