Frequency,Impedance,Phase Angle,Temperature (Dry Bath)
10.0,72196.66,-30.71018,67.1006
21.5,57335.03,-26.96955,67.105
46.4,47502.73,-23.21524,67.1175
100.0,40283.47,-19.39068,67.1162
215.4,36024.91,-17.5078,67.1159
464.2,32360.9,-14.53861,67.1145
1000.0,29374.19,-12.86727,67.1063
2154.4,26913.34,-12.5026,67.1113
4641.6,24942.22,-13.55502,67.1071
10000.0,22718.47,-17.66574,67.1113
