Frequency,Impedance,Phase Angle,Temperature (Dry Bath)
10.0,1938989.0,10.32318,67.4099
21.5,5670109.0,-6.280042,67.4197
46.4,4296595.0,-2.675791,67.421
100.0,2590534.0,-29.81232,67.419
215.4,132014.6,-62.41928,67.4196
464.2,2124547.0,-78.71397,67.4243
1000.0,994670.4,-78.23805,67.4124
2154.4,564901.3,-79.10022,67.4162
4641.6,267603.1,-81.65549,67.4126
10000.0,124361.3,-85.83883,67.4125
