Frequency,Impedance,Phase Angle,Temperature (Dry Bath)
10.0,4847808.0,-55.98302,71.3618
21.544346900318832,3611350.0,-30.72294,71.3537
46.41588833612777,2906537.0,13.41343,71.37
100.0,604257.2,174.3212,71.3683
215.44346900318823,68634.84,-112.0694,71.3636
464.15888336127773,888373.2,-169.3033,71.3698
1000.0,746284.9,-60.91323,71.3828
2154.4346900318824,352653.6,-64.30016,71.3466
4641.588833612777,144611.6,-76.06262,71.3606
10000.0,63437.06,-83.59193,71.3602
