Frequency,Impedance,Phase Angle,Temperature (Dry Bath)
10.0,2359893.0,-20.33395,71.4547
21.544346900318832,2065133.0,-16.69763,71.459
46.41588833612777,2095533.0,-23.99677,71.4656
100.0,627096.2,6.18531,71.4544
215.44346900318823,424798.8,10.80857,71.4581
464.15888336127773,626150.7,-50.0179,71.4508
1000.0,428983.4,-70.18425,71.4626
2154.4346900318824,320710.9,-72.9301,71.4665
4641.588833612777,133998.3,-85.03428,71.4699
10000.0,70732.18,-87.13057,71.4544
