Frequency,Impedance,Phase Angle,Temperature (Dry Bath)
10.0,32377680.0,-25.83533,67.3547
21.5,24331970.0,-19.46734,67.3449
46.4,20928960.0,-52.24703,67.3679
100.0,6475558.0,-82.62292,67.3585
215.4,2745556.0,-81.31999,67.3471
464.2,2754265.0,-83.39281,67.3606
1000.0,1065883.0,-85.74936,67.3481
2154.4,556287.3,-86.11335,67.3379
4641.6,247645.1,-86.45988,67.3563
10000.0,123099.2,-86.71422,67.3539
