Frequency,Impedance,Phase Angle,Temperature (Dry Bath)
10.0,2490627.0,-11.40116,67.872
21.5,2206594.0,-8.584295,67.8852
46.4,1944129.0,-12.35226,67.8858
100.0,1712829.0,-15.04138,67.9017
215.4,1460806.0,-22.9493,67.8884
464.2,1451923.0,-37.84704,67.8642
1000.0,954734.4,-53.93257,67.9041
2154.4,547019.0,-70.14371,67.8903
4641.6,280514.6,-79.68879,67.8802
10000.0,136514.3,-90.72224,67.8889
