Frequency,Impedance,Phase Angle,Temperature (Dry Bath)
10.0,240547.6,-23.00348,67.1046
21.5,202975.5,-20.23442,67.1052
46.4,175223.1,-17.79201,67.0905
100.0,154177.7,-17.27779,67.0974
215.4,138426.1,-13.65914,67.087
464.2,131031.7,-14.37593,67.1194
1000.0,117777.9,-18.66017,67.0921
2154.4,101531.9,-23.02269,67.1013
4641.6,83708.22,-32.01305,67.0915
10000.0,62511.55,-44.70243,67.0954
