Frequency,Impedance,Phase Angle,Temperature (Dry Bath)
10.0,3657256.0,-0.6869124,29.359
21.544346900318832,5002575.0,-4.736487,29.2273
46.41588833612777,5518852.0,-30.14843,28.8051
100.0,1202903.0,9.608395,28.7071
215.44346900318823,986884.1,-18.80549,28.6222
464.15888336127773,1029346.0,42.49495,28.7021
1000.0,410955.5,52.46966,28.7886
2154.4346900318824,675703.7,-112.477,28.9865
4641.588833612777,292968.8,-74.81573,28.9727
10000.0,167653.3,-90.3687,28.9678
