Frequency,Impedance,Phase Angle,Temperature (Dry Bath)
10.0,25891860.0,-6.300002,67.2858
21.5,22199050.0,-34.90495,67.2777
46.4,20057460.0,-45.97313,67.2748
100.0,6620999.0,-16.62865,67.286
215.4,185627.1,-117.8686,67.2778
464.2,2444710.0,-95.88303,67.2831
1000.0,1009298.0,-76.87714,67.2916
2154.4,567412.0,-87.86203,67.29
4641.6,279783.7,-87.90346,67.2818
10000.0,126576.8,-86.5139,67.2952
