Frequency,Impedance,Phase Angle,Temperature (Dry Bath)
10.0,30530020.0,-19.22536,67.3317
21.5,20925230.0,-39.20744,67.3159
46.4,14676930.0,-58.10237,67.3537
100.0,4715213.0,-61.40332,67.3211
215.4,197014.6,-111.7637,67.32
464.2,1783041.0,-74.09016,67.3174
1000.0,819213.6,-79.32033,67.3298
2154.4,422055.4,-87.28694,67.3328
4641.6,198553.6,-81.31338,67.3193
10000.0,100517.0,-80.77928,67.2896
