Frequency,Impedance,Phase Angle,Temperature (Dry Bath)
10.0,1589906.0,-19.43447,66.9978
21.5,1397451.0,-17.43612,66.9965
46.4,1279211.0,-15.71477,66.9778
100.0,1001442.0,-32.41464,66.9946
215.4,1128118.0,-22.69502,66.9864
464.2,863248.2,-32.81782,66.982
1000.0,631894.5,-38.09433,66.9837
2154.4,428134.2,-64.00226,66.9815
4641.6,224849.4,-73.94599,67.0027
10000.0,113133.2,-79.01546,66.9816
