Frequency,Impedance,Phase Angle,Temperature (Dry Bath)
10.0,18145910.0,-12.09742,68.1421
21.5,19348600.0,-14.31666,68.1421
46.4,14325840.0,-46.47678,68.1421
100.0,12461610.0,-68.32359,68.1421
215.4,9512450.0,-46.03757,68.1421
464.2,2399922.0,-89.21501,68.1421
1000.0,1250700.0,-87.51468,68.1421
2154.4,665373.1,-87.81435,68.1421
4641.6,309157.4,-84.56834,68.1421
10000.0,145095.3,-97.65069,68.1421
