Frequency,Impedance,Phase Angle,Temperature (Dry Bath)
10.0,53013980.0,-11.22027,67.7957
21.5,24385730.0,-25.80955,67.77
46.4,14432570.0,-46.17735,67.7822
100.0,5793656.0,-52.63054,67.7604
215.4,5368860.0,-41.22186,67.7902
464.2,2847113.0,-86.25128,67.7659
1000.0,1425951.0,-81.85341,67.7732
2154.4,599560.0,-85.04653,67.7984
4641.6,320763.6,-88.16512,67.7842
10000.0,141962.1,-96.80191,67.7787
