Frequency,Impedance,Phase Angle,Temperature (Dry Bath)
10.0,23255700.0,1.636988,67.1152
21.5,24456110.0,-16.73115,67.1007
46.4,18324580.0,-60.67299,67.11
100.0,4457276.0,-22.0531,67.1042
215.4,2266600.0,-66.21329,67.1092
464.2,3183632.0,-75.81183,67.1044
1000.0,1393447.0,-75.7589,67.104
2154.4,634720.1,-85.86783,67.1107
4641.6,273241.2,-83.08359,67.1114
10000.0,124686.5,-86.70547,67.1008
