Frequency,Impedance,Phase Angle,Temperature (Dry Bath)
10.0,38828080.0,-17.01243,67.4611
21.5,22625560.0,-38.14195,67.4648
46.4,17428650.0,-46.95545,67.4397
100.0,5374511.0,42.24111,67.4604
215.4,2623192.0,-94.23043,67.4685
464.2,1936193.0,-84.89774,67.4606
1000.0,1338645.0,-77.5419,67.4583
2154.4,570932.5,-86.84718,67.4534
4641.6,271524.3,-87.36318,67.4595
10000.0,131556.0,-87.71569,67.4521
