Frequency,Impedance,Phase Angle,Temperature (Dry Bath)
10.0,57854.77,-32.99582,67.4087
21.5,44558.12,-28.458,67.4052
46.4,36632.95,-24.66915,67.3991
100.0,31275.71,-20.5797,67.3908
215.4,27133.1,-17.41266,67.4038
464.2,24599.2,-14.76509,67.3948
1000.0,22209.24,-12.72571,67.4105
2154.4,20523.58,-11.68616,67.4101
4641.6,19003.74,-12.04936,67.406
10000.0,17678.17,-14.6985,67.4014
