Frequency,Impedance,Phase Angle,Temperature (Dry Bath)
10.0,148715.6,-16.55229,25.8848
21.544346900318832,129834.3,-15.47154,25.8643
46.41588833612777,115290.8,-14.39744,25.684
100.0,92993.75,-10.33779,25.9839
215.44346900318823,97289.45,-18.78739,25.8121
464.15888336127773,88128.41,-11.99557,26.0671
1000.0,69183.09,-10.89608,26.0013
2154.4346900318824,82313.35,-13.92419,25.7242
4641.588833612777,62061.2,-20.05953,26.0802
10000.0,52156.91,-28.62603,26.1066
