Frequency,Impedance,Phase Angle,Temperature (Dry Bath)
10.0,1361773.0,-22.68119,71.1671
21.544346900318832,1146283.0,-19.93876,71.1597
46.41588833612777,984783.9,-22.3262,71.1681
100.0,327920.5,-90.71961,71.1621
215.44346900318823,715165.5,-2.444383,71.1597
464.15888336127773,532267.4,-63.66983,71.1595
1000.0,314812.3,-40.71703,71.1676
2154.4346900318824,285969.3,-52.28464,71.1657
4641.588833612777,128955.0,-74.68726,71.1546
10000.0,53529.85,-79.2646,71.1335
