Frequency,Impedance,Phase Angle,Temperature (Dry Bath)
10.0,3259116.0,-7.921319,70.6945
21.544346900318832,5539356.0,-8.291899,70.685
46.41588833612777,3577791.0,-26.92777,70.6741
100.0,433980.7,-172.1363,70.6738
215.44346900318823,314790.1,-13.1157,70.677
464.15888336127773,460081.2,-74.21692,70.6791
1000.0,241779.4,-45.0468,70.6756
2154.4346900318824,286619.0,-75.59932,70.6805
4641.588833612777,90433.65,-83.9565,70.6655
10000.0,57241.34,-89.7224,70.6716
