Frequency,Impedance,Phase Angle,Temperature (Dry Bath)
10.0,1663272.0,-19.70758,66.5597
21.5,1503907.0,-17.64163,66.5322
46.4,1339339.0,-16.02499,66.5217
100.0,1048951.0,-0.9485121,66.5497
215.4,678293.9,-151.1637,66.5528
464.2,843346.5,-31.23396,66.5563
1000.0,648321.1,-47.96251,66.5395
2154.4,452842.9,-63.21073,66.5554
4641.6,241671.5,-79.39676,66.5395
10000.0,110580.8,-79.55118,66.5493
