Frequency,Impedance,Phase Angle,Temperature (Dry Bath)
10.0,24992820.0,-4.336669,67.963
21.5,30940370.0,-34.34254,67.9736
46.4,23088200.0,-41.65306,67.9584
100.0,12419840.0,-72.61397,67.9648
215.4,4224596.0,-2.878817,67.9557
464.2,2366421.0,-90.57679,67.9579
1000.0,1289120.0,-86.16911,67.9594
2154.4,539201.0,-85.30058,67.9354
4641.6,304103.3,-92.63911,67.9551
10000.0,139780.3,-91.41392,67.9642
