Frequency,Impedance,Phase Angle,Temperature (Dry Bath)
10.0,21021540.0,-10.71275,67.9686
21.5,29214250.0,-18.24509,67.9686
46.4,36416830.0,-45.35353,67.9686
100.0,6350828.0,-43.22092,67.9686
215.4,5641717.0,-53.28349,67.9686
464.2,2235845.0,-69.76888,67.9686
1000.0,1513468.0,-84.23679,67.9686
2154.4,618753.3,-83.01164,67.9686
4641.6,279710.8,-86.67164,67.9686
10000.0,141014.2,-96.33552,67.9686
