Frequency,Impedance,Phase Angle,Temperature (Dry Bath)
10.0,36127160.0,-27.66489,68.1043
21.5,23152530.0,-14.36513,68.1024
46.4,41727780.0,-40.51778,68.0946
100.0,5527032.0,-56.92431,68.1029
215.4,6273902.0,-57.49744,68.0896
464.2,4092261.0,-75.35714,68.0999
1000.0,1271965.0,-87.07497,68.0848
2154.4,669248.8,-86.63351,68.08
4641.6,312597.3,-89.18575,68.08
10000.0,146209.9,-97.657,68.0882
