Frequency,Impedance,Phase Angle,Temperature (Dry Bath)
10.0,43762920.0,-28.38471,68.1066
21.5,24830460.0,-30.34575,68.1296
46.4,12947460.0,-47.25734,68.1289
100.0,10957700.0,-38.74785,68.1219
215.4,5817528.0,-64.34476,68.1356
464.2,2856248.0,-75.82566,68.1269
1000.0,1326758.0,-78.37755,68.1122
2154.4,587994.7,-85.59241,68.1234
4641.6,287632.2,-90.85292,68.1291
10000.0,141412.1,-97.69424,68.1288
