Frequency,Impedance,Phase Angle,Temperature (Dry Bath)
10.0,22171650.0,-25.60163,68.0477
21.5,47901610.0,-25.93721,68.0452
46.4,23020060.0,-45.00693,68.0639
100.0,4901055.0,-18.37029,68.0481
215.4,8183358.0,-100.7562,68.0457
464.2,2811221.0,-82.24901,68.0441
1000.0,1563203.0,-82.7319,68.0525
2154.4,673882.3,-85.20766,68.0637
4641.6,335213.7,-97.78024,68.0439
10000.0,163520.6,-92.01366,68.0439
