Frequency,Impedance,Phase Angle,Temperature (Dry Bath)
10.0,19719730.0,-15.99219,68.2467
21.5,22942400.0,-22.3458,68.2454
46.4,18362120.0,-50.38259,68.2329
100.0,12345460.0,-31.01079,68.2473
215.4,5220845.0,-76.41773,68.2431
464.2,2394827.0,-71.6875,68.2472
1000.0,1231183.0,-82.63156,68.2753
2154.4,671641.3,-83.22965,68.2547
4641.6,287864.6,-94.16554,68.2536
10000.0,146374.6,-98.78537,68.2695
