Frequency,Impedance,Phase Angle,Temperature (Dry Bath)
10.0,1486971.0,-17.64452,67.2733
21.5,1324874.0,-16.06736,67.2751
46.4,1222319.0,-17.6628,67.2768
100.0,1009579.0,-27.48192,67.2654
215.4,13865340.0,-67.05445,67.2583
464.2,902501.2,-32.31162,67.2591
1000.0,603042.8,-49.67786,67.2639
2154.4,444080.8,-63.65851,67.2742
4641.6,236726.2,-75.48286,67.2592
10000.0,112957.9,-78.43749,67.2586
