Frequency,Impedance,Phase Angle,Temperature (Dry Bath)
10.0,29288550.0,-8.01921,67.9722
21.5,36813360.0,-47.92007,67.9828
46.4,32492720.0,-56.85523,67.9597
100.0,5535660.0,-21.66719,67.9668
215.4,3315338.0,-94.09897,67.9775
464.2,2618331.0,-86.54585,67.9763
1000.0,1274625.0,-91.04077,67.9706
2154.4,605941.0,-82.49287,67.9658
4641.6,312290.1,-90.25587,67.9641
10000.0,131748.4,-94.22721,67.9525
