Frequency,Impedance,Phase Angle,Temperature (Dry Bath)
10.0,1245369.0,-7.734057,71.4399
21.544346900318832,1058876.0,-13.31652,71.4404
46.41588833612777,1026739.0,-7.590869,71.43
100.0,625753.0,-80.93212,71.4418
215.44346900318823,243395.7,-43.60226,71.4388
464.15888336127773,520254.5,8.839677,71.4411
1000.0,179721.4,-130.3173,71.4369
2154.4346900318824,312211.6,-38.83845,71.4435
4641.588833612777,151576.8,-76.78746,71.4541
10000.0,98641.9,-55.1566,71.4561
