Frequency,Impedance,Phase Angle,Temperature (Dry Bath)
10.0,1479602.0,-17.58718,67.5074
21.5,1306081.0,-15.7169,67.4801
46.4,1187416.0,-12.28161,67.4946
100.0,1040138.0,-18.08347,67.5001
215.4,160770.4,-53.52544,67.481
464.2,792682.5,-27.69711,67.4932
1000.0,623815.4,-45.70004,67.4831
2154.4,431248.9,-63.16383,67.5145
4641.6,219546.1,-74.52321,67.4975
10000.0,110809.9,-79.24786,67.5027
