Frequency,Impedance,Phase Angle,Temperature (Dry Bath)
10.0,20708810.0,-19.08068,68.1378
21.5,16488000.0,-40.30845,68.1063
46.4,12991930.0,-58.39751,68.13
100.0,4319911.0,-38.28177,68.1213
215.4,4924441.0,-82.00711,68.1226
464.2,2139537.0,-81.51858,68.138
1000.0,1123112.0,-84.11234,68.1256
2154.4,562493.2,-87.33039,68.1171
4641.6,266291.6,-90.57868,68.1138
10000.0,134985.2,-94.78759,68.1442
