Frequency,Impedance,Phase Angle,Temperature (Dry Bath)
10.0,30475460.0,-21.47159,67.2739
21.5,34117800.0,-30.49705,67.2957
46.4,24950290.0,-59.15177,67.2901
100.0,2505663.0,-51.32521,67.2986
215.4,159862.9,-94.67013,67.295
464.2,2050348.0,-106.6902,67.2876
1000.0,1257840.0,-80.03894,67.2856
2154.4,560015.3,-86.42229,67.294
4641.6,249698.9,-84.66742,67.291
10000.0,126076.3,-85.27601,67.2943
