Frequency,Impedance,Phase Angle,Temperature (Dry Bath)
10.0,1438407.0,-14.76979,67.9099
21.5,1243738.0,-13.90118,67.906
46.4,1105916.0,-13.53167,67.8839
100.0,918266.9,-11.12762,67.8932
215.4,924708.4,-20.15964,67.8986
464.2,903620.6,-20.83984,67.9092
1000.0,742470.7,-33.58565,67.9292
2154.4,464548.3,-61.34371,67.9055
4641.6,259270.3,-77.37468,67.909
10000.0,131005.8,-81.45051,67.9015
