Frequency,Impedance,Phase Angle,Temperature (Dry Bath)
10.0,5262705.0,15.36873,71.4271
21.544346900318832,4969379.0,-8.341447,71.4223
46.41588833612777,8739489.0,8.942252,71.3908
100.0,252801.2,-0.886404,71.4086
215.44346900318823,1876588.0,-134.5003,71.4004
464.15888336127773,2234698.0,1.534749,71.3894
1000.0,344258.5,-70.15106,71.4046
2154.4346900318824,217815.3,-83.2501,71.3953
4641.588833612777,125177.4,-78.15608,71.4081
10000.0,64019.28,-87.93607,71.3996
