Frequency,Impedance,Phase Angle,Temperature (Dry Bath)
10.0,1517581.0,-18.12344,67.4228
21.5,1353232.0,-16.45692,67.4214
46.4,1233479.0,-14.66669,67.4015
100.0,1009382.0,-9.714127,67.4011
215.4,835698.5,-17.00699,67.3961
464.2,844278.9,-30.63777,67.3912
1000.0,635160.9,-35.51977,67.391
2154.4,457249.7,-62.71477,67.3944
4641.6,218334.3,-75.00824,67.3822
10000.0,109026.2,-79.95752,67.3821
