Frequency,Impedance,Phase Angle,Temperature (Dry Bath)
10.0,22894930.0,-9.227971,68.0275
21.5,20590480.0,-26.88551,68.0188
46.4,25160610.0,-48.49016,68.028
100.0,5838764.0,-49.55467,68.0109
215.4,7530262.0,-65.08756,68.0065
464.2,2460544.0,-77.86053,68.0089
1000.0,1336272.0,-80.36232,68.0295
2154.4,695246.0,-93.70268,68.0132
4641.6,304457.0,-94.06098,68.0125
10000.0,157969.8,-95.97749,68.0213
