Frequency,Impedance,Phase Angle,Temperature (Dry Bath)
10.0,71220.69,-36.78764,67.8767
21.5,53871.45,-33.63329,67.8709
46.4,41759.69,-29.59749,67.8695
100.0,33171.75,-24.78811,67.8633
215.4,28432.78,-21.27476,67.875
464.2,23644.25,-18.06318,67.8973
1000.0,21571.77,-14.77497,67.8932
2154.4,19421.79,-13.77179,67.8805
4641.6,18179.17,-14.14181,67.89
10000.0,16691.22,-17.86695,67.8797
