Frequency,Impedance,Phase Angle,Temperature (Dry Bath)
10.0,28379600.0,-15.88822,68.0413
21.5,21716460.0,-28.74818,68.0497
46.4,30555730.0,-57.55309,68.0212
100.0,13299210.0,-30.00341,68.0377
215.4,5215070.0,-77.96194,68.0446
464.2,3208756.0,-85.75578,68.0312
1000.0,1113362.0,-91.8026,68.0339
2154.4,588995.3,-86.48532,68.0568
4641.6,283848.2,-88.7865,68.0398
10000.0,133746.6,-93.56675,68.0554
