Frequency,Impedance,Phase Angle,Temperature (Dry Bath)
10.0,26753640.0,-28.72717,67.6947
21.5,41190580.0,-37.68164,67.6892
46.4,34578190.0,-50.87851,67.6928
100.0,11199460.0,-72.32926,67.6723
215.4,3166200.0,-59.61271,67.7037
464.2,2999975.0,-74.77468,67.6883
1000.0,1227192.0,-87.69773,67.6767
2154.4,684896.9,-85.21562,67.6986
4641.6,294371.8,-90.73353,67.7018
10000.0,137924.6,-99.83768,67.6966
