Frequency,Impedance,Phase Angle,Temperature (Dry Bath)
10.0,6829678.0,26.4077,71.4244
21.544346900318832,3646155.0,-3.640381,71.4151
46.41588833612777,7982816.0,-31.92999,71.4163
100.0,761642.2,-38.96032,71.4012
215.44346900318823,1489479.0,-170.5682,71.4263
464.15888336127773,1495091.0,-24.59827,71.4048
1000.0,749807.4,-58.96547,71.3963
2154.4346900318824,406467.9,-80.99191,71.3978
4641.588833612777,269571.9,-55.75314,71.4008
10000.0,136331.4,-81.03769,71.4122
