Frequency,Impedance,Phase Angle,Temperature (Dry Bath)
10.0,4320751.0,-2.986163,71.5002
21.544346900318832,4902234.0,-7.71246,71.4781
46.41588833612777,5011363.0,5.120518,71.4906
100.0,784821.6,-43.25035,71.4988
215.44346900318823,2947699.0,-66.43944,71.4779
464.15888336127773,1832631.0,4.10755,71.4975
1000.0,690317.6,-31.32044,71.4832
2154.4346900318824,551644.7,-72.71432,71.4908
4641.588833612777,197893.5,-81.4737,71.4954
10000.0,151408.7,-87.35506,71.4915
