Frequency,Impedance,Phase Angle,Temperature (Dry Bath)
10.0,36343180.0,-24.18256,68.1532
21.5,14708170.0,-21.24874,68.1683
46.4,12102660.0,-38.38909,68.1788
100.0,9478058.0,-26.62583,68.1545
215.4,8514790.0,-58.92,68.1636
464.2,2965245.0,-79.11495,68.158
1000.0,1507610.0,-90.66519,68.1537
2154.4,702462.0,-97.4092,68.1497
4641.6,334359.7,-87.88402,68.1414
10000.0,159749.9,-97.05684,68.1523
