Frequency,Impedance,Phase Angle,Temperature (Dry Bath)
10.0,26760220.0,-25.03828,67.3083
21.5,22383380.0,-46.31658,67.3071
46.4,15592000.0,-61.86387,67.3267
100.0,2155700.0,-13.2482,67.2945
215.4,8330308.0,157.7442,67.311
464.2,4953375.0,-93.21414,67.3113
1000.0,1371904.0,-90.55553,67.2937
2154.4,539379.0,-82.9086,67.3231
4641.6,250549.8,-86.63124,67.3147
10000.0,125558.7,-84.0399,67.3098
