Frequency,Impedance,Phase Angle,Temperature (Dry Bath)
10.0,763458.4,-4.226721,70.9184
21.544346900318832,735329.3,-0.3783277,70.9089
46.41588833612777,766971.6,-2.810102,70.9277
100.0,543823.9,-23.3242,70.9204
215.44346900318823,271857.1,15.69695,70.9161
464.15888336127773,262559.9,-37.37756,70.9068
1000.0,832035.7,4.543836,70.9178
2154.4346900318824,225277.8,-55.78447,70.9275
4641.588833612777,137688.8,-82.31177,70.9068
10000.0,62876.61,-84.78068,70.901
