Frequency,Impedance,Phase Angle,Temperature (Dry Bath)
10.0,1424818.0,-14.66362,68.1597
21.5,1324478.0,-13.8363,68.1622
46.4,1131359.0,-12.85802,68.1526
100.0,914378.6,-11.14264,68.1764
215.4,958529.5,-20.92336,68.1729
464.2,801589.6,-28.30447,68.1608
1000.0,748017.0,-38.9508,68.159
2154.4,495694.2,-53.72066,68.1559
4641.6,260231.7,-76.21211,68.1379
10000.0,138330.7,-88.52209,68.1389
