Frequency,Impedance,Phase Angle,Temperature (Dry Bath)
10.0,114501.3,-3.176889,67.1343
21.5,112159.0,-2.520813,67.142
46.4,110527.4,-2.551503,67.1277
100.0,109320.2,-3.972818,67.1231
215.4,107948.7,-2.343154,67.1484
464.2,107267.7,-6.243055,67.1259
1000.0,102018.1,-9.102687,67.1487
2154.4,97923.04,-14.17127,67.1496
4641.6,89959.15,-24.65446,67.1537
10000.0,69201.27,-42.08464,67.1254
