Frequency,Impedance,Phase Angle,Temperature (Dry Bath)
10.0,1576727.0,-15.35919,68.0848
21.5,1442342.0,-13.14423,68.0848
46.4,1250636.0,-12.98415,68.0848
100.0,1080776.0,-18.35709,68.0848
215.4,1130106.0,-21.66831,68.0848
464.2,853926.2,-23.92905,68.0848
1000.0,776632.8,-38.69177,68.0848
2154.4,496562.6,-61.24184,68.0848
4641.6,281994.2,-78.04217,68.0848
10000.0,143459.6,-90.11363,68.0848
