Frequency,Impedance,Phase Angle,Temperature (Dry Bath)
10.0,65115.0,-14.3052,72.2192
21.544346900318832,58448.81,-12.70365,72.233
46.41588833612777,52713.3,-11.45992,72.2297
100.0,47482.64,-4.947969,72.2171
215.44346900318823,46046.8,-11.31377,72.2362
464.15888336127773,41735.56,-9.640642,72.234
1000.0,41794.11,-9.98149,72.2374
2154.4346900318824,39561.26,-9.261695,72.2267
4641.588833612777,32216.78,-11.30635,72.22
10000.0,32807.27,-15.27454,72.2295
