Frequency,Impedance,Phase Angle,Temperature (Dry Bath)
10.0,24243050.0,-26.53244,67.9396
21.5,24432770.0,-36.83712,67.9295
46.4,21726240.0,-52.00177,67.9363
100.0,4249473.0,-56.32679,67.9471
215.4,7075532.0,-80.84498,67.9276
464.2,2511541.0,-80.86289,67.9419
1000.0,1312152.0,-82.27924,67.943
2154.4,600629.9,-86.83127,67.9507
4641.6,282434.3,-89.26113,67.9399
10000.0,133809.8,-93.21909,67.9536
