Frequency,Impedance,Phase Angle,Temperature (Dry Bath)
10.0,22305050.0,-14.01363,67.8802
21.5,26769510.0,-8.240191,67.8795
46.4,29842890.0,-44.48078,67.8807
100.0,7022549.0,-30.60653,67.9061
215.4,11961430.0,-72.46511,67.9132
464.2,2563491.0,-73.98059,67.9148
1000.0,1412677.0,-90.05936,67.8987
2154.4,756152.4,-87.07041,67.9059
4641.6,302626.9,-94.21418,67.93
10000.0,158775.4,-97.21989,67.9015
