Frequency,Impedance,Phase Angle,Temperature (Dry Bath)
10.0,6292115.0,-9.988303,65.6538
21.544346900318832,3416544.0,2.807616,65.6398
46.41588833612777,4780784.0,-35.67171,65.6374
100.0,1057285.0,-119.5876,65.6338
215.44346900318823,288505.6,-42.58613,65.6268
464.15888336127773,524341.4,-3.873025,65.6392
1000.0,604550.6,-48.98666,65.6423
2154.4346900318824,511234.0,-82.60159,65.6414
4641.588833612777,123766.4,-79.59845,65.6306
10000.0,75306.31,-79.25932,65.6381
