Frequency,Impedance,Phase Angle,Temperature (Dry Bath)
10.0,43332430.0,1.428281,67.0449
21.5,25089790.0,-26.92542,67.0399
46.4,19705330.0,-51.28478,67.0487
100.0,3666281.0,-92.5427,67.0484
215.4,3317985.0,-79.70569,67.0636
464.2,2674449.0,-91.05025,67.0423
1000.0,1295919.0,-88.79786,67.0413
2154.4,564560.8,-85.35683,67.0508
4641.6,248333.6,-86.21085,67.0521
10000.0,122864.7,-85.89571,67.038
