Frequency,Impedance,Phase Angle,Temperature (Dry Bath)
10.0,20371660.0,-13.46496,67.1929
21.5,22982170.0,-38.0576,67.1978
46.4,18074410.0,-53.61925,67.2049
100.0,3804245.0,7.982502,67.1855
215.4,182219.4,-160.0946,67.19
464.2,2766774.0,-87.84744,67.1978
1000.0,1244074.0,-84.80709,67.1955
2154.4,588009.3,-87.48593,67.2089
4641.6,250168.1,-84.33304,67.1929
10000.0,123688.5,-85.28887,67.1923
