Frequency,Impedance,Phase Angle,Temperature (Dry Bath)
10.0,6541954.0,19.60678,65.7813
21.544346900318832,3260864.0,-6.63456,65.7801
46.41588833612777,3778564.0,-39.6871,65.7728
100.0,709622.7,42.28708,65.7862
215.44346900318823,24357.8,-28.06743,65.7716
464.15888336127773,423822.3,-93.7029,65.7729
1000.0,471628.0,-90.78372,65.7491
2154.4346900318824,235441.3,-89.86538,65.7671
4641.588833612777,173715.8,-83.30692,65.7517
10000.0,68207.35,-94.66665,65.7484
