Frequency,Impedance,Phase Angle,Temperature (Dry Bath)
10.0,31293560.0,1.272793,68.2042
21.5,23874840.0,-37.5602,68.2042
46.4,26225430.0,-53.54657,68.2042
100.0,6852019.0,-43.34864,68.2042
215.4,7523819.0,-61.9598,68.2042
464.2,2363713.0,-76.60418,68.2042
1000.0,1237424.0,-81.24568,68.2042
2154.4,607315.4,-80.89948,68.2042
4641.6,283462.0,-90.31464,68.2042
10000.0,128993.2,-100.4857,68.2042
