Frequency,Impedance,Phase Angle,Temperature (Dry Bath)
10.0,127232.6,-17.8581,68.0558
21.5,112171.6,-15.48022,68.0588
46.4,100938.2,-13.93758,68.0525
100.0,87703.99,-13.6117,68.0394
215.4,84209.78,-11.11887,68.0533
464.2,77912.67,-12.49863,68.0583
1000.0,71721.59,-12.03829,68.0542
2154.4,67282.66,-15.78461,68.0451
4641.6,64290.48,-24.20418,68.0606
10000.0,52367.14,-35.21064,68.0482
