Frequency,Impedance,Phase Angle,Temperature (Dry Bath)
10.0,1662649.0,-20.32955,67.311
21.5,1471423.0,-17.69357,67.3017
46.4,1309205.0,-15.89613,67.2903
100.0,1065608.0,-24.22068,67.3129
215.4,908481.6,-39.36975,67.3001
464.2,1047183.0,-35.15872,67.3212
1000.0,737153.0,-42.17753,67.3185
2154.4,477552.9,-58.11975,67.3063
4641.6,259762.4,-72.97352,67.3049
10000.0,127043.2,-79.63204,67.3059
