Frequency,Impedance,Phase Angle,Temperature (Dry Bath)
10.0,55494.9,-18.6592,70.9542
21.544346900318832,48360.17,-16.88391,70.9685
46.41588833612777,42377.39,-15.76281,70.9731
100.0,36965.07,-16.02782,70.9659
215.44346900318823,34764.22,-13.7074,70.9511
464.15888336127773,30297.16,-12.80612,70.9734
1000.0,29074.02,-12.75754,70.9856
2154.4346900318824,24180.38,-13.74628,70.9673
4641.588833612777,23080.21,-19.61165,70.9692
10000.0,22070.95,-25.32071,70.9795
