Frequency,Impedance,Phase Angle,Temperature (Dry Bath)
10.0,22658.34,-19.00155,71.5567
21.544346900318832,19552.89,-18.00744,71.55
46.41588833612777,16911.69,-17.6086,71.5524
100.0,14652.03,-16.81836,71.5512
215.44346900318823,12917.02,-15.69613,71.5502
464.15888336127773,11424.35,-15.30045,71.5517
1000.0,10027.99,-12.85206,71.5606
2154.4346900318824,9082.908,-11.36237,71.5478
4641.588833612777,8515.403,-10.87877,71.5496
10000.0,7764.255,-11.1131,71.5781
