Frequency,Impedance,Phase Angle,Temperature (Dry Bath)
10.0,21137770.0,-20.26464,67.8685
21.5,21436250.0,-29.88659,67.8579
46.4,29936440.0,-47.34692,67.8828
100.0,28839470.0,-36.25106,67.8838
215.4,7898226.0,-108.4981,67.8792
464.2,3163584.0,-81.80864,67.8845
1000.0,1299521.0,-83.00873,67.8768
2154.4,550033.6,-85.85934,67.8678
4641.6,310424.6,-92.44968,67.8667
10000.0,137598.3,-92.14646,67.877
