Frequency,Impedance,Phase Angle,Temperature (Dry Bath)
10.0,25604130.0,-11.16117,67.8801
21.5,41104280.0,-38.94052,67.8709
46.4,34938360.0,-40.19552,67.8648
100.0,4496345.0,5.349664,67.8785
215.4,4410572.0,-58.85589,67.876
464.2,2834303.0,-77.93194,67.8709
1000.0,1356291.0,-83.44103,67.8642
2154.4,709727.7,-80.19416,67.8909
4641.6,322290.0,-89.5972,67.8716
10000.0,157341.2,-95.59614,67.8785
