Frequency,Impedance,Phase Angle,Temperature (Dry Bath)
10.0,59551000.0,-19.40719,67.4264
21.5,31814820.0,-26.46074,67.427
46.4,18321290.0,-41.9888,67.4414
100.0,7178780.0,-49.98108,67.4325
215.4,2470364.0,-100.6445,67.4374
464.2,2888400.0,-80.75354,67.4158
1000.0,1198158.0,-89.34783,67.4396
2154.4,560931.0,-89.31562,67.4315
4641.6,253314.0,-86.36983,67.4345
10000.0,125134.3,-87.86677,67.4253
