Frequency,Impedance,Phase Angle,Temperature (Dry Bath)
10.0,34287920.0,-0.6984358,67.3981
21.5,26754320.0,-30.41654,67.4067
46.4,21096470.0,-52.87934,67.4077
100.0,3426138.0,-80.49083,67.4174
215.4,4019925.0,-51.70577,67.4123
464.2,3090498.0,-85.49983,67.4091
1000.0,1002246.0,-71.44204,67.4086
2154.4,604304.2,-86.71664,67.4138
4641.6,269985.2,-86.53359,67.4146
10000.0,131225.0,-86.78489,67.422
