Frequency,Impedance,Phase Angle,Temperature (Dry Bath)
10.0,48917370.0,-7.03835,67.259
21.5,30381220.0,-43.5421,67.2812
46.4,18534930.0,-52.41918,67.2428
100.0,11570620.0,-77.42925,67.2553
215.4,2577761.0,-94.7703,67.2792
464.2,3647707.0,-77.54586,67.279
1000.0,2103276.0,-66.88513,67.2862
2154.4,608828.8,-91.07622,67.2804
4641.6,269114.5,-81.08975,67.279
10000.0,135811.1,-86.82273,67.2578
