Frequency,Impedance,Phase Angle,Temperature (Dry Bath)
10.0,113421.1,-3.089911,67.1826
21.5,111311.8,-2.665263,67.1823
46.4,109657.8,-2.569363,67.1675
100.0,107129.0,-3.121098,67.18
215.4,109375.5,-2.464207,67.1853
464.2,105781.9,-5.209174,67.1905
1000.0,100660.3,-8.555863,67.181
2154.4,96684.03,-14.52028,67.1824
4641.6,87822.65,-24.58808,67.1947
10000.0,69192.39,-41.03237,67.1806
