Frequency,Impedance,Phase Angle,Temperature (Dry Bath)
10.0,4812965.0,4.797959,71.1288
21.544346900318832,4631448.0,-9.749725,71.1297
46.41588833612777,5617431.0,-4.285279,71.1017
100.0,467675.1,148.6825,71.106
215.44346900318823,2595503.0,-95.81916,71.0907
464.15888336127773,433252.5,-10.22804,71.1126
1000.0,439237.5,-166.9284,71.1048
2154.4346900318824,665089.4,-131.4536,71.1155
4641.588833612777,370864.4,-158.7916,71.0918
10000.0,345340.5,-145.8055,71.1069
