Frequency,Impedance,Phase Angle,Temperature (Dry Bath)
10.0,49375220.0,-38.43129,67.7285
21.5,22503540.0,-19.26786,67.7114
46.4,16373130.0,-48.66084,67.7145
100.0,6115659.0,-45.52175,67.7156
215.4,5520834.0,-112.8336,67.7178
464.2,2785251.0,-90.76258,67.7097
1000.0,1288040.0,-82.66629,67.7181
2154.4,638895.1,-96.72724,67.7043
4641.6,299760.5,-94.15294,67.7141
10000.0,136162.1,-98.12968,67.7071
