Frequency,Impedance,Phase Angle,Temperature (Dry Bath)
10.0,30135270.0,-22.58655,68.0807
21.5,28117270.0,-23.11578,68.1065
46.4,37731680.0,-40.1056,68.0853
100.0,4175415.0,-58.01904,68.0928
215.4,3951070.0,-61.95762,68.1058
464.2,3133923.0,-88.90538,68.0907
1000.0,1348728.0,-85.6476,68.1041
2154.4,596321.2,-90.20701,68.089
4641.6,308338.7,-95.92976,68.1114
10000.0,149056.1,-98.4967,68.0961
