Frequency,Impedance,Phase Angle,Temperature (Dry Bath)
10.0,23712520.0,-15.84311,68.1421
21.5,14112800.0,-39.87048,68.1421
46.4,12017940.0,-48.68529,68.1421
100.0,6713044.0,-57.39199,68.1421
215.4,4268339.0,-79.25529,68.1421
464.2,2347583.0,-89.49716,68.1421
1000.0,1255003.0,-73.76806,68.1421
2154.4,625435.0,-86.07192,68.1421
4641.6,280200.8,-88.21101,68.1421
10000.0,131055.1,-96.39334,68.1421
