Frequency,Impedance,Phase Angle,Temperature (Dry Bath)
10.0,233466.5,-22.67116,67.4103
21.5,197208.9,-20.39069,67.416
46.4,170574.1,-18.02641,67.421
100.0,146179.7,-15.85569,67.4179
215.4,131755.1,-14.04814,67.4194
464.2,122982.2,-15.1539,67.4325
1000.0,110373.9,-16.95626,67.4396
2154.4,99419.82,-22.81971,67.4274
4641.6,80997.15,-29.32387,67.43
10000.0,61326.05,-42.04125,67.4288
