Frequency,Impedance,Phase Angle,Temperature (Dry Bath)
10.0,150345.1,-5.015321,67.8671
21.5,145666.5,-4.063454,67.8548
46.4,142378.0,-3.754385,67.8589
100.0,136007.7,-3.170227,67.8471
215.4,133125.8,-5.019722,67.8671
464.2,132999.8,-7.279282,67.8556
1000.0,126006.9,-9.308662,67.8497
2154.4,123791.4,-15.88341,67.8628
4641.6,104485.4,-27.58355,67.8586
10000.0,81794.42,-49.89918,67.8601
