Frequency,Impedance,Phase Angle,Temperature (Dry Bath)
10.0,44453670.0,-23.25896,67.2285
21.5,24536990.0,-17.10457,67.1853
46.4,18105210.0,-51.3695,67.2034
100.0,4846848.0,-71.77934,67.2
215.4,2685446.0,-41.75667,67.1991
464.2,1900195.0,-78.27163,67.1864
1000.0,1178068.0,-91.39316,67.1864
2154.4,578291.2,-80.7471,67.168
4641.6,260242.8,-85.62522,67.174
10000.0,126848.3,-85.74708,67.1577
