Frequency,Impedance,Phase Angle,Temperature (Dry Bath)
10.0,215011.6,-22.9436,67.463
21.5,180281.7,-20.00991,67.4527
46.4,156788.4,-17.5905,67.4553
100.0,141214.1,-15.40196,67.452
215.4,118796.4,-43.51142,67.449
464.2,114074.4,-12.98662,67.4514
1000.0,104480.6,-16.15954,67.4445
2154.4,95589.0,-19.77754,67.4574
4641.6,80259.69,-28.80703,67.4633
10000.0,61862.97,-40.52702,67.4468
