Frequency,Impedance,Phase Angle,Temperature (Dry Bath)
10.0,128304.9,-3.835013,67.4119
21.5,124633.8,-3.20298,67.3925
46.4,122007.2,-3.576238,67.407
100.0,117087.1,-3.768409,67.4079
215.4,118976.6,-4.368161,67.4113
464.2,116503.6,-6.494518,67.3968
1000.0,111824.0,-9.955901,67.4052
2154.4,102815.9,-15.77919,67.4298
4641.6,90565.34,-27.29253,67.4285
10000.0,71694.59,-42.03687,67.4296
