Frequency,Impedance,Phase Angle,Temperature (Dry Bath)
10.0,1402175.0,-14.56146,67.9045
21.5,1235357.0,-13.4326,67.9122
46.4,1091689.0,-13.00745,67.9244
100.0,939923.0,-17.83241,67.9101
215.4,914765.7,-20.02046,67.9074
464.2,864655.2,-22.22825,67.923
1000.0,683485.0,-41.09889,67.9252
2154.4,499760.3,-53.46001,67.8979
4641.6,269733.8,-77.0687,67.9236
10000.0,128351.9,-84.86642,67.9136
