Frequency,Impedance,Phase Angle,Temperature (Dry Bath)
10.0,53355.85,-33.76269,67.1827
21.5,41176.18,-29.92733,67.1921
46.4,33201.74,-26.15003,67.1884
100.0,27694.96,-22.30638,67.1801
215.4,20277.97,-15.86615,67.1749
464.2,21316.2,-16.26379,67.186
1000.0,19092.8,-14.03861,67.1715
2154.4,17470.86,-12.88356,67.1697
4641.6,15981.29,-12.67828,67.1801
10000.0,14743.02,-14.70038,67.1829
