Frequency,Impedance,Phase Angle,Temperature (Dry Bath)
10.0,5250907.0,-25.17899,65.7113
21.544346900318832,5028887.0,-21.66256,65.693
46.41588833612777,2965574.0,-44.06457,65.701
100.0,3106851.0,80.90435,65.6919
215.44346900318823,40869.7,51.0403,65.6881
464.15888336127773,3239369.0,130.5781,65.6925
1000.0,384331.7,-75.15494,65.6933
2154.4346900318824,514827.0,-119.3114,65.6934
4641.588833612777,139361.1,-95.75616,65.6991
10000.0,69889.62,-85.10248,65.7065
