Frequency,Impedance,Phase Angle,Temperature (Dry Bath)
10.0,557170.6,-7.649749,71.4974
21.544346900318832,539271.7,-3.666396,71.4974
46.41588833612777,516146.6,-5.240837,71.4923
100.0,293422.0,0.3543278,71.4955
215.44346900318823,417202.1,-33.28816,71.5049
464.15888336127773,445571.8,-31.47547,71.4979
1000.0,441262.3,-36.25414,71.5012
2154.4346900318824,276001.9,-24.17593,71.5195
4641.588833612777,135256.8,-59.01241,71.5104
10000.0,81260.75,-74.61389,71.5041
