Frequency,Impedance,Phase Angle,Temperature (Dry Bath)
10.0,33108320.0,0.7543992,67.713
21.5,35826520.0,-39.71791,67.7266
46.4,28838040.0,-52.2744,67.7337
100.0,5249630.0,-26.53905,67.7333
215.4,5668762.0,-73.34217,67.7145
464.2,2237362.0,-78.33775,67.6993
1000.0,1139970.0,-86.96099,67.726
2154.4,537792.3,-82.58783,67.7259
4641.6,285694.0,-89.93032,67.7341
10000.0,133165.5,-93.16993,67.7262
