Frequency,Impedance,Phase Angle,Temperature (Dry Bath)
10.0,175594.4,-11.73149,71.4483
21.544346900318832,160201.8,-10.46623,71.4599
46.41588833612777,147203.9,-10.67078,71.4683
100.0,125874.6,-2.712416,71.4678
215.44346900318823,47149.98,176.9985,71.4557
464.15888336127773,110207.3,-11.07652,71.4473
1000.0,94079.66,-20.7695,71.4486
2154.4346900318824,89888.26,-20.51384,71.4468
4641.588833612777,73016.29,-47.78764,71.4332
10000.0,49495.56,-57.31961,71.4534
