Frequency,Impedance,Phase Angle,Temperature (Dry Bath)
10.0,171035.3,-12.20288,65.6872
21.544346900318832,156219.5,-11.08148,65.7062
46.41588833612777,143118.3,-10.72397,65.7071
100.0,103385.5,-10.23763,65.7108
215.44346900318823,5483.728,15.97648,65.7078
464.15888336127773,107699.7,-13.70598,65.7104
1000.0,127430.2,-15.57906,65.7077
2154.4346900318824,105712.0,-20.68252,65.685
4641.588833612777,82941.9,-38.23011,65.698
10000.0,54551.68,-55.58449,65.7154
