Frequency,Impedance,Phase Angle,Temperature (Dry Bath)
10.0,4189554.0,-4.80818,67.0354
21.5,3992073.0,-5.384312,67.0571
46.4,4134221.0,-10.60023,67.0612
100.0,2496240.0,-16.03049,67.0486
215.4,3517634.0,-72.5137,67.0357
464.2,1642381.0,-45.19942,67.0455
1000.0,1027732.0,-84.13856,67.0416
2154.4,527964.3,-76.77651,67.0423
4641.6,254759.0,-82.70782,67.0495
10000.0,126579.7,-85.77024,67.0507
