Frequency,Impedance,Phase Angle,Temperature (Dry Bath)
10.0,1523232.0,-14.09657,68.0527
21.5,1366750.0,-12.53734,68.0527
46.4,1230962.0,-13.18114,68.0527
100.0,1114698.0,-14.14579,68.0527
215.4,1255121.0,-20.9933,68.0527
464.2,947672.4,-26.33383,68.0527
1000.0,753394.6,-44.62573,68.0527
2154.4,544571.2,-59.33593,68.0527
4641.6,297488.5,-79.74488,68.0527
10000.0,147641.4,-86.25902,68.0527
