Frequency,Impedance,Phase Angle,Temperature (Dry Bath)
10.0,22172440.0,-18.08614,67.3324
21.5,24984720.0,-32.0631,67.3345
46.4,18582830.0,-48.56965,67.3155
100.0,5500280.0,-136.4988,67.3263
215.4,178409.4,-70.31415,67.3312
464.2,1746282.0,-83.58226,67.3267
1000.0,1085080.0,-85.14883,67.3084
2154.4,554981.9,-83.44052,67.3108
4641.6,250058.3,-84.8373,67.3074
10000.0,124624.3,-85.59667,67.3055
