Frequency,Impedance,Phase Angle,Temperature (Dry Bath)
10.0,2002855.0,-11.25029,68.1388
21.5,1896049.0,-11.85194,68.1279
46.4,1788012.0,-13.92399,68.1309
100.0,1360022.0,-10.26297,68.1372
215.4,1319721.0,-22.91417,68.1231
464.2,1029631.0,-28.00364,68.1343
1000.0,896075.5,-45.06808,68.1496
2154.4,539527.1,-63.76494,68.1344
4641.6,291275.4,-76.57196,68.1463
10000.0,137817.2,-94.63825,68.1508
