Frequency,Impedance,Phase Angle,Temperature (Dry Bath)
10.0,19816850.0,3.300624,68.067
21.5,15773060.0,-38.45159,68.0637
46.4,21420400.0,-38.75642,68.0729
100.0,5307965.0,-13.67389,68.0738
215.4,4618331.0,-73.36636,68.0629
464.2,3028633.0,-82.26499,68.0696
1000.0,1354785.0,-85.77404,68.07
2154.4,651177.0,-88.73747,68.0693
4641.6,323482.9,-94.84044,68.0789
10000.0,159259.2,-98.82157,68.0665
