Frequency,Impedance,Phase Angle,Temperature (Dry Bath)
10.0,6739581.0,-5.652124,67.1085
21.5,6974839.0,-6.785373,67.1109
46.4,5619756.0,-14.79214,67.1156
100.0,3223082.0,-59.15607,67.1216
215.4,458602.0,-94.8446,67.1022
464.2,3783026.0,-56.43364,67.107
1000.0,1228138.0,-75.31875,67.1024
2154.4,530515.2,-81.22497,67.1205
4641.6,260801.5,-82.90096,67.1187
10000.0,123457.0,-84.88881,67.121
