Frequency,Impedance,Phase Angle,Temperature (Dry Bath)
10.0,51812.36,-33.95044,67.2457
21.5,39581.36,-29.70115,67.2493
46.4,32133.73,-25.84683,67.2448
100.0,26913.89,-21.95329,67.2691
215.4,21879.62,-14.20166,67.2608
464.2,21088.78,-15.33644,67.269
1000.0,18857.76,-13.31467,67.2576
2154.4,17365.09,-12.07741,67.283
4641.6,15995.63,-11.92533,67.255
10000.0,14868.9,-13.80613,67.2768
