Frequency,Impedance,Phase Angle,Temperature (Dry Bath)
10.0,92833.73,-3.00713,67.0917
21.5,90964.1,-2.516005,67.0699
46.4,89375.5,-2.388202,67.0756
100.0,88701.05,-3.055776,67.0625
215.4,86993.28,-3.321472,67.0671
464.2,85966.64,-4.629902,67.0768
1000.0,82987.43,-6.866258,67.0753
2154.4,79462.86,-12.3487,67.0655
4641.6,74457.89,-21.67328,67.0623
10000.0,61471.68,-36.0006,67.0589
