Frequency,Impedance,Phase Angle,Temperature (Dry Bath)
10.0,4013084.0,5.654815,71.0708
21.544346900318832,7313129.0,-43.92124,71.0816
46.41588833612777,3700216.0,3.985613,71.0893
100.0,737981.0,-59.70324,71.0935
215.44346900318823,3988513.0,-101.3483,71.109
464.15888336127773,1885592.0,-116.9244,71.0916
1000.0,851523.0,-106.3178,71.0931
2154.4346900318824,283806.3,-82.89226,71.1021
4641.588833612777,289671.5,-112.8487,71.0996
10000.0,170362.4,-78.04073,71.1011
