Frequency,Impedance,Phase Angle,Temperature (Dry Bath)
10.0,1022009.0,-63.94628,70.9898
21.544346900318832,7541653.0,-27.83786,70.9675
46.41588833612777,5369036.0,-18.59372,70.9744
100.0,676030.4,44.0664,70.9783
215.44346900318823,832927.2,-108.4081,70.9766
464.15888336127773,1940012.0,-24.35619,70.9834
1000.0,641902.9,-49.65337,70.9664
2154.4346900318824,308594.8,-63.52834,70.9934
4641.588833612777,179995.6,-87.62824,70.9643
10000.0,63165.68,-81.68618,70.9582
