Frequency,Impedance,Phase Angle,Temperature (Dry Bath)
10.0,20415.82,-18.59019,71.5214
21.544346900318832,17657.94,-17.46747,71.5295
46.41588833612777,15371.41,-17.05503,71.5352
100.0,13422.58,-16.63578,71.5292
215.44346900318823,11790.63,-16.02254,71.525
464.15888336127773,10419.14,-14.37334,71.535
1000.0,9287.737,-12.82181,71.5375
2154.4346900318824,8377.392,-11.51999,71.5379
4641.588833612777,7648.954,-10.78305,71.5491
10000.0,7206.548,-10.23685,71.53
