Frequency,Impedance,Phase Angle,Temperature (Dry Bath)
10.0,25140270.0,-18.67248,68.0725
21.5,33664620.0,-21.88816,68.0841
46.4,25462390.0,-50.53022,68.0865
100.0,8200752.0,-50.67333,68.0754
215.4,4583909.0,-84.51883,68.0803
464.2,2507682.0,-69.95462,68.0921
1000.0,1198120.0,-86.12245,68.0811
2154.4,620533.6,-91.26414,68.0816
4641.6,259922.6,-90.55774,68.0778
10000.0,150515.0,-95.19142,68.0754
