Frequency,Impedance,Phase Angle,Temperature (Dry Bath)
10.0,107855.8,-14.05205,71.3813
21.544346900318832,95610.02,-12.64456,71.3937
46.41588833612777,87258.26,-11.37531,71.3903
100.0,107572.1,24.7297,71.3769
215.44346900318823,64539.35,-3.746266,71.3937
464.15888336127773,70774.1,-9.091661,71.3999
1000.0,66461.34,-12.51551,71.402
2154.4346900318824,55934.95,-18.42334,71.4081
4641.588833612777,53561.81,-28.09993,71.4028
10000.0,43525.81,-41.65425,71.3939
