Frequency,Impedance,Phase Angle,Temperature (Dry Bath)
10.0,1539984.0,-15.77298,67.7471
21.5,1356938.0,-14.36174,67.7682
46.4,1185624.0,-14.28142,67.8008
100.0,925332.6,-10.73959,67.7819
215.4,1056777.0,-15.00716,67.7723
464.2,1091256.0,-23.10917,67.7669
1000.0,747035.8,-41.18186,67.7787
2154.4,474692.3,-60.3099,67.7708
4641.6,252761.3,-75.82575,67.7755
10000.0,131766.8,-89.37669,67.7833
