Frequency,Impedance,Phase Angle,Temperature (Dry Bath)
10.0,175293.5,-13.7046,65.8467
21.544346900318832,161181.9,-11.24017,65.8603
46.41588833612777,147694.8,-11.78243,65.8497
100.0,259797.9,11.12532,65.8426
215.44346900318823,6598.586,-16.06708,65.8501
464.15888336127773,112380.4,-17.30841,65.8615
1000.0,88736.09,-18.40263,65.8417
2154.4346900318824,82961.23,-21.67435,65.8516
4641.588833612777,79567.92,-29.72306,65.8611
10000.0,51286.62,-54.64387,65.8611
