Frequency,Impedance,Phase Angle,Temperature (Dry Bath)
10.0,41786.38,-14.80416,71.4707
21.544346900318832,37886.17,-12.64223,71.4809
46.41588833612777,34655.01,-11.49414,71.4813
100.0,33297.08,-12.36002,71.4844
215.44346900318823,30748.6,-12.59236,71.4941
464.15888336127773,28381.17,-13.09403,71.4788
1000.0,26708.37,-11.40933,71.4807
2154.4346900318824,22794.4,-13.42755,71.4892
4641.588833612777,20209.74,-16.47113,71.4907
10000.0,20570.3,-23.71361,71.4773
