Frequency,Impedance,Phase Angle,Temperature (Dry Bath)
10.0,1577200.0,-19.92868,67.0119
21.5,1415577.0,-17.19297,66.9995
46.4,1259741.0,-16.08133,66.9804
100.0,1187086.0,-15.52206,66.9866
215.4,141779.3,-14.22045,67.0081
464.2,844748.6,-26.52431,66.9944
1000.0,681298.4,-49.63958,66.984
2154.4,419220.6,-65.45839,66.9753
4641.6,217326.3,-71.71969,66.9791
10000.0,113873.5,-80.23851,66.9677
