Frequency,Impedance,Phase Angle,Temperature (Dry Bath)
10.0,26768690.0,-33.24312,67.3381
21.5,21090360.0,-43.03947,67.3357
46.4,14558750.0,-61.65828,67.334
100.0,5518785.0,171.0961,67.325
215.4,131117.6,172.4795,67.341
464.2,2700700.0,-85.3037,67.3278
1000.0,883816.2,-81.33286,67.3342
2154.4,403874.9,-84.65774,67.3309
4641.6,205225.5,-79.09331,67.3206
10000.0,98636.78,-81.36893,67.3297
