Frequency,Impedance,Phase Angle,Temperature (Dry Bath)
10.0,134872.2,-3.892234,67.1724
21.5,132332.0,-3.472907,67.1824
46.4,130561.0,-3.234146,67.1843
100.0,126226.6,-4.631168,67.1771
215.4,224416.9,13.14758,67.1827
464.2,123005.7,-7.300306,67.156
1000.0,117037.9,-10.80817,67.1971
2154.4,110554.4,-16.1916,67.1504
4641.6,97013.19,-27.30256,67.1625
10000.0,73071.31,-43.30452,67.1609
