Frequency,Impedance,Phase Angle,Temperature (Dry Bath)
10.0,5627408.0,29.83448,70.6331
21.544346900318832,8372441.0,-33.35831,70.6321
46.41588833612777,4091775.0,-27.36466,70.6218
100.0,510859.5,25.63422,70.62
215.44346900318823,992814.8,153.3599,70.6398
464.15888336127773,1364905.0,-138.7639,70.6245
1000.0,286919.0,-56.50654,70.6288
2154.4346900318824,421765.4,-92.50477,70.6253
4641.588833612777,119805.9,-99.6883,70.6268
10000.0,62589.51,-85.83283,70.6267
