Frequency,Impedance,Phase Angle,Temperature (Dry Bath)
10.0,5719622.0,-14.30077,71.5598
21.544346900318832,4996161.0,-25.68357,71.5817
46.41588833612777,4869815.0,-2.419226,71.5752
100.0,1165453.0,10.98662,71.5647
215.44346900318823,918843.3,161.8404,71.5613
464.15888336127773,1043252.0,-2.016431,71.5761
1000.0,1551438.0,130.8989,71.5811
2154.4346900318824,392311.7,-119.8502,71.5745
4641.588833612777,251901.2,-86.00998,71.5585
10000.0,138257.2,-90.82626,71.5628
