Frequency,Impedance,Phase Angle,Temperature (Dry Bath)
10.0,5537859.0,19.88296,65.7249
21.544346900318832,4245453.0,-6.038028,65.7276
46.41588833612777,3252116.0,-16.36098,65.725
100.0,803455.3,-52.97904,65.7355
215.44346900318823,18207.63,92.97797,65.7375
464.15888336127773,565827.9,-73.6494,65.7245
1000.0,274762.3,-91.85627,65.7256
2154.4346900318824,234836.8,-77.51695,65.7429
4641.588833612777,138381.9,-66.0331,65.713
10000.0,70951.52,-85.80899,65.7339
