Frequency,Impedance,Phase Angle,Temperature (Dry Bath)
10.0,175309.2,-13.16888,71.2146
21.544346900318832,162872.2,-11.85284,71.2195
46.41588833612777,148582.4,-12.28833,71.2304
100.0,182795.5,2.590625,71.228
215.44346900318823,214224.7,-2.598504,71.2339
464.15888336127773,143135.4,-7.075564,71.2484
1000.0,113800.3,-8.825674,71.2327
2154.4346900318824,86333.68,-33.19026,71.232
4641.588833612777,56693.35,-47.51452,71.2287
10000.0,34723.12,-70.32022,71.2436
