Frequency,Impedance,Phase Angle,Temperature (Dry Bath)
10.0,31116670.0,-17.47421,67.8925
21.5,23163260.0,-21.43743,67.8971
46.4,26534790.0,-52.73146,67.896
100.0,5284583.0,-96.51438,67.8938
215.4,5761905.0,-68.38798,67.8961
464.2,2472859.0,-86.76799,67.8944
1000.0,1141564.0,-87.2435,67.896
2154.4,706069.7,-82.77272,67.9045
4641.6,275992.5,-94.07729,67.8939
10000.0,141487.1,-92.05278,67.9139
