Frequency,Impedance,Phase Angle,Temperature (Dry Bath)
10.0,4553332.0,21.40971,66.3613
21.544346900318832,3962494.0,-1.667982,66.3455
46.41588833612777,4258946.0,-30.72155,66.35
100.0,469877.5,45.22837,66.354
215.44346900318823,562253.7,77.62352,66.35
464.15888336127773,183053.6,-3.344505,66.3527
1000.0,339761.2,-14.01365,66.3453
2154.4346900318824,300802.4,-97.4827,66.349
4641.588833612777,112470.8,-73.41489,66.3579
10000.0,68869.43,-82.90521,66.3534
