Frequency,Impedance,Phase Angle,Temperature (Dry Bath)
10.0,26309450.0,-28.6035,67.0859
21.5,17027760.0,-31.40874,67.0809
46.4,13530070.0,-60.99922,67.0805
100.0,4867042.0,-105.5846,67.0749
215.4,11826710.0,-66.61521,67.0677
464.2,1776504.0,-73.93861,67.0771
1000.0,844231.8,-82.49218,67.0804
2154.4,429441.2,-80.91713,67.0934
4641.6,220476.0,-80.82339,67.0841
10000.0,110618.8,-79.29981,67.0762
