Frequency,Impedance,Phase Angle,Temperature (Dry Bath)
10.0,4260168.0,-5.726962,71.0407
21.544346900318832,3743842.0,-10.11053,71.061
46.41588833612777,5331246.0,-47.15523,71.0523
100.0,993738.6,97.51255,71.0695
215.44346900318823,3793412.0,128.4554,71.0468
464.15888336127773,1339763.0,164.7764,71.0509
1000.0,2694494.0,78.10818,71.059
2154.4346900318824,307120.7,-79.64496,71.0547
4641.588833612777,128469.4,-77.53709,71.0496
10000.0,65875.0,-87.34787,71.0553
