Frequency,Impedance,Phase Angle,Temperature (Dry Bath)
10.0,157386.3,-22.69052,67.083
21.5,134018.5,-19.8895,67.0795
46.4,117072.1,-17.29885,67.0987
100.0,103445.6,-14.82381,67.0942
215.4,99900.98,11.27203,67.0871
464.2,87672.27,-11.31383,67.0933
1000.0,78125.1,-14.3587,67.0919
2154.4,74431.96,-15.77113,67.0764
4641.6,67173.94,-21.99888,67.0736
10000.0,56477.24,-33.75865,67.0901
