Frequency,Impedance,Phase Angle,Temperature (Dry Bath)
10.0,3587042.0,19.03252,71.3113
21.544346900318832,3337287.0,12.06296,71.3016
46.41588833612777,7202533.0,-7.879337,71.3147
100.0,361634.6,-22.97755,71.3149
215.44346900318823,370047.0,20.63114,71.3287
464.15888336127773,700779.7,19.38394,71.3154
1000.0,925175.1,-111.6592,71.3249
2154.4346900318824,312189.9,-106.803,71.308
4641.588833612777,170751.9,-75.92361,71.3167
10000.0,63683.28,-91.11996,71.3104
