Frequency,Impedance,Phase Angle,Temperature (Dry Bath)
10.0,53040.32,-34.01637,67.4104
21.5,40605.89,-29.77049,67.4398
46.4,32922.83,-25.84461,67.4215
100.0,27504.26,-21.88558,67.4191
215.4,24120.86,-18.27067,67.4184
464.2,21474.17,-15.75396,67.4264
1000.0,19337.1,-13.43109,67.4341
2154.4,17755.9,-12.1166,67.4184
4641.6,16386.75,-12.25196,67.4258
10000.0,15192.47,-14.01029,67.4271
