Frequency,Impedance,Phase Angle,Temperature (Dry Bath)
10.0,6263175.0,-7.390057,66.508
21.544346900318832,7946222.0,-5.062616,66.5015
46.41588833612777,4309231.0,9.793752,66.4895
100.0,2021455.0,-111.32,66.5152
215.44346900318823,11517700.0,-136.5151,66.4935
464.15888336127773,3396271.0,81.88486,66.4778
1000.0,1198533.0,-19.13401,66.5156
2154.4346900318824,1635483.0,-17.94144,66.4888
4641.588833612777,1624621.0,56.92077,66.4968
10000.0,3897362.0,-174.1939,66.5108
