Frequency,Impedance,Phase Angle,Temperature (Dry Bath)
10.0,1700539.0,-27.5201,71.047
21.544346900318832,1696032.0,-30.18805,71.0496
46.41588833612777,1235309.0,-22.24248,71.0532
100.0,579359.3,-165.5233,71.034
215.44346900318823,606892.0,-46.78242,71.0295
464.15888336127773,440657.1,-23.82388,71.0433
1000.0,235924.4,-46.15999,71.0264
2154.4346900318824,354935.0,-48.26373,71.0313
4641.588833612777,131353.4,-85.46843,71.0405
10000.0,62904.85,-83.97279,71.0229
