Frequency,Impedance,Phase Angle,Temperature (Dry Bath)
10.0,1495371.0,19.49239,67.9804
21.5,3851096.0,10.52322,67.9743
46.4,13111400.0,-3.117007,67.9789
100.0,5767348.0,-42.28733,67.9883
215.4,6146435.0,-102.1848,67.9799
464.2,3165501.0,-89.32176,67.9752
1000.0,1323397.0,-85.6301,67.978
2154.4,558240.9,-88.24503,67.9749
4641.6,291366.7,-86.30765,67.9795
10000.0,129558.8,-93.28799,67.9741
