Frequency,Impedance,Phase Angle,Temperature (Dry Bath)
10.0,69555070.0,-15.37576,68.0427
21.5,46104950.0,-19.79034,68.0427
46.4,32779390.0,-49.78576,68.0489
100.0,5333575.0,-54.95185,68.0464
215.4,6576701.0,-59.60177,68.0608
464.2,2276414.0,-97.46153,68.0665
1000.0,1587849.0,-78.20246,68.0646
2154.4,624267.6,-86.30606,68.0372
4641.6,326285.0,-90.73684,68.0296
10000.0,153649.0,-100.9053,68.06
