Frequency,Impedance,Phase Angle,Temperature (Dry Bath)
10.0,135539.4,-3.817458,67.1175
21.5,133026.4,-3.437762,67.1134
46.4,129455.3,-3.375863,67.1159
100.0,127767.5,-1.849624,67.1355
215.4,104478.1,-28.93078,67.1267
464.2,119832.8,-6.393618,67.1322
1000.0,117152.7,-9.679975,67.105
2154.4,111110.0,-15.79744,67.128
4641.6,97236.22,-25.98443,67.1444
10000.0,74904.22,-43.30332,67.142
