Frequency,Impedance,Phase Angle,Temperature (Dry Bath)
10.0,17417940.0,-34.51083,67.9945
21.5,19280760.0,-44.7613,67.9903
46.4,19437820.0,-44.46031,67.9882
100.0,8510232.0,-102.5192,67.9919
215.4,3922300.0,-104.4685,68.0093
464.2,2441844.0,-87.8,67.9845
1000.0,1061624.0,-84.80035,68.0019
2154.4,567734.5,-82.57733,68.0024
4641.6,298127.2,-91.9645,68.0131
10000.0,146112.3,-95.35823,67.9965
