Frequency,Impedance,Phase Angle,Temperature (Dry Bath)
10.0,5017157.0,-12.15923,70.898
21.544346900318832,5083305.0,-26.41872,70.8899
46.41588833612777,4668461.0,-13.13017,70.8897
100.0,594213.4,-79.26771,70.8995
215.44346900318823,2013629.0,-130.954,70.9108
464.15888336127773,645152.6,-45.28473,70.8934
1000.0,284041.9,-118.4196,70.8818
2154.4346900318824,486183.8,-118.726,70.8973
4641.588833612777,154611.0,-61.98484,70.9032
10000.0,66355.54,-86.45747,70.8861
