Frequency,Impedance,Phase Angle,Temperature (Dry Bath)
10.0,116240.2,-3.025628,67.3456
21.5,114081.2,-2.593217,67.3401
46.4,112227.6,-2.524358,67.3469
100.0,109686.5,-2.599435,67.3489
215.4,109090.5,-5.358231,67.353
464.2,105831.0,-4.93576,67.3385
1000.0,102674.8,-8.759919,67.3306
2154.4,100299.9,-13.36508,67.3253
4641.6,88380.66,-26.7022,67.3404
10000.0,70509.08,-41.10017,67.3362
