Frequency,Impedance,Phase Angle,Temperature (Dry Bath)
10.0,24935820.0,-6.343651,67.1704
21.5,25526170.0,-32.26836,67.1834
46.4,17494270.0,-45.14649,67.1767
100.0,11560610.0,-75.66338,67.1745
215.4,224787.9,163.6348,67.1647
464.2,2808664.0,-79.01066,67.1682
1000.0,1113169.0,-83.78575,67.1701
2154.4,500356.6,-85.52368,67.1731
4641.6,256666.8,-88.24201,67.161
10000.0,121913.9,-88.03031,67.1605
