Frequency,Impedance,Phase Angle,Temperature (Dry Bath)
10.0,32020120.0,-10.14255,67.9971
21.5,24087010.0,-27.21505,67.9905
46.4,15655550.0,-46.8837,68.0075
100.0,5657237.0,-34.57024,67.9804
215.4,3869502.0,-81.71503,68.0062
464.2,2857343.0,-72.57865,67.9943
1000.0,1450048.0,-89.20748,68.0045
2154.4,622402.3,-87.56221,67.9964
4641.6,298843.9,-94.77538,67.9928
10000.0,138080.1,-91.65394,67.9965
