Frequency,Impedance,Phase Angle,Temperature (Dry Bath)
10.0,6583024.0,-9.709567,65.7498
21.544346900318832,7263270.0,-8.785831,65.7435
46.41588833612777,5005196.0,0.9093224,65.7408
100.0,388195.3,-77.02518,65.7407
215.44346900318823,164343.5,-179.2827,65.738
464.15888336127773,1340321.0,-131.5635,65.7263
1000.0,1243655.0,14.14292,65.7331
2154.4346900318824,172403.5,-93.35529,65.7265
4641.588833612777,123706.3,-87.79669,65.7263
10000.0,76351.47,-85.40459,65.7399
