Frequency,Impedance,Phase Angle,Temperature (Dry Bath)
10.0,114014.3,-3.146534,67.0606
21.5,111821.6,-2.697774,67.051
46.4,110006.2,-2.559802,67.0679
100.0,109693.0,-2.583957,67.054
215.4,108043.4,-4.669891,67.0593
464.2,106654.8,-5.44675,67.044
1000.0,102009.3,-8.376984,67.0432
2154.4,96148.77,-13.67921,67.0507
4641.6,88348.17,-25.3527,67.0598
10000.0,69285.28,-41.69794,67.059
