Frequency,Impedance,Phase Angle,Temperature (Dry Bath)
10.0,25458940.0,-22.55823,67.073
21.5,26221900.0,-36.09621,67.0776
46.4,17801980.0,-56.55086,67.0722
100.0,3108159.0,-40.6584,67.0713
215.4,5589413.0,106.7947,67.0739
464.2,3404824.0,-90.38968,67.0705
1000.0,1198607.0,-96.49573,67.0624
2154.4,523755.0,-85.14894,67.0612
4641.6,251694.9,-88.08249,67.0679
10000.0,123639.9,-86.87314,67.062
