Frequency,Impedance,Phase Angle,Temperature (Dry Bath)
10.0,134884.2,-13.68994,70.9441
21.544346900318832,122032.9,-12.9658,70.9495
46.41588833612777,109735.2,-12.13918,70.9538
100.0,90158.91,-8.797337,70.9549
215.44346900318823,93355.35,-9.500745,70.9497
464.15888336127773,78276.59,-13.36795,70.9466
1000.0,71776.14,-15.39495,70.9564
2154.4346900318824,64804.96,-16.34552,70.9512
4641.588833612777,61924.66,-32.41722,70.9478
10000.0,42375.99,-46.37119,70.9469
