Frequency,Impedance,Phase Angle,Temperature (Dry Bath)
10.0,117393.9,-3.114641,67.329
21.5,115048.4,-2.552037,67.3238
46.4,113368.4,-2.599007,67.3386
100.0,110590.9,-2.532162,67.3431
215.4,89818.73,33.02962,67.333
464.2,109170.5,-5.677466,67.3288
1000.0,104447.9,-7.956612,67.3421
2154.4,101142.3,-14.97597,67.3157
4641.6,89969.87,-24.74205,67.3434
10000.0,70683.88,-41.3223,67.3364
