Frequency,Impedance,Phase Angle,Temperature (Dry Bath)
10.0,16462970.0,-7.191583,67.0231
21.5,15541200.0,-14.70671,67.0235
46.4,12813830.0,-35.97668,67.021
100.0,8834244.0,-36.78365,67.0062
215.4,3397348.0,-31.22971,67.0174
464.2,4521324.0,-124.3676,67.0243
1000.0,1194189.0,-85.08614,67.0113
2154.4,554198.8,-87.68926,67.0135
4641.6,251018.4,-84.64276,67.0232
10000.0,125633.3,-85.64753,67.017
