Frequency,Impedance,Phase Angle,Temperature (Dry Bath)
10.0,192174.8,-23.42409,67.4745
21.5,161624.2,-20.21658,67.4869
46.4,140210.1,-17.67117,67.4761
100.0,124771.7,-16.56606,67.4717
215.4,85408.33,-18.23184,67.4707
464.2,104903.0,-12.75519,67.4923
1000.0,94863.88,-14.23424,67.4865
2154.4,85517.65,-19.01433,67.4773
4641.6,73275.2,-26.31063,67.4769
10000.0,57972.53,-38.03063,67.4994
