Frequency,Impedance,Phase Angle,Temperature (Dry Bath)
10.0,4892665.0,-12.48328,66.1732
21.544346900318832,4396046.0,-4.703483,66.1658
46.41588833612777,3937779.0,-12.02548,66.1612
100.0,3904457.0,-143.9287,66.1576
215.44346900318823,486941.2,174.8261,66.1615
464.15888336127773,401790.2,-134.3009,66.1715
1000.0,400861.1,-114.4371,66.1571
2154.4346900318824,257921.8,-75.66086,66.1547
4641.588833612777,142911.7,-96.33045,66.1722
10000.0,70146.53,-87.36254,66.1733
