Frequency,Impedance,Phase Angle,Temperature (Dry Bath)
10.0,4425266.0,1.824477,66.1839
21.544346900318832,3682442.0,-16.53431,66.2013
46.41588833612777,5545400.0,-30.6137,66.2199
100.0,600419.4,14.61907,66.214
215.44346900318823,249724.6,-47.84464,66.1899
464.15888336127773,934662.6,-108.4065,66.2229
1000.0,1491642.0,125.0988,66.1849
2154.4346900318824,370861.1,-78.62475,66.2154
4641.588833612777,111927.6,-79.00227,66.2288
10000.0,60416.83,-85.68562,66.2153
