Frequency,Impedance,Phase Angle,Temperature (Dry Bath)
10.0,19178260.0,-21.29038,68.1141
21.5,24603010.0,-32.97269,68.1141
46.4,28066510.0,-47.05701,68.1141
100.0,7642967.0,-31.86225,68.1141
215.4,5442849.0,-88.09402,68.1141
464.2,3378834.0,-75.95471,68.1141
1000.0,1436571.0,-90.85612,68.1141
2154.4,662606.5,-82.11349,68.1141
4641.6,297160.1,-89.97184,68.1141
10000.0,144000.1,-98.1145,68.1141
