Frequency,Impedance,Phase Angle,Temperature (Dry Bath)
10.0,133907.9,-3.757308,67.4894
21.5,131025.9,-3.53153,67.5
46.4,127743.0,-3.369474,67.502
100.0,124851.4,-4.590073,67.4924
215.4,88242.69,-20.49109,67.5005
464.2,119181.6,-5.412538,67.5006
1000.0,114564.3,-9.330089,67.4965
2154.4,108795.8,-16.6924,67.4881
4641.6,94965.2,-27.09428,67.5058
10000.0,73120.23,-43.40871,67.4998
