Frequency,Impedance,Phase Angle,Temperature (Dry Bath)
10.0,18194680.0,-20.56088,67.9962
21.5,17040440.0,-31.76771,67.9962
46.4,16394860.0,-35.61819,67.9962
100.0,4080499.0,-13.49437,67.9962
215.4,6847417.0,-76.75397,67.9962
464.2,4103104.0,-73.52156,67.9962
1000.0,1409249.0,-86.83017,67.9962
2154.4,652229.2,-86.71814,67.9962
4641.6,306961.7,-87.71757,67.9962
10000.0,150970.0,-100.2023,67.9962
