Frequency,Impedance,Phase Angle,Temperature (Dry Bath)
10.0,221635.0,-23.24817,67.2136
21.5,186737.7,-20.38123,67.215
46.4,161895.7,-17.67255,67.1892
100.0,144719.9,-15.13779,67.1963
215.4,128399.0,-13.92533,67.2039
464.2,120458.1,-15.0243,67.1931
1000.0,108820.4,-16.15142,67.2065
2154.4,95658.75,-20.97229,67.21
4641.6,79172.52,-30.23878,67.2266
10000.0,60218.48,-41.8855,67.2316
