Frequency,Impedance,Phase Angle,Temperature (Dry Bath)
10.0,1505964.0,-17.06116,67.8785
21.5,1358622.0,-14.71902,67.8798
46.4,1163876.0,-13.73233,67.8788
100.0,1146828.0,-13.21214,67.8848
215.4,920616.6,-10.71741,67.8817
464.2,908417.6,-22.77033,67.871
1000.0,762236.3,-38.87161,67.8816
2154.4,464497.3,-62.64949,67.8766
4641.6,284696.5,-79.11585,67.8661
10000.0,137350.8,-87.02895,67.8737
