Frequency,Impedance,Phase Angle,Temperature (Dry Bath)
10.0,176814.6,-13.61254,71.2932
21.544346900318832,161103.5,-11.32944,71.3012
46.41588833612777,146372.4,-11.58981,71.305
100.0,98615.41,-0.867483,71.3018
215.44346900318823,114541.0,-10.14048,71.3071
464.15888336127773,103702.9,-13.07637,71.288
1000.0,120992.1,-7.764488,71.2993
2154.4346900318824,99281.14,-23.23432,71.2895
4641.588833612777,71419.13,-34.34659,71.2942
10000.0,50051.27,-53.38143,71.2981
