Frequency,Impedance,Phase Angle,Temperature (Dry Bath)
10.0,930201.6,-11.46138,67.8683
21.5,848774.7,-10.62716,67.8815
46.4,795289.7,-11.10885,67.8833
100.0,617851.7,-14.12453,67.8907
215.4,605214.6,-18.1925,67.8779
464.2,551293.8,-23.76886,67.8797
1000.0,489903.7,-34.76919,67.8852
2154.4,358441.3,-46.82634,67.8895
4641.6,226107.5,-64.63715,67.8744
10000.0,131452.9,-80.38628,67.8743
