Frequency,Impedance,Phase Angle,Temperature (Dry Bath)
10.0,30395510.0,-35.54729,67.4449
21.5,17914730.0,-43.16485,67.4302
46.4,11263690.0,-73.87005,67.4605
100.0,8187130.0,-167.9007,67.4381
215.4,215165.6,101.6652,67.4473
464.2,1986542.0,-67.7644,67.4289
1000.0,957428.0,-83.95766,67.4323
2154.4,446696.2,-83.59406,67.4484
4641.6,205885.2,-82.83459,67.4109
10000.0,100531.8,-80.36561,67.4216
