Frequency,Impedance,Phase Angle,Temperature (Dry Bath)
10.0,1351233.0,-9.773817,68.0181
21.5,1257568.0,-9.833585,68.0192
46.4,1145484.0,-11.28794,68.0137
100.0,905832.6,-13.91257,68.0147
215.4,873625.8,-13.29727,68.0073
464.2,759346.7,-29.43203,68.0226
1000.0,621204.6,-40.52311,67.996
2154.4,441359.7,-57.03931,68.0128
4641.6,257712.3,-67.73508,68.0071
10000.0,131447.7,-86.23707,68.0083
