Frequency,Impedance,Phase Angle,Temperature (Dry Bath)
10.0,3215484.0,0.6293083,66.9746
21.5,3033752.0,-3.134825,66.9873
46.4,3047472.0,-8.047373,66.9775
100.0,2633434.0,9.615747,66.9908
215.4,1961372.0,6.452499,66.9974
464.2,1879793.0,-44.45573,67.0061
1000.0,1019244.0,-78.03765,66.9785
2154.4,551394.4,-75.68163,66.9967
4641.6,260684.0,-78.0384,66.998
10000.0,127485.3,-82.89037,66.9911
