Frequency,Impedance,Phase Angle,Temperature (Dry Bath)
10.0,3631421.0,-10.35929,70.7932
21.544346900318832,5656591.0,-18.46365,70.7945
46.41588833612777,3446673.0,-22.72497,70.7974
100.0,914537.1,166.9269,70.7966
215.44346900318823,657852.8,107.9092,70.8027
464.15888336127773,4489220.0,98.99695,70.7935
1000.0,524129.7,9.334299,70.7982
2154.4346900318824,313047.7,-83.74143,70.815
4641.588833612777,106729.9,-87.31514,70.7971
10000.0,61472.67,-80.92762,70.7963
