Frequency,Impedance,Phase Angle,Temperature (Dry Bath)
10.0,20007540.0,12.69582,68.1256
21.5,30490900.0,-27.9615,68.1194
46.4,29233580.0,-48.96614,68.1237
100.0,6004029.0,-35.94206,68.1324
215.4,5045691.0,-70.54393,68.1255
464.2,2983557.0,-76.06718,68.1246
1000.0,1354378.0,-82.16212,68.1267
2154.4,592137.6,-88.13889,68.1263
4641.6,283307.6,-86.44295,68.1167
10000.0,145239.7,-98.57124,68.1352
