Frequency,Impedance,Phase Angle,Temperature (Dry Bath)
10.0,3515067.0,-15.19206,66.5
21.544346900318832,3477728.0,-5.857305,66.5
46.41588833612777,7509751.0,-4.932168,66.5
100.0,3892721.0,144.177,66.5
215.44346900318823,2671681.0,88.02779,66.5
464.15888336127773,2181282.0,-25.85038,66.5
1000.0,2271390.0,-84.79545,66.5
2154.4346900318824,2350746.0,-156.6087,66.5
4641.588833612777,867082.1,-55.47345,66.5
10000.0,798117.5,-85.39949,66.5
