Frequency,Impedance,Phase Angle,Temperature (Dry Bath)
10.0,52290.95,-34.22438,67.3763
21.5,40102.76,-30.06696,67.3885
46.4,32316.74,-26.03569,67.3741
100.0,27031.94,-22.09723,67.3894
215.4,23578.01,-18.48048,67.3845
464.2,20988.76,-15.74063,67.3758
1000.0,18860.19,-13.48768,67.3923
2154.4,17341.2,-12.28859,67.3774
4641.6,15986.02,-12.01868,67.3851
10000.0,14819.47,-14.01629,67.3878
