Frequency,Impedance,Phase Angle,Temperature (Dry Bath)
10.0,4885650.0,-3.307802,65.8576
21.544346900318832,6644853.0,-39.12728,65.8572
46.41588833612777,4670761.0,-12.09453,65.8599
100.0,1031014.0,-163.8519,65.8455
215.44346900318823,21618.7,-58.07777,65.8488
464.15888336127773,517510.0,-105.6177,65.861
1000.0,398083.2,-52.17496,65.8518
2154.4346900318824,307923.4,-90.36117,65.8539
4641.588833612777,139994.5,-83.34271,65.8626
10000.0,62814.31,-83.41461,65.8513
