Frequency,Impedance,Phase Angle,Temperature (Dry Bath)
10.0,589267.0,-5.413244,71.5384
21.544346900318832,569360.6,-1.306356,71.5358
46.41588833612777,565525.2,-4.051892,71.5331
100.0,397738.2,-35.37617,71.5368
215.44346900318823,462692.4,-22.23301,71.5458
464.15888336127773,677398.5,4.990488,71.542
1000.0,662723.8,-10.66066,71.5238
2154.4346900318824,451608.1,-21.39819,71.5384
4641.588833612777,170365.1,-54.40001,71.5337
10000.0,90002.71,-78.33666,71.5161
