Frequency,Impedance,Phase Angle,Temperature (Dry Bath)
10.0,51998.18,-34.07492,67.3565
21.5,39881.24,-30.07017,67.3603
46.4,32199.51,-26.18371,67.3632
100.0,26845.97,-22.0563,67.3781
215.4,23962.53,-19.44864,67.3641
464.2,20884.13,-15.87508,67.3733
1000.0,18766.72,-13.50618,67.3627
2154.4,17167.95,-12.27547,67.3911
4641.6,15846.04,-12.1755,67.3787
10000.0,14712.57,-14.1685,67.3678
