Frequency,Impedance,Phase Angle,Temperature (Dry Bath)
10.0,97139.27,-3.032859,67.0932
21.5,95242.79,-2.581801,67.0908
46.4,93691.54,-2.396604,67.1067
100.0,92262.49,-2.028559,67.0913
215.4,91636.84,-2.845591,67.1005
464.2,90047.89,-4.550725,67.0927
1000.0,88469.01,-7.075321,67.1048
2154.4,85641.25,-12.17335,67.1083
4641.6,78596.71,-22.07035,67.0925
10000.0,63140.17,-37.32579,67.1108
