Frequency,Impedance,Phase Angle,Temperature (Dry Bath)
10.0,1412420.0,-14.99533,68.2461
21.5,1297206.0,-14.10257,68.2467
46.4,1140784.0,-12.81587,68.2417
100.0,931680.0,-13.83701,68.2636
215.4,1062479.0,-7.502779,68.244
464.2,813007.8,-23.04785,68.2522
1000.0,677747.4,-34.64183,68.2468
2154.4,517510.2,-53.18002,68.2455
4641.6,287622.9,-71.28347,68.2423
10000.0,127221.0,-88.38687,68.261
