Frequency,Impedance,Phase Angle,Temperature (Dry Bath)
10.0,4969788.0,9.700167,70.7556
21.544346900318832,4550535.0,7.184647,70.7738
46.41588833612777,4861991.0,-30.28765,70.7582
100.0,659945.0,-62.91256,70.7714
215.44346900318823,492183.6,41.83322,70.768
464.15888336127773,908449.5,-161.3729,70.7647
1000.0,880747.5,162.5576,70.7649
2154.4346900318824,173155.5,-100.0808,70.7636
4641.588833612777,120258.0,-86.37647,70.7412
10000.0,62823.09,-76.45044,70.7622
