Frequency,Impedance,Phase Angle,Temperature (Dry Bath)
10.0,35187.75,-19.5295,71.4632
21.544346900318832,30043.62,-18.52084,71.4422
46.41588833612777,25944.07,-18.26488,71.465
100.0,21812.69,-18.28304,71.4631
215.44346900318823,19293.04,-16.13027,71.4477
464.15888336127773,16975.73,-15.24149,71.4551
1000.0,15029.44,-12.77384,71.447
2154.4346900318824,13497.28,-11.96192,71.4462
4641.588833612777,12236.32,-12.39075,71.4492
10000.0,11473.9,-13.24334,71.4461
