Frequency,Impedance,Phase Angle,Temperature (Dry Bath)
10.0,31503910.0,-10.92062,67.2243
21.5,23968200.0,-39.57832,67.2272
46.4,12787450.0,-32.08202,67.2204
100.0,7513615.0,69.26717,67.2226
215.4,284735.4,131.8478,67.2225
464.2,2471378.0,-104.4849,67.2217
1000.0,1088767.0,-87.50855,67.2345
2154.4,547535.9,-85.71506,67.2281
4641.6,248443.9,-83.46564,67.2445
10000.0,124085.9,-85.55154,67.2283
