Frequency,Impedance,Phase Angle,Temperature (Dry Bath)
10.0,438930.6,-25.08135,65.7671
21.544346900318832,349848.4,-25.11344,65.7697
46.41588833612777,278325.6,-23.53311,65.7804
100.0,375827.4,-51.83798,65.7663
215.44346900318823,14200.33,51.04761,65.7735
464.15888336127773,163772.9,-11.40494,65.7601
1000.0,117516.4,-25.15567,65.7724
2154.4346900318824,98940.98,-40.46478,65.7759
4641.588833612777,78839.53,-55.87056,65.7834
10000.0,49173.28,-56.55257,65.7691
