Frequency,Impedance,Phase Angle,Temperature (Dry Bath)
10.0,7435698.0,-29.25863,71.1637
21.544346900318832,3832191.0,-5.325214,71.1605
46.41588833612777,4109298.0,-31.94112,71.1853
100.0,649656.0,-97.71713,71.1633
215.44346900318823,675039.9,-22.90473,71.1766
464.15888336127773,658016.3,167.5934,71.1701
1000.0,356026.3,-75.46597,71.1771
2154.4346900318824,256485.9,-106.6218,71.1734
4641.588833612777,106348.8,-95.88839,71.1676
10000.0,58147.03,-90.50771,71.1746
