Frequency,Impedance,Phase Angle,Temperature (Dry Bath)
10.0,49644.85,-33.85336,67.3556
21.5,37817.5,-30.27221,67.3476
46.4,30296.57,-26.49379,67.3357
100.0,25356.04,-22.40111,67.3569
215.4,23038.08,-14.11759,67.3398
464.2,19559.39,-16.19846,67.3368
1000.0,17510.57,-13.63887,67.3423
2154.4,15999.97,-12.41308,67.3632
4641.6,14806.71,-12.12413,67.3513
10000.0,13692.97,-13.84355,67.3635
