Frequency,Impedance,Phase Angle,Temperature (Dry Bath)
10.0,34898010.0,-16.82971,67.6708
21.5,31762910.0,-46.9992,67.6673
46.4,26294600.0,-56.1638,67.6672
100.0,6045657.0,-9.437918,67.6811
215.4,7808753.0,-84.98345,67.6566
464.2,3855863.0,-74.65061,67.6731
1000.0,1273043.0,-81.10079,67.6681
2154.4,595938.4,-85.01125,67.6775
4641.6,309349.5,-87.55208,67.6635
10000.0,127757.1,-94.03911,67.6715
