Frequency,Impedance,Phase Angle,Temperature (Dry Bath)
10.0,25098020.0,-15.24325,67.3998
21.5,26512550.0,-49.33562,67.3784
46.4,13948420.0,-55.37701,67.3942
100.0,4145258.0,-112.691,67.3839
215.4,6093050.0,-0.2547039,67.3938
464.2,1662777.0,-81.56796,67.3956
1000.0,820652.7,-81.57409,67.3842
2154.4,419875.2,-87.48025,67.3866
4641.6,195129.2,-79.84891,67.3856
10000.0,99846.45,-80.67245,67.4029
