Frequency,Impedance,Phase Angle,Temperature (Dry Bath)
10.0,5122071.0,1.770758,66.3498
21.544346900318832,5875354.0,-1.005972,66.3593
46.41588833612777,5644268.0,-9.315385,66.3668
100.0,5803256.0,39.7099,66.3783
215.44346900318823,2406833.0,24.9048,66.379
464.15888336127773,7595775.0,-1.484537,66.3824
1000.0,4561425.0,-19.6563,66.391
2154.4346900318824,6266472.0,-105.9369,66.3743
4641.588833612777,33997630.0,176.9292,66.3611
10000.0,4298861.0,-47.48194,66.3744
