Frequency,Impedance,Phase Angle,Temperature (Dry Bath)
10.0,4999591.0,8.389184,70.9389
21.544346900318832,3205409.0,-4.393005,70.9342
46.41588833612777,4071095.0,-21.52235,70.943
100.0,867716.2,137.4553,70.9302
215.44346900318823,1438305.0,-25.11036,70.9281
464.15888336127773,652194.2,-80.72939,70.9396
1000.0,809997.2,-86.72961,70.9151
2154.4346900318824,285232.5,-63.02055,70.93
4641.588833612777,99588.1,-84.90695,70.9312
10000.0,66693.04,-86.85024,70.9386
