Frequency,Impedance,Phase Angle,Temperature (Dry Bath)
10.0,28937590.0,-14.00159,66.4797
21.5,26822010.0,-25.62538,66.4632
46.4,16685920.0,-53.36372,66.4631
100.0,6057260.0,142.5722,66.4599
215.4,189479.1,-81.67979,66.4709
464.2,1767214.0,-70.13894,66.4583
1000.0,878278.7,-77.20499,66.4653
2154.4,605569.7,-87.28237,66.4687
4641.6,263599.9,-88.40065,66.4707
10000.0,126605.2,-84.58123,66.4673
