Frequency,Impedance,Phase Angle,Temperature (Dry Bath)
10.0,37605380.0,-2.239494,67.0878
21.5,21921740.0,-21.52572,67.0907
46.4,17564640.0,-57.84619,67.0784
100.0,4929689.0,-44.72562,67.0737
215.4,3341785.0,-104.5095,67.0755
464.2,2505873.0,-79.06295,67.0928
1000.0,1066096.0,-84.04795,67.0948
2154.4,578689.6,-81.22314,67.0811
4641.6,260194.5,-87.18905,67.0855
10000.0,123518.9,-86.25864,67.091
