Frequency,Impedance,Phase Angle,Temperature (Dry Bath)
10.0,55874000.0,-18.55686,67.8858
21.5,38455800.0,-34.77714,67.8875
46.4,19349060.0,-52.6603,67.8935
100.0,4721853.0,-58.33798,67.8883
215.4,5481996.0,-61.77572,67.8938
464.2,3316429.0,-103.3808,67.8948
1000.0,1252264.0,-86.8826,67.8723
2154.4,625281.3,-88.02857,67.8847
4641.6,269219.8,-87.58224,67.8797
10000.0,141800.1,-94.03265,67.8898
