Frequency,Impedance,Phase Angle,Temperature (Dry Bath)
10.0,23407960.0,-13.48473,67.0153
21.5,20441690.0,-38.22546,67.017
46.4,14486610.0,-63.69648,67.0163
100.0,3001600.0,-88.3728,66.9981
215.4,197853.4,-37.29906,67.005
464.2,1572880.0,-75.71083,66.9814
1000.0,1129729.0,-84.9583,67.013
2154.4,406352.8,-84.62428,67.0052
4641.6,200076.7,-83.97631,66.984
10000.0,99839.77,-80.55608,67.0075
