Frequency,Impedance,Phase Angle,Temperature (Dry Bath)
10.0,31205340.0,-21.14231,67.0606
21.5,21470310.0,-47.23863,67.0589
46.4,13104680.0,-64.8654,67.0598
100.0,4315673.0,-77.45137,67.0618
215.4,2042670.0,-77.53444,67.0725
464.2,1644968.0,-77.46778,67.0218
1000.0,956942.5,-85.39947,67.0715
2154.4,419999.3,-81.65506,67.058
4641.6,199526.3,-81.75457,67.0171
10000.0,101134.3,-80.87293,67.0297
