Frequency,Impedance,Phase Angle,Temperature (Dry Bath)
10.0,112522.3,-3.13977,67.2695
21.5,110328.9,-2.620651,67.2672
46.4,108449.5,-2.470125,67.269
100.0,107293.3,-3.538502,67.2644
215.4,105670.3,-3.322075,67.2587
464.2,105502.6,-4.95362,67.2558
1000.0,99385.31,-8.020232,67.2558
2154.4,95333.56,-13.55004,67.2723
4641.6,87747.95,-24.23393,67.2609
10000.0,69450.43,-40.24448,67.2634
