Frequency,Impedance,Phase Angle,Temperature (Dry Bath)
10.0,26621930.0,-19.44569,68.11
21.5,29089390.0,-31.71848,68.0867
46.4,28341400.0,-45.6402,68.094
100.0,8027583.0,-31.02487,68.1001
215.4,3402677.0,-84.58444,68.0966
464.2,3047310.0,-87.62938,68.0967
1000.0,1219541.0,-83.58163,68.0753
2154.4,618158.7,-85.64109,68.0878
4641.6,295106.0,-93.47869,68.0953
10000.0,143344.4,-99.72348,68.0937
