Frequency,Impedance,Phase Angle,Temperature (Dry Bath)
10.0,231000.3,-22.69316,67.1333
21.5,195365.8,-20.08046,67.1192
46.4,169915.9,-17.53281,67.1296
100.0,147862.0,-14.71049,67.1158
215.4,132569.1,-13.04345,67.1276
464.2,124479.0,-14.36983,67.1322
1000.0,113957.2,-15.6609,67.1181
2154.4,100674.5,-21.65863,67.1207
4641.6,83032.18,-29.61269,67.1054
10000.0,62902.02,-41.20811,67.1108
