Frequency,Impedance,Phase Angle,Temperature (Dry Bath)
10.0,5291691.0,-11.18968,66.3644
21.544346900318832,8613415.0,-8.40612,66.3653
46.41588833612777,5319663.0,-31.09354,66.3541
100.0,635587.3,106.7382,66.37
215.44346900318823,564695.5,10.90845,66.3546
464.15888336127773,1783734.0,-51.97915,66.3671
1000.0,437495.8,-47.29202,66.3568
2154.4346900318824,355284.4,-122.9352,66.3699
4641.588833612777,128820.5,-87.93376,66.3585
10000.0,65075.87,-81.1744,66.3546
