Frequency,Impedance,Phase Angle,Temperature (Dry Bath)
10.0,114737.4,-3.10931,67.435
21.5,112167.6,-2.521885,67.4189
46.4,110529.4,-2.509228,67.4178
100.0,107379.0,-3.028399,67.4242
215.4,107890.2,-3.611077,67.4275
464.2,105690.7,-5.323615,67.4425
1000.0,101662.4,-8.31111,67.4259
2154.4,99198.94,-14.13743,67.4209
4641.6,89077.21,-24.79201,67.4096
10000.0,70163.33,-40.5986,67.4235
