Frequency,Impedance,Phase Angle,Temperature (Dry Bath)
10.0,25107020.0,-2.58634,68.2463
21.5,24738840.0,-40.95203,68.2259
46.4,25686150.0,-55.12613,68.2389
100.0,6843171.0,-23.77629,68.2372
215.4,6229499.0,-77.06427,68.2587
464.2,3406506.0,-77.07361,68.2396
1000.0,1328035.0,-79.86312,68.2496
2154.4,672446.2,-91.08127,68.2295
4641.6,304284.7,-90.46851,68.2473
10000.0,153068.5,-99.83108,68.2354
