Frequency,Impedance,Phase Angle,Temperature (Dry Bath)
10.0,203834.4,-20.90775,66.9312
21.5,177682.6,-18.2884,66.9367
46.4,156837.0,-16.04148,66.9162
100.0,143035.5,-14.63153,66.9238
215.4,142039.6,-40.39057,66.9274
464.2,118321.1,-12.76184,66.9229
1000.0,109269.0,-13.23198,66.914
2154.4,102976.9,-18.30817,66.9255
4641.6,88974.23,-26.56213,66.9248
10000.0,70310.89,-41.19395,66.926
