Frequency,Impedance,Phase Angle,Temperature (Dry Bath)
10.0,33195550.0,-23.32297,67.1429
21.5,25459110.0,-38.00591,67.1391
46.4,16663290.0,-55.42042,67.1472
100.0,4484618.0,-14.90505,67.1278
215.4,3052760.0,-127.391,67.1417
464.2,2191487.0,-72.91142,67.1696
1000.0,1096263.0,-92.43904,67.1483
2154.4,506468.2,-85.49162,67.1673
4641.6,247094.4,-84.25317,67.1736
10000.0,121023.9,-86.32372,67.1583
