Frequency,Impedance,Phase Angle,Temperature (Dry Bath)
10.0,4650639.0,13.07381,66.5
21.544346900318832,3154024.0,-7.09884,66.5
46.41588833612777,5360083.0,-3.62593,66.5
100.0,4217775.0,-69.63195,66.5
215.44346900318823,4049994.0,-53.20123,66.5
464.15888336127773,3454848.0,-131.2746,66.5
1000.0,3703741.0,3.520797,66.5
2154.4346900318824,3164421.0,-81.95404,66.5
4641.588833612777,1115597.0,-110.1178,66.5
10000.0,745766.3,-64.81291,66.5
