Frequency,Impedance,Phase Angle,Temperature (Dry Bath)
10.0,5910482.0,-12.37725,71.0642
21.544346900318832,4347548.0,-36.24139,71.0722
46.41588833612777,5117520.0,-30.96804,71.0711
100.0,300006.5,-42.17868,71.0617
215.44346900318823,1868272.0,-104.1247,71.0634
464.15888336127773,641731.6,-83.04669,71.0662
1000.0,566749.9,-97.98411,71.071
2154.4346900318824,326738.7,-98.89633,71.0782
4641.588833612777,138299.1,-83.49949,71.0724
10000.0,55230.03,-85.72561,71.0507
