Frequency,Impedance,Phase Angle,Temperature (Dry Bath)
10.0,354642.5,-22.42333,65.7408
21.544346900318832,286182.6,-22.0801,65.7504
46.41588833612777,238631.3,-20.92621,65.7495
100.0,138892.1,4.259987,65.7205
215.44346900318823,163559.6,-46.17207,65.7196
464.15888336127773,136647.2,-22.72771,65.732
1000.0,128285.9,-8.372261,65.6967
2154.4346900318824,100950.9,-31.32474,65.7122
4641.588833612777,72834.91,-38.68871,65.7415
10000.0,47896.22,-53.69751,65.7139
