Frequency,Impedance,Phase Angle,Temperature (Dry Bath)
10.0,1933314.0,-11.74197,68.226
21.5,1933415.0,-11.06746,68.2055
46.4,1715954.0,-13.46565,68.2178
100.0,1462184.0,-12.37781,68.2266
215.4,1421967.0,-24.41267,68.2125
464.2,1179823.0,-29.01217,68.2171
1000.0,846027.2,-47.90592,68.2244
2154.4,543158.9,-64.58512,68.2248
4641.6,269180.1,-74.91593,68.2212
10000.0,153098.2,-86.71647,68.2067
