Frequency,Impedance,Phase Angle,Temperature (Dry Bath)
10.0,3214.289,-32.23867,71.2677
21.544346900318832,2518.118,-27.00496,71.2446
46.41588833612777,2057.504,-22.20481,71.2558
100.0,1753.9,-17.851,71.2551
215.44346900318823,1544.724,-14.14172,71.2756
464.15888336127773,1397.02,-11.29177,71.2702
1000.0,1289.763,-9.074343,71.2835
2154.4346900318824,1209.506,-7.441329,71.2581
4641.588833612777,1152.415,-6.161946,71.2602
10000.0,1106.701,-5.330512,71.2679
