Frequency,Impedance,Phase Angle,Temperature (Dry Bath)
10.0,3844917.0,-17.30821,71.0891
21.544346900318832,3990734.0,-2.596156,71.08
46.41588833612777,10941490.0,-12.22028,71.0939
100.0,964662.7,53.60887,71.0906
215.44346900318823,1165403.0,-147.4195,71.0807
464.15888336127773,1800699.0,157.5939,71.0755
1000.0,280575.0,-26.45513,71.0855
2154.4346900318824,303003.0,-38.71742,71.0868
4641.588833612777,212210.3,-123.6134,71.0861
10000.0,121430.5,-93.65052,71.0846
