Frequency,Impedance,Phase Angle,Temperature (Dry Bath)
10.0,116212.3,-3.61818,67.486
21.5,114187.1,-3.310453,67.4948
46.4,112587.5,-3.297719,67.4894
100.0,111708.9,-3.878435,67.4888
215.4,156535.3,4.667706,67.4893
464.2,107758.8,-6.226054,67.5052
1000.0,102443.9,-10.20768,67.486
2154.4,98337.06,-14.14868,67.5062
4641.6,89698.82,-23.8194,67.5015
10000.0,72915.54,-39.11178,67.5003
