Frequency,Impedance,Phase Angle,Temperature (Dry Bath)
10.0,45185150.0,-30.53127,68.0822
21.5,24927570.0,-8.764211,68.0717
46.4,23960580.0,-50.02675,68.0717
100.0,4237512.0,-23.90736,68.0701
215.4,2849966.0,-56.3938,68.0881
464.2,2921510.0,-69.9556,68.0735
1000.0,1266522.0,-89.8499,68.0687
2154.4,679577.7,-86.53293,68.0631
4641.6,304716.4,-99.3414,68.0759
10000.0,134682.1,-94.48589,68.0601
