Frequency,Impedance,Phase Angle,Temperature (Dry Bath)
10.0,20698990.0,-21.8341,68.0638
21.5,16186560.0,-16.37655,68.0736
46.4,19204440.0,-53.14973,68.075
100.0,6575037.0,-21.8933,68.0802
215.4,5710488.0,-43.12932,68.0737
464.2,2453817.0,-103.8083,68.0617
1000.0,1470253.0,-76.47821,68.0814
2154.4,595768.1,-90.07373,68.0797
4641.6,309081.9,-88.82615,68.09
10000.0,132042.8,-92.81241,68.0697
