Frequency,Impedance,Phase Angle,Temperature (Dry Bath)
10.0,1469995.0,-17.19866,67.2962
21.5,1305921.0,-15.41564,67.3093
46.4,1188714.0,-14.74512,67.3029
100.0,936511.3,-11.00399,67.3004
215.4,967186.3,-28.3904,67.3103
464.2,906723.0,-29.9773,67.3007
1000.0,697195.8,-47.04737,67.2898
2154.4,414019.2,-60.11587,67.3018
4641.6,234179.3,-70.81431,67.2859
10000.0,112004.0,-78.00463,67.2947
