Frequency,Impedance,Phase Angle,Temperature (Dry Bath)
10.0,817604.5,-3.019971,71.0151
21.544346900318832,804009.3,-5.161003,71.001
46.41588833612777,801030.2,-4.706552,71.0136
100.0,322589.5,-90.96124,71.0015
215.44346900318823,376756.1,-59.0812,71.0109
464.15888336127773,919908.3,-109.4861,71.0122
1000.0,202808.0,165.489,70.9994
2154.4346900318824,278106.3,-86.72139,71.0127
4641.588833612777,318957.9,-79.69839,71.0177
10000.0,133042.1,-70.23633,71.0182
