Frequency,Impedance,Phase Angle,Temperature (Dry Bath)
10.0,113774.0,-3.198018,67.2474
21.5,111487.7,-2.65528,67.2541
46.4,109185.1,-2.277674,67.238
100.0,109310.3,-2.36767,67.2389
215.4,98331.95,-2.234426,67.2429
464.2,103613.2,-4.456925,67.2478
1000.0,102216.0,-8.443234,67.2429
2154.4,96834.73,-13.20775,67.234
4641.6,88871.89,-24.43103,67.2365
10000.0,69284.62,-40.25594,67.2303
