Frequency,Impedance,Phase Angle,Temperature (Dry Bath)
10.0,5370801.0,-6.57437,70.4489
21.544346900318832,4379140.0,31.70917,70.4623
46.41588833612777,4667172.0,-29.07195,70.4775
100.0,514390.1,107.9711,70.4782
215.44346900318823,769108.2,3.093876,70.4805
464.15888336127773,596620.7,-131.0279,70.4874
1000.0,383300.4,-24.2166,70.4645
2154.4346900318824,262736.1,-60.00964,70.4813
4641.588833612777,113519.0,-85.3876,70.4993
10000.0,57655.97,-93.25949,70.4723
