Frequency,Impedance,Phase Angle,Temperature (Dry Bath)
10.0,116510.0,-3.185811,67.4182
21.5,114185.9,-2.697005,67.4313
46.4,112322.8,-2.479056,67.4011
100.0,110432.9,-3.072182,67.4183
215.4,173078.1,16.10446,67.4294
464.2,107599.3,-5.513748,67.4248
1000.0,103387.7,-8.268802,67.4226
2154.4,98823.75,-13.85916,67.4048
4641.6,88169.51,-25.38295,67.4428
10000.0,69887.42,-41.89747,67.4235
