Frequency,Impedance,Phase Angle,Temperature (Dry Bath)
10.0,207419.8,-23.65718,67.0735
21.5,173918.3,-20.54908,67.0792
46.4,149948.9,-17.77769,67.0802
100.0,134309.3,-15.58954,67.091
215.4,121733.5,-12.42233,67.0889
464.2,109172.0,-13.04965,67.0938
1000.0,100320.1,-15.2316,67.0651
2154.4,91522.11,-19.51692,67.0718
4641.6,76053.72,-28.41148,67.0833
10000.0,59565.82,-39.80348,67.087
