Frequency,Impedance,Phase Angle,Temperature (Dry Bath)
10.0,116082.8,-16.14158,67.9132
21.5,103772.5,-13.91383,67.9123
46.4,94239.55,-12.24742,67.9161
100.0,87222.61,-11.14193,67.9092
215.4,80831.18,-10.20685,67.9015
464.2,75199.26,-10.181,67.9183
1000.0,69893.18,-11.79553,67.9108
2154.4,65768.26,-15.83704,67.9045
4641.6,59420.11,-20.68371,67.9114
10000.0,54119.74,-34.71168,67.9024
