Frequency,Impedance,Phase Angle,Temperature (Dry Bath)
10.0,7434482.0,11.79417,71.3617
21.544346900318832,4310685.0,-10.2338,71.3583
46.41588833612777,4802517.0,-20.23905,71.3596
100.0,1186072.0,-162.1831,71.3752
215.44346900318823,64673.77,124.7326,71.3647
464.15888336127773,721190.7,-42.76099,71.3684
1000.0,1470542.0,-38.95239,71.352
2154.4346900318824,214701.7,-70.24935,71.3578
4641.588833612777,113265.6,-84.7368,71.3444
10000.0,56846.25,-93.83814,71.348
