Frequency,Impedance,Phase Angle,Temperature (Dry Bath)
10.0,1604298.0,-14.83655,67.9962
21.5,1488633.0,-13.48821,67.9962
46.4,1335649.0,-12.78685,67.9962
100.0,1075808.0,-7.87282,67.9962
215.4,1096245.0,-21.9045,67.9962
464.2,926251.0,-22.36639,67.9962
1000.0,722347.8,-37.4954,67.9962
2154.4,470688.0,-55.67335,67.9962
4641.6,260890.0,-73.30731,67.9962
10000.0,139550.5,-89.29281,67.9962
