Frequency,Impedance,Phase Angle,Temperature (Dry Bath)
10.0,40926570.0,-5.920186,67.7274
21.5,28620880.0,-31.82681,67.707
46.4,18437310.0,-49.35003,67.7178
100.0,7328444.0,-21.04807,67.7168
215.4,3603712.0,-67.93656,67.7065
464.2,2454648.0,-94.29586,67.7116
1000.0,1197333.0,-87.28015,67.7203
2154.4,592010.6,-92.62524,67.7207
4641.6,259951.5,-93.00867,67.7189
10000.0,135610.4,-94.63733,67.7247
