Frequency,Impedance,Phase Angle,Temperature (Dry Bath)
10.0,42303730.0,-12.8729,68.3929
21.5,30867840.0,0.8701492,68.397
46.4,14876970.0,-52.82241,68.3887
100.0,8461042.0,-38.36725,68.3982
215.4,5196755.0,-73.27866,68.4124
464.2,2502083.0,-84.27594,68.4054
1000.0,1283701.0,-87.58958,68.4052
2154.4,659038.7,-88.90411,68.4066
4641.6,294267.7,-87.3783,68.4092
10000.0,137717.8,-96.97213,68.4164
