Frequency,Impedance,Phase Angle,Temperature (Dry Bath)
10.0,111884.8,-3.040226,67.4085
21.5,109884.8,-2.639,67.4323
46.4,107550.9,-2.510307,67.4165
100.0,107338.7,-2.413272,67.4242
215.4,146753.4,-34.51875,67.4395
464.2,103949.7,-5.641659,67.4637
1000.0,100045.5,-7.850411,67.4305
2154.4,96175.77,-13.32691,67.4359
4641.6,86940.13,-23.89145,67.4478
10000.0,67922.65,-39.79553,67.4321
