Frequency,Impedance,Phase Angle,Temperature (Dry Bath)
10.0,7267465.0,0.6113991,65.6493
21.544346900318832,4599576.0,-52.24148,65.6743
46.41588833612777,3915587.0,-13.79017,65.6555
100.0,355933.9,52.92161,65.6507
215.44346900318823,1123750.0,156.8518,65.6597
464.15888336127773,762523.5,-47.90715,65.6641
1000.0,342804.3,-57.72228,65.667
2154.4346900318824,287549.6,-96.4303,65.6813
4641.588833612777,113428.6,-74.60057,65.658
10000.0,59796.66,-82.07082,65.6663
