Frequency,Impedance,Phase Angle,Temperature (Dry Bath)
10.0,34504040.0,5.892519,66.9615
21.5,27869700.0,-32.93319,66.9584
46.4,17594330.0,-50.74085,66.9783
100.0,7356108.0,-20.3491,66.9769
215.4,6967951.0,-131.9789,66.9686
464.2,2692183.0,-74.66384,66.9927
1000.0,1151717.0,-78.47536,66.9669
2154.4,649652.8,-90.02478,66.9832
4641.6,258545.7,-85.76466,66.9783
10000.0,129233.2,-86.20924,66.9703
