Frequency,Impedance,Phase Angle,Temperature (Dry Bath)
10.0,6455617.0,2.376146,70.4
21.544346900318832,7314118.0,8.395647,70.4
46.41588833612777,6371762.0,0.02549449,70.4
100.0,17769200.0,-171.0874,70.4
215.44346900318823,3164309.0,25.22339,70.4
464.15888336127773,14585880.0,-75.82316,70.4
1000.0,3547000.0,-15.80002,70.4
2154.4346900318824,2339947.0,-40.81784,70.4
4641.588833612777,4586284.0,-2.103981,70.4
10000.0,6296960.0,9.299192,70.4
