Frequency,Impedance,Phase Angle,Temperature (Dry Bath)
10.0,4190412.0,-27.36936,71.0155
21.544346900318832,3617976.0,-26.33057,71.0139
46.41588833612777,5285500.0,-13.737,71.0141
100.0,654156.8,107.0389,71.0135
215.44346900318823,857158.2,-139.4279,71.0243
464.15888336127773,670879.6,-92.95895,71.0075
1000.0,548953.2,-95.9418,71.0132
2154.4346900318824,282305.3,-81.41545,71.0149
4641.588833612777,155687.3,-102.3401,71.0145
10000.0,63329.96,-82.21173,71.0186
