Frequency,Impedance,Phase Angle,Temperature (Dry Bath)
10.0,6282057.0,-2.178431,70.6671
21.544346900318832,6301653.0,-4.998843,70.663
46.41588833612777,5175918.0,-48.0661,70.6726
100.0,622046.2,16.47356,70.6713
215.44346900318823,400528.5,-63.81654,70.6691
464.15888336127773,717579.1,-71.43053,70.6806
1000.0,418142.0,-99.55684,70.6416
2154.4346900318824,204854.7,-83.59046,70.6455
4641.588833612777,257887.1,-81.72233,70.661
10000.0,60505.08,-95.5947,70.6548
