Frequency,Impedance,Phase Angle,Temperature (Dry Bath)
10.0,27183480.0,-19.91108,68.2042
21.5,37709540.0,-24.31089,68.2042
46.4,31597120.0,-44.76198,68.2042
100.0,4619332.0,-38.19927,68.2042
215.4,4696122.0,-58.24587,68.2042
464.2,2652959.0,-76.90947,68.2042
1000.0,1210439.0,-85.86363,68.2042
2154.4,698234.3,-88.9344,68.2042
4641.6,311652.1,-89.43081,68.2042
10000.0,142199.8,-96.66,68.2042
