Frequency,Impedance,Phase Angle,Temperature (Dry Bath)
10.0,171118.3,-21.81081,67.7675
21.5,144744.0,-18.78447,67.7731
46.4,127784.8,-16.31843,67.7621
100.0,108976.1,-15.11437,67.7702
215.4,103682.9,-12.58881,67.7664
464.2,97628.21,-12.35922,67.755
1000.0,86773.32,-14.76023,67.7531
2154.4,79239.59,-19.22755,67.7525
4641.6,69458.02,-25.66658,67.7492
10000.0,58094.41,-41.07306,67.7549
