Frequency,Impedance,Phase Angle,Temperature (Dry Bath)
10.0,78747.63,-20.60284,71.6044
21.544346900318832,67138.75,-20.32223,71.5974
46.41588833612777,56323.21,-20.28151,71.5849
100.0,51544.75,-15.93111,71.5849
215.44346900318823,39244.6,-18.92042,71.5923
464.15888336127773,33939.76,-14.88273,71.5921
1000.0,29915.66,-17.27689,71.6075
2154.4346900318824,26203.67,-15.83608,71.6037
4641.588833612777,23652.79,-15.44671,71.6044
10000.0,21153.62,-18.99297,71.5895
