Frequency,Impedance,Phase Angle,Temperature (Dry Bath)
10.0,20983910.0,4.207349,67.9994
21.5,16721200.0,-25.93321,67.9946
46.4,21219280.0,-54.11749,67.9982
100.0,3360989.0,-24.9471,67.991
215.4,7366399.0,-86.52663,68.0252
464.2,2682581.0,-75.03402,68.0228
1000.0,1311373.0,-82.3032,68.0246
2154.4,650983.8,-87.01256,67.9973
4641.6,332303.6,-86.38116,67.9962
10000.0,137330.7,-97.23411,68.0067
