Frequency,Impedance,Phase Angle,Temperature (Dry Bath)
10.0,208769.6,-23.45794,67.3055
21.5,175473.6,-20.43471,67.3107
46.4,150860.0,-17.7771,67.3154
100.0,131432.0,-15.51453,67.3066
215.4,294822.7,-18.28126,67.3062
464.2,113066.4,-13.3697,67.3131
1000.0,100450.0,-16.474,67.3068
2154.4,90993.41,-20.25783,67.3093
4641.6,77554.75,-29.10474,67.3079
10000.0,59288.76,-40.32652,67.3029
