Frequency,Impedance,Phase Angle,Temperature (Dry Bath)
10.0,25954280.0,-21.38264,67.149
21.5,21899260.0,-25.16412,67.119
46.4,36045860.0,-69.98819,67.1217
100.0,2358534.0,-42.58396,67.1323
215.4,202176.7,170.0683,67.1134
464.2,2681970.0,-88.56546,67.1215
1000.0,1353417.0,-79.60013,67.1163
2154.4,544579.1,-83.31188,67.1249
4641.6,251498.2,-85.01647,67.1118
10000.0,129210.1,-86.4441,67.1158
