Frequency,Impedance,Phase Angle,Temperature (Dry Bath)
10.0,23877000.0,-19.38401,68.2681
21.5,17320240.0,-22.60889,68.2724
46.4,14458950.0,-50.28768,68.2718
100.0,12667510.0,8.012381,68.2835
215.4,3940497.0,-67.8239,68.2749
464.2,2504097.0,-76.88253,68.265
1000.0,1153148.0,-81.66387,68.2737
2154.4,567693.4,-84.34497,68.2817
4641.6,277918.7,-88.78154,68.2596
10000.0,135287.6,-99.52335,68.2755
