Frequency,Impedance,Phase Angle,Temperature (Dry Bath)
10.0,35439550.0,-17.44547,68.031
21.5,17955540.0,-36.97451,68.031
46.4,13133260.0,-45.6926,68.031
100.0,8194777.0,-14.94847,68.031
215.4,4460914.0,-70.98653,68.031
464.2,2475062.0,-91.11384,68.031
1000.0,1349054.0,-83.33004,68.031
2154.4,623565.5,-86.56196,68.031
4641.6,310509.5,-88.69106,68.031
10000.0,149561.7,-95.91614,68.031
