Frequency,Impedance,Phase Angle,Temperature (Dry Bath)
10.0,25372240.0,-30.41369,67.4833
21.5,24408170.0,-34.7188,67.4689
46.4,18351830.0,-48.31393,67.4707
100.0,21651430.0,-132.5838,67.4821
215.4,110724.1,42.50833,67.484
464.2,1657492.0,-71.56358,67.4884
1000.0,956455.8,-92.05519,67.4785
2154.4,453908.4,-80.78648,67.4916
4641.6,219641.4,-79.95297,67.4725
10000.0,104844.8,-80.46768,67.5021
