Frequency,Impedance,Phase Angle,Temperature (Dry Bath)
10.0,113005.1,-3.087494,67.1992
21.5,110747.3,-2.611121,67.1855
46.4,108481.1,-2.669218,67.1903
100.0,108765.1,-2.954443,67.1642
215.4,97339.45,-7.485092,67.1772
464.2,103699.2,-6.572587,67.1874
1000.0,100491.7,-8.190647,67.1797
2154.4,96712.87,-13.13897,67.1821
4641.6,85850.86,-23.06448,67.1957
10000.0,69603.96,-40.59383,67.1964
