Frequency,Impedance,Phase Angle,Temperature (Dry Bath)
10.0,30625140.0,-13.76187,67.3525
21.5,32032350.0,-22.17356,67.3344
46.4,19173320.0,-47.9918,67.3356
100.0,6832631.0,-44.66696,67.3557
215.4,10357650.0,-58.32486,67.3216
464.2,2003143.0,-74.55507,67.329
1000.0,1059221.0,-92.55938,67.3501
2154.4,560201.8,-86.928,67.3324
4641.6,265139.9,-83.8419,67.3404
10000.0,132866.3,-83.13967,67.3209
