Frequency,Impedance,Phase Angle,Temperature (Dry Bath)
10.0,19945110.0,-24.45202,68.1141
21.5,22944000.0,-38.30846,68.1141
46.4,30578720.0,-40.08503,68.1141
100.0,5675620.0,-25.80476,68.1141
215.4,3661266.0,-63.66837,68.1141
464.2,3102910.0,-85.48603,68.1141
1000.0,1270141.0,-87.3761,68.1141
2154.4,607163.1,-86.96151,68.1141
4641.6,326118.2,-87.89479,68.1141
10000.0,142622.2,-92.10148,68.1141
