Frequency,Impedance,Phase Angle,Temperature (Dry Bath)
10.0,1571842.0,-19.61958,67.329
21.5,1396841.0,-16.89558,67.3409
46.4,1276665.0,-15.36529,67.3403
100.0,1312520.0,-19.57448,67.3357
215.4,879426.2,13.71298,67.332
464.2,929377.4,-24.37766,67.3157
1000.0,829282.8,-45.48021,67.3318
2154.4,472145.8,-59.82981,67.3294
4641.6,260416.0,-70.36477,67.3296
10000.0,129993.8,-77.95974,67.3163
