Frequency,Impedance,Phase Angle,Temperature (Dry Bath)
10.0,4584748.0,-2.988295,28.84
21.544346900318832,6878651.0,-9.932608,28.9582
46.41588833612777,6402796.0,22.96249,28.8046
100.0,1956627.0,10.49056,28.9622
215.44346900318823,561873.5,-34.20428,28.9744
464.15888336127773,963305.5,-113.1413,28.9818
1000.0,1671540.0,-101.1653,28.9058
2154.4346900318824,555960.2,-40.99255,29.036
4641.588833612777,376974.7,-84.17721,29.0021
10000.0,149580.2,-92.79727,29.0417
