Frequency,Impedance,Phase Angle,Temperature (Dry Bath)
10.0,7614516.0,-14.75542,65.7009
21.544346900318832,4851187.0,-24.04301,65.6808
46.41588833612777,3402842.0,-6.789571,65.7069
100.0,597241.3,0.2296446,65.6775
215.44346900318823,372854.2,56.38134,65.6738
464.15888336127773,1395787.0,-139.6297,65.6676
1000.0,507189.0,-57.20628,65.6446
2154.4346900318824,202193.0,-86.38533,65.6835
4641.588833612777,131214.2,-85.5875,65.6797
10000.0,73786.62,-83.92227,65.7117
