Frequency,Impedance,Phase Angle,Temperature (Dry Bath)
10.0,5376336.0,-0.4085987,71.5739
21.544346900318832,3545566.0,-2.675031,71.5553
46.41588833612777,6991925.0,-10.62079,71.567
100.0,367745.1,-15.38425,71.5898
215.44346900318823,634052.2,-8.331968,71.5876
464.15888336127773,732309.9,-122.6999,71.5616
1000.0,1393598.0,148.3089,71.5577
2154.4346900318824,283170.2,-113.3248,71.5576
4641.588833612777,229906.4,-82.45801,71.5616
10000.0,125167.7,-87.16958,71.5762
