Frequency,Impedance,Phase Angle,Temperature (Dry Bath)
10.0,19116870.0,-10.05266,68.1454
21.5,20010570.0,-30.35931,68.1591
46.4,16589570.0,-51.61224,68.1677
100.0,6920537.0,-62.86831,68.1674
215.4,9380698.0,-86.19759,68.1741
464.2,2796251.0,-86.57011,68.1498
1000.0,1259660.0,-81.83578,68.1634
2154.4,568236.4,-86.37721,68.1576
4641.6,332687.6,-87.14379,68.1739
10000.0,137376.8,-93.71848,68.1572
