Frequency,Impedance,Phase Angle,Temperature (Dry Bath)
10.0,23451850.0,-13.04984,68.0139
21.5,17518870.0,-25.30002,68.0139
46.4,21692630.0,-49.97788,68.0139
100.0,8653691.0,-23.12311,68.0139
215.4,3539657.0,-80.63262,68.0139
464.2,2310048.0,-73.006,68.0139
1000.0,1441608.0,-79.86187,68.0139
2154.4,677917.0,-87.71723,68.0139
4641.6,304559.4,-89.34127,68.0139
10000.0,147239.4,-99.20878,68.0139
