Frequency,Impedance,Phase Angle,Temperature (Dry Bath)
10.0,25194520.0,-16.48179,68.0267
21.5,29328270.0,-24.62921,68.0315
46.4,31429450.0,-48.51946,68.0376
100.0,8195463.0,-55.5399,68.0344
215.4,5129110.0,-105.9293,68.0167
464.2,2535336.0,-88.54234,68.0388
1000.0,1255355.0,-82.7073,68.0366
2154.4,613495.5,-93.39101,68.0421
4641.6,291169.1,-91.06119,68.0316
10000.0,152256.6,-93.56879,68.0317
