Frequency,Impedance,Phase Angle,Temperature (Dry Bath)
10.0,115069.9,-3.034033,67.4129
21.5,112885.0,-2.565851,67.3877
46.4,111382.9,-2.184365,67.4008
100.0,107915.2,-3.640279,67.3819
215.4,101766.2,-0.07479977,67.3877
464.2,107275.8,-5.186254,67.3971
1000.0,103093.7,-8.5016,67.3902
2154.4,98662.58,-13.85027,67.3931
4641.6,87396.37,-24.20048,67.3884
10000.0,70119.07,-40.9344,67.4001
