Frequency,Impedance,Phase Angle,Temperature (Dry Bath)
10.0,20848520.0,-21.84361,68.0523
21.5,18655370.0,-14.41728,68.0523
46.4,18556880.0,-45.74556,68.0523
100.0,5725513.0,-56.31797,68.0523
215.4,5926883.0,-85.24874,68.0523
464.2,2528573.0,-74.8633,68.0523
1000.0,1481316.0,-92.3152,68.0523
2154.4,619854.5,-86.98082,68.0523
4641.6,311089.1,-87.3808,68.0523
10000.0,146466.8,-97.3897,68.0523
