Frequency,Impedance,Phase Angle,Temperature (Dry Bath)
10.0,146138.3,-4.89189,67.8744
21.5,141236.3,-4.088028,67.88
46.4,138042.9,-3.88703,67.8765
100.0,132443.5,-2.601594,67.8808
215.4,131925.1,-6.594941,67.887
464.2,125936.0,-5.506838,67.8944
1000.0,124730.3,-8.556868,67.8837
2154.4,121400.1,-15.23804,67.8446
4641.6,105077.7,-29.87372,67.8677
10000.0,86887.6,-45.5822,67.8802
