Frequency,Impedance,Phase Angle,Temperature (Dry Bath)
10.0,1246356.0,12.63504,67.122
21.5,6034709.0,-5.552937,67.1093
46.4,5794777.0,-8.229521,67.1143
100.0,1249518.0,1.591427,67.128
215.4,133189.5,-116.4299,67.1163
464.2,2777920.0,-81.43181,67.1258
1000.0,1233798.0,-77.46744,67.1097
2154.4,488120.4,-87.88956,67.109
4641.6,274106.6,-84.96661,67.1201
10000.0,126351.1,-83.6366,67.0982
