Frequency,Impedance,Phase Angle,Temperature (Dry Bath)
10.0,136916.7,-19.55039,67.8712
21.5,120255.9,-16.53136,67.8921
46.4,107030.3,-14.499,67.8944
100.0,95745.02,-12.29305,67.8823
215.4,88879.04,-11.96466,67.8751
464.2,82417.94,-11.78851,67.8765
1000.0,76443.2,-13.56988,67.8882
2154.4,70529.24,-17.4992,67.872
4641.6,64458.61,-23.49847,67.8764
10000.0,55846.02,-35.64596,67.8734
