Frequency,Impedance,Phase Angle,Temperature (Dry Bath)
10.0,4802564.0,0.689087,71.6128
21.544346900318832,4751838.0,-7.665071,71.6204
46.41588833612777,7824559.0,-16.26361,71.6147
100.0,2511929.0,-44.96763,71.6177
215.44346900318823,2094515.0,-107.2936,71.62
464.15888336127773,621751.0,46.12736,71.6233
1000.0,6938972.0,16.35718,71.6209
2154.4346900318824,1063040.0,-100.52,71.6177
4641.588833612777,236224.0,-71.37602,71.6038
10000.0,122934.5,-84.34612,71.6091
