Frequency,Impedance,Phase Angle,Temperature (Dry Bath)
10.0,30723470.0,-22.91966,67.427
21.5,23206430.0,-36.4434,67.4242
46.4,16010800.0,-63.8739,67.4359
100.0,16329740.0,-100.7491,67.4116
215.4,145190.3,-55.99414,67.4246
464.2,1504625.0,-88.32845,67.4305
1000.0,799124.8,-80.95522,67.4228
2154.4,436979.0,-87.57382,67.409
4641.6,206583.6,-83.64115,67.4271
10000.0,98751.02,-81.96164,67.4192
