Frequency,Impedance,Phase Angle,Temperature (Dry Bath)
10.0,55703.85,-33.33879,67.0433
21.5,43144.39,-29.50039,67.0471
46.4,34972.99,-25.7899,67.0497
100.0,29453.86,-22.00254,67.0631
215.4,22214.36,-19.97441,67.0498
464.2,22523.86,-15.79858,67.0678
1000.0,20173.69,-14.20456,67.0531
2154.4,18511.05,-12.88525,67.0627
4641.6,16908.98,-13.20654,67.0675
10000.0,15615.36,-15.22325,67.0574
