Frequency,Impedance,Phase Angle,Temperature (Dry Bath)
10.0,1371002.0,-15.34649,68.1801
21.5,1173319.0,-14.10444,68.1806
46.4,1094629.0,-13.60894,68.1846
100.0,824953.2,-11.34099,68.181
215.4,1075185.0,-16.47981,68.1729
464.2,837639.9,-26.02089,68.1869
1000.0,694119.2,-37.45982,68.1786
2154.4,476927.9,-59.56086,68.1809
4641.6,284392.4,-68.10123,68.1762
10000.0,135209.3,-84.85763,68.1722
