Frequency,Impedance,Phase Angle,Temperature (Dry Bath)
10.0,30662280.0,-27.52389,67.141
21.5,30246810.0,-31.6044,67.1658
46.4,19243940.0,-59.52251,67.1405
100.0,3827620.0,-55.44695,67.1417
215.4,616710.9,107.4581,67.1512
464.2,2172288.0,-86.24369,67.1423
1000.0,984099.8,-84.19107,67.1603
2154.4,521360.7,-85.3939,67.1463
4641.6,257568.5,-86.75439,67.1632
10000.0,124540.1,-84.38029,67.1572
