Frequency,Impedance,Phase Angle,Temperature (Dry Bath)
10.0,5953753.0,-3.10581,70.9617
21.544346900318832,4961536.0,-18.37174,70.9538
46.41588833612777,3996101.0,-23.38965,70.9594
100.0,782299.5,-72.12127,70.953
215.44346900318823,582715.2,10.85093,70.9494
464.15888336127773,715267.2,-53.50677,70.955
1000.0,844466.2,-131.5924,70.9432
2154.4346900318824,301734.2,-96.36388,70.9614
4641.588833612777,118087.4,-91.29538,70.953
10000.0,51960.75,-85.14044,70.9615
