Frequency,Impedance,Phase Angle,Temperature (Dry Bath)
10.0,4846301.0,14.29448,71.2887
21.544346900318832,5821460.0,-39.68529,71.2838
46.41588833612777,6027070.0,0.5647413,71.2555
100.0,452490.3,32.74314,71.2549
215.44346900318823,984898.1,43.06357,71.2519
464.15888336127773,641151.3,-66.62551,71.2796
1000.0,627882.2,7.631359,71.2554
2154.4346900318824,347502.2,-73.29634,71.2671
4641.588833612777,119226.2,-84.20368,71.2636
10000.0,73433.0,-82.68552,71.2748
