Frequency,Impedance,Phase Angle,Temperature (Dry Bath)
10.0,6922022.0,-14.10543,71.3933
21.544346900318832,5326999.0,9.030747,71.3793
46.41588833612777,4630945.0,-12.33404,71.388
100.0,1056268.0,-31.69433,71.3864
215.44346900318823,765646.2,158.755,71.3944
464.15888336127773,13516670.0,65.86978,71.4025
1000.0,4661401.0,-81.19675,71.3853
2154.4346900318824,600196.8,-118.3095,71.3959
4641.588833612777,305964.0,-87.01737,71.3852
10000.0,166889.5,-84.7436,71.3877
