Frequency,Impedance,Phase Angle,Temperature (Dry Bath)
10.0,19913690.0,-19.68441,68.2207
21.5,27276120.0,-19.04876,68.2145
46.4,29103780.0,-50.77974,68.2302
100.0,11662720.0,-37.26675,68.2249
215.4,4298998.0,-75.51752,68.2178
464.2,2672411.0,-75.69767,68.2117
1000.0,1305902.0,-82.23737,68.2238
2154.4,663100.9,-91.03789,68.2235
4641.6,302324.6,-90.52081,68.2244
10000.0,160830.8,-90.90407,68.2201
