Frequency,Impedance,Phase Angle,Temperature (Dry Bath)
10.0,26827830.0,-15.44518,67.3336
21.5,29697280.0,-33.56228,67.3448
46.4,18748680.0,-49.83061,67.3427
100.0,5411170.0,-111.7637,67.3428
215.4,7665692.0,-36.13178,67.3381
464.2,2112850.0,-83.40888,67.3373
1000.0,1266738.0,-88.86175,67.3526
2154.4,531581.0,-84.31085,67.3342
4641.6,265761.0,-83.90587,67.3371
10000.0,131052.5,-87.29607,67.3474
