Frequency,Impedance,Phase Angle,Temperature (Dry Bath)
10.0,20190850.0,-5.573325,68.2039
21.5,16475780.0,-32.67359,68.1971
46.4,20174920.0,-42.05803,68.1971
100.0,6326318.0,-41.19721,68.1934
215.4,4366007.0,-97.77441,68.1952
464.2,2465987.0,-80.24669,68.2051
1000.0,1404472.0,-81.0981,68.2008
2154.4,623476.4,-81.65976,68.1971
4641.6,306541.1,-86.023,68.1947
10000.0,137350.5,-98.0541,68.1925
