Frequency,Impedance,Phase Angle,Temperature (Dry Bath)
10.0,14277090.0,-11.16862,67.95
21.5,21773630.0,-22.87197,67.9622
46.4,24199040.0,-39.82524,67.965
100.0,4499045.0,-62.99084,67.9475
215.4,5365401.0,-86.60202,67.9604
464.2,3098558.0,-66.1161,67.9426
1000.0,1451725.0,-91.2078,67.9736
2154.4,695710.6,-88.68255,67.9601
4641.6,321136.2,-94.47478,67.9527
10000.0,152764.8,-97.28212,67.9675
