Frequency,Impedance,Phase Angle,Temperature (Dry Bath)
10.0,592481.6,-27.03112,71.3808
21.544346900318832,470173.4,-26.22702,71.4067
46.41588833612777,391043.4,-22.38145,71.4046
100.0,408905.3,-6.937062,71.3894
215.44346900318823,56167.71,164.906,71.3896
464.15888336127773,200359.6,-23.03951,71.3777
1000.0,164145.2,-36.54724,71.3834
2154.4346900318824,113300.6,-45.41354,71.3944
4641.588833612777,90461.61,-52.65153,71.4079
10000.0,55395.82,-61.64055,71.3927
