Frequency,Impedance,Phase Angle,Temperature (Dry Bath)
10.0,3110807.0,-11.02157,67.8984
21.5,2885380.0,-9.550062,67.9164
46.4,2468274.0,-12.0838,67.9037
100.0,1892931.0,-21.31811,67.9005
215.4,2062289.0,-17.55664,67.914
464.2,1490677.0,-41.28418,67.9024
1000.0,1048832.0,-60.74737,67.9141
2154.4,615919.0,-71.96243,67.8919
4641.6,299535.8,-86.57791,67.9119
10000.0,134246.1,-91.58206,67.9053
