Frequency,Impedance,Phase Angle,Temperature (Dry Bath)
10.0,1420262.0,-15.20504,68.2041
21.5,1242398.0,-13.21504,68.2294
46.4,1080982.0,-13.41363,68.2264
100.0,982222.8,-10.8941,68.2302
215.4,1002211.0,-13.37634,68.2312
464.2,953005.4,-29.76897,68.232
1000.0,683124.0,-40.37695,68.2368
2154.4,498993.9,-56.9073,68.2288
4641.6,248299.3,-73.37528,68.2325
10000.0,133562.0,-91.32706,68.2425
