Frequency,Impedance,Phase Angle,Temperature (Dry Bath)
10.0,131281.1,-3.78029,67.202
21.5,128583.9,-3.412995,67.2209
46.4,125448.3,-3.043106,67.2045
100.0,119561.3,-3.720313,67.2098
215.4,102498.9,-1.780301,67.1996
464.2,117992.0,-6.491815,67.2082
1000.0,114212.9,-10.80435,67.2273
2154.4,106494.1,-15.1635,67.2005
4641.6,92440.05,-27.05274,67.2113
10000.0,71548.56,-42.74428,67.2202
