Frequency,Impedance,Phase Angle,Temperature (Dry Bath)
10.0,7235731.0,20.1862,71.2785
21.544346900318832,5741132.0,-7.473081,71.2876
46.41588833612777,5815270.0,-7.285112,71.281
100.0,488357.4,-107.6777,71.284
215.44346900318823,67680.14,134.4944,71.2976
464.15888336127773,582739.3,11.87892,71.2803
1000.0,420960.3,-89.20854,71.2799
2154.4346900318824,502742.8,-122.3247,71.2865
4641.588833612777,171064.7,-102.52,71.2754
10000.0,62879.96,-84.54895,71.3046
