Frequency,Impedance,Phase Angle,Temperature (Dry Bath)
10.0,1544289.0,-18.91396,67.2836
21.5,1347639.0,-16.04194,67.2877
46.4,1218884.0,-15.31886,67.2714
100.0,963396.6,-16.91209,67.3087
215.4,907934.3,-24.98639,67.2825
464.2,909561.4,-28.35026,67.2904
1000.0,696491.4,-44.11392,67.2717
2154.4,430205.5,-63.38823,67.2876
4641.6,223609.5,-74.34567,67.2884
10000.0,110316.3,-80.34307,67.2817
