Frequency,Impedance,Phase Angle,Temperature (Dry Bath)
10.0,25267320.0,-16.9081,67.4932
21.5,26560990.0,-45.29104,67.5079
46.4,16502290.0,-59.15054,67.4884
100.0,5823444.0,-133.763,67.4983
215.4,9703297.0,-156.7862,67.5101
464.2,2114319.0,-84.72363,67.5045
1000.0,1301632.0,-81.91646,67.5027
2154.4,539619.2,-85.65863,67.5083
4641.6,256373.5,-83.17047,67.4953
10000.0,125081.2,-83.62044,67.4923
