Frequency,Impedance,Phase Angle,Temperature (Dry Bath)
10.0,1461785.0,-17.12553,67.4124
21.5,1304724.0,-15.67182,67.4228
46.4,1163924.0,-14.93974,67.4286
100.0,1180796.0,-17.69089,67.431
215.4,318520.3,-47.52925,67.4228
464.2,718934.1,-36.84654,67.4355
1000.0,720976.7,-47.25143,67.4269
2154.4,427977.7,-63.46574,67.4318
4641.6,221958.8,-73.03163,67.4352
10000.0,110840.1,-79.04961,67.4413
