Frequency,Impedance,Phase Angle,Temperature (Dry Bath)
10.0,5461087.0,-2.261587,67.1
21.544346900318832,7576535.0,10.9481,67.1
46.41588833612777,8101222.0,-4.655687,67.1
100.0,1138733.0,20.77012,67.1
215.44346900318823,1956014.0,-9.438488,67.1
464.15888336127773,5457249.0,33.92544,67.1
1000.0,1804969.0,-111.3127,67.1
2154.4346900318824,1692986.0,-28.38033,67.1
4641.588833612777,911367.9,-64.52444,67.1
10000.0,1036976.0,-57.63839,67.1
