Frequency,Impedance,Phase Angle,Temperature (Dry Bath)
10.0,8304326.0,43.47286,65.7769
21.544346900318832,4021710.0,-14.86245,65.7654
46.41588833612777,4201976.0,-18.75038,65.7692
100.0,1933264.0,-55.98418,65.7708
215.44346900318823,6039.309,106.4191,65.7771
464.15888336127773,1320598.0,-54.22378,65.7605
1000.0,533047.5,-128.2769,65.7604
2154.4346900318824,165411.5,-76.83339,65.775
4641.588833612777,135132.3,-75.84701,65.7603
10000.0,58102.13,-86.80969,65.7542
