Frequency,Impedance,Phase Angle,Temperature (Dry Bath)
10.0,30330750.0,-9.950715,67.0672
21.5,28140060.0,-27.6869,67.0674
46.4,19489110.0,-45.77792,67.0624
100.0,2896026.0,-37.45516,67.0668
215.4,4142337.0,-85.41886,67.0762
464.2,2585744.0,-103.72,67.0774
1000.0,1018142.0,-88.86929,67.0796
2154.4,532163.8,-91.4924,67.0768
4641.6,256317.0,-85.51868,67.0746
10000.0,123895.6,-86.3232,67.0838
