Frequency,Impedance,Phase Angle,Temperature (Dry Bath)
10.0,1431549.0,-17.45645,67.4309
21.5,1298695.0,-15.22448,67.4187
46.4,1149492.0,-17.04835,67.4141
100.0,971718.2,-11.15087,67.4245
215.4,184243.4,-12.06934,67.4203
464.2,875367.8,-25.78724,67.4172
1000.0,721604.2,-45.46951,67.4148
2154.4,425940.5,-63.41077,67.4225
4641.6,229546.1,-71.38011,67.4257
10000.0,110321.0,-78.27436,67.4333
