Frequency,Impedance,Phase Angle,Temperature (Dry Bath)
10.0,6523940.0,-24.67644,71.3031
21.544346900318832,6829895.0,12.14784,71.3304
46.41588833612777,4101734.0,-28.37794,71.3088
100.0,846379.8,-30.12809,71.323
215.44346900318823,1043267.0,16.61682,71.3149
464.15888336127773,730305.1,-61.33412,71.3136
1000.0,822826.0,-134.5398,71.316
2154.4346900318824,621744.0,-107.1207,71.3193
4641.588833612777,207816.9,-74.82,71.3278
10000.0,127883.4,-84.3092,71.3218
