Frequency,Impedance,Phase Angle,Temperature (Dry Bath)
10.0,18300600.0,-16.65711,68.1889
21.5,19353730.0,-42.50336,68.1909
46.4,28443300.0,-41.85689,68.1897
100.0,5142644.0,-51.23107,68.1969
215.4,7457380.0,-64.38198,68.1749
464.2,2711168.0,-69.85456,68.1914
1000.0,1472036.0,-92.79277,68.1898
2154.4,704142.0,-83.2205,68.1817
4641.6,364094.9,-90.2249,68.1834
10000.0,151196.7,-96.07474,68.1861
