Frequency,Impedance,Phase Angle,Temperature (Dry Bath)
10.0,19747410.0,-17.05753,68.1413
21.5,14432660.0,-24.43075,68.1183
46.4,14362460.0,-43.75666,68.1344
100.0,4926122.0,-23.8787,68.1312
215.4,9859470.0,-85.64102,68.1179
464.2,2461601.0,-70.52332,68.1253
1000.0,1406437.0,-80.6442,68.1268
2154.4,671979.0,-89.28824,68.125
4641.6,306244.1,-94.35661,68.129
10000.0,143221.4,-97.35508,68.1245
