Frequency,Impedance,Phase Angle,Temperature (Dry Bath)
10.0,22880170.0,-17.60794,68.1744
21.5,34090840.0,-41.55287,68.1703
46.4,27939970.0,-50.12369,68.1945
100.0,7416442.0,-19.74383,68.1968
215.4,3684000.0,-74.32171,68.1884
464.2,2073889.0,-81.00406,68.1775
1000.0,1232332.0,-81.54979,68.1902
2154.4,584013.3,-83.29081,68.1863
4641.6,268405.6,-87.16517,68.1971
10000.0,140614.0,-97.94311,68.1839
