Frequency,Impedance,Phase Angle,Temperature (Dry Bath)
10.0,110037.2,-15.18505,67.9775
21.5,98327.0,-13.09807,67.9665
46.4,89937.64,-11.68616,67.9529
100.0,81938.32,-10.64565,67.9717
215.4,76792.75,-9.652618,67.9875
464.2,72245.49,-9.526365,67.9777
1000.0,67853.83,-12.25028,67.9866
2154.4,64977.78,-14.09167,67.9676
4641.6,57164.95,-19.64587,67.9939
10000.0,49267.7,-31.21592,67.9886
