Frequency,Impedance,Phase Angle,Temperature (Dry Bath)
10.0,3649661.0,-5.952444,67.1
21.544346900318832,3911383.0,9.681132,67.1
46.41588833612777,6125395.0,10.50617,67.1
100.0,2168949.0,-97.53097,67.1
215.44346900318823,1747058.0,-8.244281,67.1
464.15888336127773,3269508.0,-93.81395,67.1
1000.0,2662995.0,-96.7805,67.1
2154.4346900318824,8492926.0,137.5818,67.1
4641.588833612777,766296.0,-8.945525,67.1
10000.0,1759729.0,-122.6503,67.1
