Frequency,Impedance,Phase Angle,Temperature (Dry Bath)
10.0,1696479.0,-16.16371,65.8334
21.544346900318832,1454351.0,-22.05049,65.8182
46.41588833612777,1302755.0,-19.64774,65.8258
100.0,967223.6,-46.9637,65.8407
215.44346900318823,477614.7,-28.42161,65.8323
464.15888336127773,430159.6,-70.45799,65.8317
1000.0,589855.9,-138.0348,65.8453
2154.4346900318824,215721.2,-26.84272,65.8349
4641.588833612777,137661.9,-68.85328,65.8429
10000.0,69071.88,-82.36733,65.8453
