Frequency,Impedance,Phase Angle,Temperature (Dry Bath)
10.0,117477.7,-3.234502,67.3677
21.5,115273.1,-2.660113,67.3642
46.4,113445.9,-2.626985,67.3789
100.0,112443.1,-1.691593,67.3766
215.4,92733.09,14.00061,67.3844
464.2,107461.1,-4.575825,67.3811
1000.0,104634.1,-8.464634,67.3713
2154.4,99593.71,-13.8876,67.3793
4641.6,89778.42,-24.47435,67.383
10000.0,69914.39,-42.01655,67.3805
