Frequency,Impedance,Phase Angle,Temperature (Dry Bath)
10.0,120223.1,-15.34273,71.1111
21.544346900318832,106721.0,-13.59122,71.0911
46.41588833612777,96056.02,-11.94413,71.1065
100.0,83911.19,-6.076098,71.0972
215.44346900318823,74499.82,-8.685238,71.1022
464.15888336127773,73577.48,-11.66908,71.1114
1000.0,67755.36,-19.36993,71.0909
2154.4346900318824,70719.83,-15.98819,71.1069
4641.588833612777,52263.53,-30.73099,71.0923
10000.0,42169.48,-45.08137,71.1102
