Frequency,Impedance,Phase Angle,Temperature (Dry Bath)
10.0,53583.96,-33.86696,67.4896
21.5,41263.85,-29.74517,67.4717
46.4,33351.68,-25.71016,67.4867
100.0,27773.32,-21.37111,67.4684
215.4,29975.27,-14.25714,67.5037
464.2,21849.92,-15.37432,67.4778
1000.0,19649.92,-13.37272,67.4811
2154.4,18085.16,-12.1882,67.4842
4641.6,16726.48,-12.10053,67.4938
10000.0,15479.11,-14.16492,67.4861
