Frequency,Impedance,Phase Angle,Temperature (Dry Bath)
10.0,238440.9,-23.05643,67.028
21.5,201454.1,-20.40823,67.0268
46.4,173914.2,-17.83382,67.0305
100.0,153957.3,-16.37622,67.021
215.4,139254.2,-15.20475,67.0381
464.2,127165.4,-15.10628,67.0231
1000.0,113326.5,-17.15564,67.0483
2154.4,100443.0,-22.67865,67.036
4641.6,82219.89,-31.64269,67.0292
10000.0,62317.49,-42.71481,67.0433
