Frequency,Impedance,Phase Angle,Temperature (Dry Bath)
10.0,1446463.0,-18.20992,67.133
21.5,1304869.0,-15.71176,67.1402
46.4,1225522.0,-10.89773,67.1356
100.0,921824.9,-18.27426,67.1369
215.4,412661.5,-35.08966,67.1405
464.2,922376.3,-29.17735,67.1281
1000.0,720659.6,-39.01415,67.1181
2154.4,425244.1,-60.88356,67.1368
4641.6,241257.6,-73.70177,67.1398
10000.0,111315.3,-79.63491,67.1169
