Frequency,Impedance,Phase Angle,Temperature (Dry Bath)
10.0,24947930.0,-28.97871,68.0692
21.5,31002900.0,-27.2038,68.0692
46.4,34692440.0,-48.59897,68.0692
100.0,5189857.0,-62.26629,68.0692
215.4,4268641.0,-63.42115,68.0692
464.2,2489751.0,-78.44658,68.0692
1000.0,1222787.0,-80.39572,68.0692
2154.4,643152.3,-86.84005,68.0692
4641.6,313597.5,-91.37195,68.0692
10000.0,130350.5,-94.6467,68.0692
