Frequency,Impedance,Phase Angle,Temperature (Dry Bath)
10.0,27052560.0,1.321739,68.0465
21.5,16742020.0,-27.94134,68.039
46.4,24012540.0,-50.66625,68.0304
100.0,6734272.0,-78.24965,68.0439
215.4,5351850.0,-83.19146,68.0439
464.2,1971021.0,-86.09777,68.0496
1000.0,1279543.0,-86.32623,68.0507
2154.4,637568.2,-88.42747,68.0513
4641.6,313417.8,-87.52682,68.0426
10000.0,150225.5,-99.79024,68.0572
