Frequency,Impedance,Phase Angle,Temperature (Dry Bath)
10.0,32634120.0,-22.04247,68.1762
21.5,30199090.0,-43.60671,68.1894
46.4,22899140.0,-47.06265,68.198
100.0,5046463.0,-20.84724,68.1854
215.4,6656296.0,-64.41738,68.1782
464.2,2696330.0,-94.98937,68.188
1000.0,1213196.0,-82.2914,68.1747
2154.4,638875.9,-84.78263,68.1903
4641.6,308263.4,-89.98526,68.1659
10000.0,145968.2,-91.48081,68.1809
