Frequency,Impedance,Phase Angle,Temperature (Dry Bath)
10.0,25119850.0,-34.64862,67.3409
21.5,19482190.0,-40.48112,67.3308
46.4,16598640.0,-59.52802,67.33
100.0,4710334.0,-64.19727,67.3482
215.4,3760821.0,-46.71494,67.3441
464.2,2418049.0,-72.61381,67.3627
1000.0,1266493.0,-76.05753,67.3492
2154.4,553062.4,-82.47331,67.3506
4641.6,261174.6,-81.4674,67.3245
10000.0,127299.0,-85.73513,67.354
