Frequency,Impedance,Phase Angle,Temperature (Dry Bath)
10.0,205432.2,-23.61456,67.293
21.5,172086.9,-20.62963,67.289
46.4,148877.4,-17.62759,67.3143
100.0,131444.3,-16.77227,67.2925
215.4,120189.4,-15.43002,67.3169
464.2,110027.4,-13.40976,67.3198
1000.0,100265.3,-15.67533,67.3154
2154.4,90485.33,-19.47076,67.3217
4641.6,76398.13,-27.80598,67.322
10000.0,59014.15,-39.42726,67.3044
