Frequency,Impedance,Phase Angle,Temperature (Dry Bath)
10.0,411344.1,-25.05758,65.8658
21.544346900318832,320959.0,-24.33793,65.8741
46.41588833612777,268845.0,-23.57229,65.8781
100.0,199333.1,-24.90023,65.8739
215.44346900318823,25892.75,145.9314,65.8771
464.15888336127773,177383.0,-19.60354,65.8898
1000.0,129764.0,-23.39405,65.8831
2154.4346900318824,92865.87,-41.55604,65.8703
4641.588833612777,78109.79,-46.56379,65.8804
10000.0,51067.98,-63.15785,65.8693
