Frequency,Impedance,Phase Angle,Temperature (Dry Bath)
10.0,197913.1,-23.71473,67.4611
21.5,165419.8,-20.49313,67.4425
46.4,143173.1,-17.79506,67.452
100.0,127114.9,-14.91037,67.4511
215.4,114830.5,-10.91941,67.4474
464.2,106975.6,-13.55502,67.4462
1000.0,95771.58,-14.86148,67.4417
2154.4,86200.55,-19.52486,67.4577
4641.6,75118.04,-27.25904,67.4387
10000.0,58822.95,-38.57872,67.4473
