Frequency,Impedance,Phase Angle,Temperature (Dry Bath)
10.0,95591.04,-3.031724,67.0473
21.5,93799.73,-2.496267,67.0248
46.4,92395.36,-2.466564,67.041
100.0,89740.32,-2.748987,67.0377
215.4,89349.56,-2.444836,67.0388
464.2,88458.27,-4.904925,67.0492
1000.0,86793.47,-5.763434,67.0477
2154.4,83474.06,-12.04117,67.0369
4641.6,77648.23,-20.78803,67.0366
10000.0,61908.42,-36.5961,67.0504
