Frequency,Impedance,Phase Angle,Temperature (Dry Bath)
10.0,8034732.0,-1.564111,71.478
21.544346900318832,9398255.0,17.01182,71.4693
46.41588833612777,5147200.0,-8.890853,71.4894
100.0,965983.5,-29.88192,71.4781
215.44346900318823,495858.4,-81.21341,71.4901
464.15888336127773,761436.8,112.2998,71.484
1000.0,2097549.0,-57.88377,71.4807
2154.4346900318824,512063.9,-47.42352,71.4864
4641.588833612777,264366.2,-106.9219,71.5012
10000.0,131913.7,-89.79436,71.4778
