Frequency,Impedance,Phase Angle,Temperature (Dry Bath)
10.0,24174110.0,-12.37171,68.1619
21.5,20973700.0,-26.26896,68.1542
46.4,22866110.0,-47.71539,68.131
100.0,7027995.0,-4.083142,68.1511
215.4,5608894.0,-29.94597,68.1604
464.2,2260942.0,-78.89364,68.163
1000.0,1234341.0,-84.01498,68.1393
2154.4,662516.4,-89.26266,68.1514
4641.6,301450.7,-90.81853,68.1504
10000.0,142218.8,-94.01011,68.1622
