Frequency,Impedance,Phase Angle,Temperature (Dry Bath)
10.0,3094926.0,-17.04136,66.3619
21.544346900318832,1961047.0,-18.69054,66.3623
46.41588833612777,1918398.0,-22.23052,66.3622
100.0,270969.0,-13.52948,66.3584
215.44346900318823,593376.1,-122.9301,66.3585
464.15888336127773,578677.5,-39.08388,66.3539
1000.0,705616.8,75.81148,66.3587
2154.4346900318824,334778.7,-75.1351,66.3658
4641.588833612777,140319.9,-82.18589,66.3526
10000.0,64929.35,-82.27275,66.3608
