Frequency,Impedance,Phase Angle,Temperature (Dry Bath)
10.0,27735810.0,-2.610819,67.8099
21.5,31950020.0,-23.14978,67.8185
46.4,29123500.0,-51.30601,67.8103
100.0,21447260.0,-46.50473,67.8149
215.4,3269739.0,-89.33507,67.8195
464.2,3503453.0,-85.54449,67.8151
1000.0,1277709.0,-87.41882,67.8216
2154.4,622080.7,-87.10887,67.8323
4641.6,287961.1,-97.34424,67.8327
10000.0,131846.7,-95.20665,67.8326
