Frequency,Impedance,Phase Angle,Temperature (Dry Bath)
10.0,21722450.0,-12.49034,68.1748
21.5,14650780.0,-36.3721,68.1679
46.4,12789290.0,-43.31158,68.1619
100.0,7770783.0,-13.84552,68.1704
215.4,3660143.0,-107.558,68.1697
464.2,2513216.0,-87.26963,68.1632
1000.0,1428030.0,-83.67474,68.1657
2154.4,704024.6,-85.84855,68.1568
4641.6,298009.0,-92.16688,68.1576
10000.0,148596.7,-98.87806,68.1657
