Frequency,Impedance,Phase Angle,Temperature (Dry Bath)
10.0,1669677.0,-19.05008,67.2882
21.5,1452687.0,-17.02926,67.2783
46.4,1298030.0,-16.55216,67.3019
100.0,1271688.0,-11.07158,67.3136
215.4,1271005.0,1.60637,67.2845
464.2,911408.7,-29.8477,67.2769
1000.0,688305.9,-47.24506,67.2883
2154.4,498977.6,-58.2883,67.3042
4641.6,252635.3,-71.85955,67.279
10000.0,124875.6,-79.39208,67.3054
