Frequency,Impedance,Phase Angle,Temperature (Dry Bath)
10.0,2739837.0,-12.79101,66.2488
21.544346900318832,1973952.0,-15.34453,66.2245
46.41588833612777,2197349.0,-25.43611,66.2633
100.0,1189413.0,-24.77296,66.2484
215.44346900318823,309016.4,45.76019,66.2525
464.15888336127773,2881942.0,-76.59331,66.2495
1000.0,501684.8,-39.43812,66.2427
2154.4346900318824,240098.1,-70.71187,66.2299
4641.588833612777,139292.5,-100.269,66.2299
10000.0,62814.56,-82.60959,66.234
