Frequency,Impedance,Phase Angle,Temperature (Dry Bath)
10.0,13185040.0,-10.16169,67.7163
21.5,23638580.0,-38.28721,67.719
46.4,30454560.0,-51.03224,67.7196
100.0,7865762.0,-33.1233,67.7098
215.4,5575863.0,-88.33802,67.6996
464.2,3033724.0,-88.88636,67.7118
1000.0,1204461.0,-80.89916,67.7342
2154.4,651400.8,-88.38772,67.7246
4641.6,283606.6,-91.77431,67.7352
10000.0,132875.3,-90.62065,67.7342
