Frequency,Impedance,Phase Angle,Temperature (Dry Bath)
10.0,42830260.0,-26.7016,67.8729
21.5,44599650.0,-35.97472,67.8958
46.4,29995530.0,-54.55491,67.8735
100.0,5994940.0,23.0846,67.8894
215.4,5543760.0,-59.39168,67.8802
464.2,3705489.0,-75.68428,67.8823
1000.0,1227746.0,-85.71174,67.8756
2154.4,618727.2,-80.64193,67.8918
4641.6,284719.9,-89.17122,67.8727
10000.0,136684.4,-95.02997,67.869
