Frequency,Impedance,Phase Angle,Temperature (Dry Bath)
10.0,1597488.0,-13.94432,68.1141
21.5,1447370.0,-14.23159,68.1141
46.4,1223682.0,-13.59054,68.1141
100.0,1104559.0,-16.70855,68.1141
215.4,933783.4,-11.70746,68.1141
464.2,952560.0,-22.10141,68.1141
1000.0,793627.8,-44.57525,68.1141
2154.4,504149.0,-62.27775,68.1141
4641.6,259796.9,-73.48143,68.1141
10000.0,143384.7,-84.03987,68.1141
