Frequency,Impedance,Phase Angle,Temperature (Dry Bath)
10.0,26145050.0,1.37666,67.4932
21.5,26522280.0,-24.78553,67.5062
46.4,30974600.0,-41.73597,67.5014
100.0,4461072.0,-57.96508,67.5092
215.4,134205.6,-40.16751,67.5174
464.2,2180889.0,-85.87636,67.5296
1000.0,1159519.0,-83.85897,67.5021
2154.4,495896.1,-86.29676,67.5261
4641.6,280509.8,-86.37275,67.5093
10000.0,121467.7,-86.87024,67.5045
