Frequency,Impedance,Phase Angle,Temperature (Dry Bath)
10.0,6880018.0,8.822657,71.0921
21.544346900318832,4670950.0,-22.52037,71.0929
46.41588833612777,4213816.0,-10.80698,71.104
100.0,1370340.0,-158.6278,71.0619
215.44346900318823,644726.3,17.21944,71.0818
464.15888336127773,400949.8,-120.6544,71.0779
1000.0,585005.6,178.4097,71.0606
2154.4346900318824,616104.7,-153.6949,71.0798
4641.588833612777,281555.6,-118.9258,71.0619
10000.0,161367.4,-80.44341,71.0778
