Frequency,Impedance,Phase Angle,Temperature (Dry Bath)
10.0,44083550.0,9.094686,67.3476
21.5,31250230.0,-24.59098,67.3537
46.4,14777450.0,-65.14058,67.344
100.0,7012923.0,-147.7323,67.3493
215.4,277142.3,41.59801,67.3587
464.2,5711754.0,-41.51672,67.3539
1000.0,1141006.0,-82.54751,67.3575
2154.4,566886.0,-89.53028,67.3473
4641.6,262295.6,-87.90733,67.3516
10000.0,126091.4,-86.464,67.365
