Frequency,Impedance,Phase Angle,Temperature (Dry Bath)
10.0,26662.53,-13.90565,70.5883
21.544346900318832,24188.33,-11.30304,70.5821
46.41588833612777,22400.12,-9.478512,70.5914
100.0,20662.53,-10.11844,70.5733
215.44346900318823,19787.77,-8.446275,70.5649
464.15888336127773,18771.58,-4.629027,70.5719
1000.0,17788.08,-5.749011,70.5547
2154.4346900318824,17004.8,-6.994351,70.5422
4641.588833612777,15950.13,-11.76458,70.5572
10000.0,15313.89,-17.78012,70.5758
