Frequency,Impedance,Phase Angle,Temperature (Dry Bath)
10.0,35484960.0,-16.43156,68.1816
21.5,26938490.0,-32.37647,68.1844
46.4,32864160.0,-46.35769,68.1672
100.0,9896647.0,3.833766,68.1791
215.4,7474649.0,-108.5929,68.1907
464.2,3429031.0,-69.1069,68.1837
1000.0,1477866.0,-85.79223,68.1851
2154.4,602823.1,-89.4041,68.1809
4641.6,315803.1,-86.28608,68.1667
10000.0,145127.2,-95.22816,68.1794
