Frequency,Impedance,Phase Angle,Temperature (Dry Bath)
10.0,34785.55,-11.72653,70.5164
21.544346900318832,32328.86,-10.07033,70.5284
46.41588833612777,30079.89,-9.484985,70.5066
100.0,27613.18,-8.302248,70.5142
215.44346900318823,25889.7,-8.296094,70.5217
464.15888336127773,25202.17,-9.176939,70.511
1000.0,22655.44,-9.236602,70.4839
2154.4346900318824,21257.69,-12.01348,70.5193
4641.588833612777,20589.21,-14.3558,70.4996
10000.0,18453.92,-23.42679,70.5042
