Frequency,Impedance,Phase Angle,Temperature (Dry Bath)
10.0,37239540.0,-0.1727642,71.5491
21.544346900318832,5138174.0,-16.63402,71.5584
46.41588833612777,4731925.0,-12.75752,71.5527
100.0,620340.1,-68.18599,71.5631
215.44346900318823,375099.7,107.0307,71.5539
464.15888336127773,2159191.0,-3.426179,71.5506
1000.0,554607.6,-106.5512,71.5496
2154.4346900318824,502171.9,-56.29755,71.5506
4641.588833612777,177838.9,-66.42469,71.5356
10000.0,123369.2,-78.92651,71.5479
