Frequency,Impedance,Phase Angle,Temperature (Dry Bath)
10.0,17808660.0,-15.33533,67.7538
21.5,20070850.0,-23.93536,67.7426
46.4,21503260.0,-46.90973,67.7432
100.0,6827237.0,-58.51701,67.7494
215.4,4576796.0,-86.51093,67.7517
464.2,2633637.0,-56.63028,67.7442
1000.0,1199137.0,-85.27223,67.7526
2154.4,566231.9,-84.55472,67.7431
4641.6,271797.9,-88.79643,67.7392
10000.0,137365.8,-94.54005,67.7466
