Frequency,Impedance,Phase Angle,Temperature (Dry Bath)
10.0,4915202.0,-4.217074,67.0979
21.5,4322242.0,-5.328499,67.1169
46.4,4095286.0,-10.36655,67.0947
100.0,3316352.0,-25.63023,67.1046
215.4,3054496.0,-25.645,67.1143
464.2,1927525.0,-47.57374,67.0929
1000.0,1330285.0,-65.23113,67.1094
2154.4,574772.7,-81.80802,67.1009
4641.6,271154.6,-81.59007,67.1018
10000.0,124121.6,-83.69778,67.1125
