Frequency,Impedance,Phase Angle,Temperature (Dry Bath)
10.0,14852780.0,-26.30393,71.0626
21.544346900318832,6597582.0,-38.36034,71.0726
46.41588833612777,3427829.0,-34.79485,71.0659
100.0,795947.4,-70.93991,71.058
215.44346900318823,1127008.0,-82.105,71.066
464.15888336127773,743625.7,159.535,71.0556
1000.0,1110939.0,-82.116,71.0546
2154.4346900318824,299297.9,-81.00301,71.0648
4641.588833612777,144440.2,-79.03624,71.0628
10000.0,63437.72,-94.76848,71.0666
