Frequency,Impedance,Phase Angle,Temperature (Dry Bath)
10.0,3956061.0,-9.689486,67.9479
21.5,3414761.0,-15.57482,67.9563
46.4,4863840.0,-16.18841,67.9563
100.0,2188984.0,-11.03129,67.9553
215.4,2885264.0,-46.33779,67.9487
464.2,2488594.0,-39.40187,67.9426
1000.0,1238477.0,-64.67592,67.9393
2154.4,564882.0,-78.90207,67.9507
4641.6,291697.1,-86.5712,67.9387
10000.0,127433.1,-90.60375,67.9389
