Frequency,Impedance,Phase Angle,Temperature (Dry Bath)
10.0,3925433.0,-5.430056,65.8748
21.544346900318832,5835022.0,-18.53468,65.8789
46.41588833612777,6262220.0,-8.793766,65.86
100.0,872457.2,-135.0019,65.8639
215.44346900318823,5660.207,-37.52655,65.8699
464.15888336127773,743681.4,-50.16511,65.8472
1000.0,337044.6,-114.7482,65.8543
2154.4346900318824,308870.9,-70.27046,65.8726
4641.588833612777,135247.9,-83.83076,65.877
10000.0,64130.09,-82.01361,65.8507
