Frequency,Impedance,Phase Angle,Temperature (Dry Bath)
10.0,3870442.0,19.08274,65.8732
21.544346900318832,8362997.0,-39.75017,65.8681
46.41588833612777,4569291.0,-29.10441,65.8724
100.0,191471.4,-113.6037,65.8713
215.44346900318823,19668.83,-53.67445,65.8642
464.15888336127773,823685.9,-76.61192,65.8824
1000.0,1079326.0,-28.16569,65.8694
2154.4346900318824,192508.1,-87.838,65.8818
4641.588833612777,124831.3,-61.95559,65.8885
10000.0,69140.09,-86.20047,65.8803
