Frequency,Impedance,Phase Angle,Temperature (Dry Bath)
10.0,5188738.0,9.790967,66.5
21.544346900318832,5258603.0,3.302383,66.5
46.41588833612777,4558928.0,1.728769,66.5
100.0,3550669.0,14.1913,66.5
215.44346900318823,3180621.0,-30.42787,66.5
464.15888336127773,3705688.0,-25.20134,66.5
1000.0,8615538.0,-47.21209,66.5
2154.4346900318824,5039201.0,-37.31475,66.5
4641.588833612777,2281716.0,52.09109,66.5
10000.0,2623153.0,-58.0274,66.5
