Frequency,Impedance,Phase Angle,Temperature (Dry Bath)
10.0,34340430.0,-11.71351,67.4338
21.5,24604640.0,-43.62548,67.4476
46.4,17525600.0,-53.15345,67.4244
100.0,10400840.0,10.81621,67.4365
215.4,2663786.0,-70.02832,67.434
464.2,2760209.0,-65.42174,67.4192
1000.0,1038065.0,-84.76353,67.4297
2154.4,566818.2,-85.74723,67.4432
4641.6,252179.7,-84.67623,67.4445
10000.0,122919.3,-83.49073,67.4502
