Frequency,Impedance,Phase Angle,Temperature (Dry Bath)
10.0,224231.3,-23.1045,67.1401
21.5,188245.9,-20.36753,67.1334
46.4,163540.8,-18.13803,67.1374
100.0,144594.4,-15.72163,67.1305
215.4,93835.51,-25.91455,67.1218
464.2,119937.4,-13.5245,67.1284
1000.0,109137.2,-16.44984,67.1428
2154.4,94986.85,-21.29259,67.1325
4641.6,81272.49,-29.54782,67.141
10000.0,60958.6,-42.34967,67.1349
