Frequency,Impedance,Phase Angle,Temperature (Dry Bath)
10.0,28139810.0,-17.03048,67.6769
21.5,31070200.0,-35.71503,67.6789
46.4,34875370.0,-35.8166,67.6931
100.0,5762885.0,-1.966408,67.6948
215.4,4516736.0,-62.72348,67.6933
464.2,2820024.0,-88.74344,67.6901
1000.0,1393747.0,-83.34651,67.6838
2154.4,715327.9,-90.7092,67.6779
4641.6,303925.8,-89.93352,67.691
10000.0,150937.0,-94.97125,67.6712
