Frequency,Impedance,Phase Angle,Temperature (Dry Bath)
10.0,21123720.0,-32.3287,67.9066
21.5,26984100.0,-22.72426,67.9273
46.4,25932950.0,-46.92839,67.9114
100.0,4868293.0,-22.57849,67.9237
215.4,5775567.0,-64.24562,67.9242
464.2,2923066.0,-54.0144,67.9212
1000.0,1546195.0,-92.26068,67.9236
2154.4,800353.1,-85.50223,67.9038
4641.6,296654.9,-92.05109,67.9194
10000.0,157915.4,-97.72543,67.9217
