Frequency,Impedance,Phase Angle,Temperature (Dry Bath)
10.0,165495.4,-13.76193,70.9935
21.544346900318832,148832.2,-13.7217,70.9932
46.41588833612777,135867.3,-13.15458,70.9836
100.0,108378.5,-6.089592,71.0057
215.44346900318823,108017.9,-23.4562,70.9861
464.15888336127773,106141.8,-17.50066,70.9903
1000.0,63934.27,-13.27505,71.0069
2154.4346900318824,84183.05,-8.34139,70.994
4641.588833612777,84891.64,-16.14982,71.0015
10000.0,58146.02,-28.05848,71.0014
