Frequency,Impedance,Phase Angle,Temperature (Dry Bath)
10.0,21515960.0,-16.55015,67.3233
21.5,24824360.0,-30.22473,67.3136
46.4,18133220.0,-51.00028,67.3384
100.0,3789737.0,-71.7094,67.3162
215.4,5034010.0,-21.81442,67.3431
464.2,2776398.0,-89.84242,67.3208
1000.0,1438511.0,-88.20291,67.3292
2154.4,604944.7,-90.21431,67.334
4641.6,268757.1,-87.93471,67.3367
10000.0,133096.8,-86.48444,67.3348
