Frequency,Impedance,Phase Angle,Temperature (Dry Bath)
10.0,112254.5,-4.193691,67.0274
21.5,110055.6,-3.510436,67.0372
46.4,108506.9,-3.598154,67.0133
100.0,105851.8,-4.212381,67.0247
215.4,107549.4,-4.486714,67.0087
464.2,106241.2,-6.401462,67.0082
1000.0,99110.17,-8.805322,67.0106
2154.4,94535.92,-13.43939,67.0035
4641.6,85055.07,-24.26146,67.0297
10000.0,67967.58,-39.21543,67.0161
