Frequency,Impedance,Phase Angle,Temperature (Dry Bath)
10.0,5283777.0,0.9087258,71.4762
21.544346900318832,6239721.0,13.24025,71.4645
46.41588833612777,3967469.0,-14.1356,71.4693
100.0,6543419.0,177.0549,71.4746
215.44346900318823,2787975.0,24.91336,71.4839
464.15888336127773,1050410.0,127.9526,71.4746
1000.0,816392.4,-65.74203,71.4732
2154.4346900318824,400839.3,-65.45216,71.4716
4641.588833612777,293818.7,-62.43129,71.4813
10000.0,148939.6,-81.03538,71.4624
