Frequency,Impedance,Phase Angle,Temperature (Dry Bath)
10.0,32060920.0,-13.97083,67.267
21.5,35699290.0,-40.30068,67.274
46.4,17098050.0,-61.02848,67.2666
100.0,7035671.0,-26.99973,67.2806
215.4,4186596.0,-17.98751,67.289
464.2,2836701.0,-87.89857,67.282
1000.0,1249544.0,-83.92724,67.2766
2154.4,556003.8,-90.94822,67.2735
4641.6,257202.6,-86.02409,67.2927
10000.0,122622.9,-86.63285,67.2887
