Frequency,Impedance,Phase Angle,Temperature (Dry Bath)
10.0,17534820.0,-34.63202,67.9687
21.5,21628320.0,-27.7623,67.9687
46.4,31190410.0,-41.09844,67.9687
100.0,9693059.0,-18.94603,67.9687
215.4,10367180.0,-60.7904,67.9687
464.2,3154669.0,-78.78725,67.9687
1000.0,1436439.0,-79.96501,67.9687
2154.4,672480.5,-89.42624,67.9687
4641.6,325098.2,-87.13017,67.9687
10000.0,154178.3,-99.02797,67.9687
