Frequency,Impedance,Phase Angle,Temperature (Dry Bath)
10.0,2034710.0,-9.818313,68.1902
21.5,1910732.0,-11.90478,68.1774
46.4,1747052.0,-13.46823,68.1579
100.0,1343652.0,-16.73783,68.1774
215.4,1539309.0,-16.14165,68.1801
464.2,1295323.0,-32.53218,68.1676
1000.0,832076.6,-45.44684,68.1676
2154.4,534302.5,-62.90261,68.1762
4641.6,300836.5,-75.85015,68.1774
10000.0,143055.6,-90.92779,68.1736
