Frequency,Impedance,Phase Angle,Temperature (Dry Bath)
10.0,13806730.0,-8.759848,68.178
21.5,17427730.0,-19.25815,68.1845
46.4,12583680.0,-39.46873,68.1853
100.0,6910712.0,-98.55464,68.1689
215.4,7377199.0,-79.6008,68.1884
464.2,2634768.0,-85.84419,68.1735
1000.0,1309488.0,-90.5306,68.1682
2154.4,713806.9,-87.46296,68.1895
4641.6,303548.3,-90.86674,68.1877
10000.0,149823.6,-92.85959,68.1765
