Frequency,Impedance,Phase Angle,Temperature (Dry Bath)
10.0,26486570.0,-5.406387,68.2981
21.5,26917050.0,-10.17705,68.2969
46.4,30752390.0,-47.36695,68.303
100.0,4697512.0,-2.001872,68.2851
215.4,8380523.0,-74.00794,68.3068
464.2,3413477.0,-90.53113,68.3018
1000.0,1290200.0,-84.19215,68.2773
2154.4,700338.3,-87.85497,68.2969
4641.6,331105.7,-95.69928,68.2991
10000.0,158451.7,-99.83974,68.2858
