Frequency,Impedance,Phase Angle,Temperature (Dry Bath)
10.0,4496824.0,-5.321121,70.5924
21.544346900318832,4284267.0,-10.46595,70.5865
46.41588833612777,4522548.0,-29.6333,70.6006
100.0,921427.2,64.69085,70.5979
215.44346900318823,412874.0,-106.5184,70.5937
464.15888336127773,505295.0,-89.44166,70.6003
1000.0,208022.1,-100.052,70.595
2154.4346900318824,318203.0,-83.82467,70.5831
4641.588833612777,198124.6,-100.4073,70.6022
10000.0,58281.85,-93.01941,70.5966
