Frequency,Impedance,Phase Angle,Temperature (Dry Bath)
10.0,23231070.0,-20.59887,67.29
21.5,27801770.0,-38.03598,67.305
46.4,18270040.0,-53.52246,67.2921
100.0,3525181.0,-62.44522,67.319
215.4,9325296.0,-39.49617,67.303
464.2,2599094.0,-81.04002,67.3101
1000.0,1060518.0,-77.47935,67.2944
2154.4,520959.1,-89.68876,67.318
4641.6,252691.7,-86.33359,67.3221
10000.0,123994.5,-86.20311,67.3159
