Frequency,Impedance,Phase Angle,Temperature (Dry Bath)
10.0,25185720.0,-17.06459,66.9432
21.5,26605280.0,-33.43849,66.9285
46.4,17759120.0,-49.40157,66.9288
100.0,20488380.0,-60.88122,66.9233
215.4,195873.7,150.9069,66.9374
464.2,2374625.0,-69.1869,66.9236
1000.0,1006668.0,-90.24751,66.9274
2154.4,518606.2,-85.94062,66.9288
4641.6,254678.9,-85.40251,66.9204
10000.0,123073.9,-86.80548,66.914
