Frequency,Impedance,Phase Angle,Temperature (Dry Bath)
10.0,31195720.0,-27.25857,67.5053
21.5,23603840.0,-19.32426,67.5106
46.4,19803630.0,-62.27259,67.4959
100.0,6409116.0,-79.07544,67.5173
215.4,10233160.0,1.742913,67.4991
464.2,1711578.0,-97.68475,67.4923
1000.0,1114499.0,-78.87433,67.5079
2154.4,532850.1,-89.60887,67.5134
4641.6,259580.9,-86.42266,67.493
10000.0,126539.7,-83.91045,67.5069
