Frequency,Impedance,Phase Angle,Temperature (Dry Bath)
10.0,1517176.0,-16.47512,68.0509
21.5,1397506.0,-15.05896,68.0621
46.4,1197301.0,-13.32424,68.0525
100.0,1016429.0,-12.1277,68.0317
215.4,981155.4,-17.97088,68.0501
464.2,840747.7,-19.62432,68.0557
1000.0,784645.1,-38.58475,68.0567
2154.4,521456.8,-58.10918,68.0504
4641.6,270403.6,-74.22067,68.0449
10000.0,141200.3,-88.42238,68.0546
