Frequency,Impedance,Phase Angle,Temperature (Dry Bath)
10.0,176109.3,-11.42741,65.7314
21.544346900318832,159332.4,-11.41505,65.7408
46.41588833612777,147130.5,-10.45641,65.7404
100.0,138562.4,11.62305,65.7418
215.44346900318823,12170.96,5.002852,65.7114
464.15888336127773,123003.9,-4.872354,65.7183
1000.0,118926.4,-13.43444,65.7055
2154.4346900318824,100138.3,-20.49089,65.7178
4641.588833612777,76266.97,-33.6015,65.717
10000.0,50611.28,-53.59031,65.7012
