Frequency,Impedance,Phase Angle,Temperature (Dry Bath)
10.0,109651.7,-4.343962,67.0304
21.5,107452.8,-3.600611,67.0347
46.4,105017.2,-3.242708,67.0323
100.0,104728.4,-3.241414,67.0498
215.4,103064.5,-5.036579,67.0353
464.2,101780.4,-6.001017,67.0369
1000.0,97531.47,-9.339843,67.0267
2154.4,93359.02,-14.6552,67.0279
4641.6,84007.92,-23.85391,67.0369
10000.0,66698.4,-38.67024,67.0347
