Frequency,Impedance,Phase Angle,Temperature (Dry Bath)
10.0,7092993.0,27.78241,71.2355
21.544346900318832,4099840.0,-29.24432,71.2146
46.41588833612777,5483551.0,-17.22986,71.2409
100.0,1123754.0,-48.46406,71.2352
215.44346900318823,420393.0,-68.7057,71.203
464.15888336127773,376540.3,-34.2223,71.2393
1000.0,300704.9,-84.38433,71.2326
2154.4346900318824,446131.1,-77.72369,71.2189
4641.588833612777,689536.0,7.764878,71.2176
10000.0,151570.7,-89.90298,71.2241
