Frequency,Impedance,Phase Angle,Temperature (Dry Bath)
10.0,20663940.0,-2.973983,67.783
21.5,30035260.0,-30.43312,67.7855
46.4,26850180.0,-42.88329,67.7576
100.0,5481479.0,-63.1809,67.7588
215.4,6711928.0,-32.77196,67.7625
464.2,2314226.0,-73.87566,67.7749
1000.0,1155135.0,-79.69529,67.7761
2154.4,576281.6,-85.65204,67.7897
4641.6,283906.3,-89.64903,67.7715
10000.0,128137.0,-92.10598,67.775
