Frequency,Impedance,Phase Angle,Temperature (Dry Bath)
10.0,7318411.0,-22.09868,66.4279
21.544346900318832,9439993.0,-26.00649,66.4414
46.41588833612777,6178866.0,-9.884772,66.4454
100.0,5810164.0,134.9959,66.4615
215.44346900318823,2181834.0,105.2958,66.4754
464.15888336127773,3391570.0,-25.09851,66.4726
1000.0,1513862.0,17.86812,66.4566
2154.4346900318824,1956851.0,-83.73897,66.4322
4641.588833612777,20139380.0,-16.87482,66.4544
10000.0,731951.3,-63.68763,66.4728
