Frequency,Impedance,Phase Angle,Temperature (Dry Bath)
10.0,120478.4,-3.349574,67.3332
21.5,118855.0,-3.028785,67.3331
46.4,115936.7,-2.684036,67.3145
100.0,113293.7,-4.464302,67.3305
215.4,115054.9,-5.390112,67.3069
464.2,112632.3,-5.65116,67.3254
1000.0,105643.8,-8.028834,67.3248
2154.4,102029.8,-14.32376,67.3145
4641.6,93226.79,-24.40924,67.3098
10000.0,73109.25,-40.27604,67.3254
