Frequency,Impedance,Phase Angle,Temperature (Dry Bath)
10.0,22238100.0,-29.62516,67.0426
21.5,20873910.0,-38.60664,67.0454
46.4,14272220.0,-64.06754,67.059
100.0,6430816.0,-89.48296,67.0389
215.4,2055296.0,-64.3003,67.0567
464.2,2304160.0,-82.56958,67.0571
1000.0,809476.5,-77.96482,67.0535
2154.4,426440.8,-81.19793,67.0421
4641.6,201112.1,-80.44179,67.0294
10000.0,102865.9,-81.04636,67.0412
