Frequency,Impedance,Phase Angle,Temperature (Dry Bath)
10.0,23046460.0,-5.378252,68.1728
21.5,18201350.0,-22.72792,68.1632
46.4,23189040.0,-48.60523,68.1914
100.0,9176746.0,-39.81509,68.1877
215.4,4644275.0,-67.06548,68.173
464.2,2817556.0,-78.52397,68.184
1000.0,1189235.0,-83.85059,68.1796
2154.4,681390.3,-91.39081,68.1915
4641.6,317537.9,-87.37112,68.1904
10000.0,138430.4,-97.33321,68.1921
