Frequency,Impedance,Phase Angle,Temperature (Dry Bath)
10.0,53474.37,-18.68063,70.9282
21.544346900318832,46413.33,-16.99933,70.9267
46.41588833612777,40839.96,-15.61167,70.913
100.0,36800.18,-10.74082,70.9182
215.44346900318823,31697.5,-11.62513,70.9041
464.15888336127773,28200.24,-9.990675,70.9149
1000.0,27703.07,-10.51729,70.9277
2154.4346900318824,24642.86,-13.23891,70.9138
4641.588833612777,23477.77,-19.89212,70.9251
10000.0,19433.94,-27.24911,70.9105
