Frequency,Impedance,Phase Angle,Temperature (Dry Bath)
10.0,21887170.0,-17.35818,67.2076
21.5,19431020.0,-38.42222,67.2232
46.4,15512400.0,-47.92354,67.2224
100.0,4641507.0,-28.59415,67.2169
215.4,156872.6,153.4117,67.208
464.2,2031366.0,-85.06409,67.2264
1000.0,816755.9,-78.10083,67.2326
2154.4,425229.3,-81.61766,67.224
4641.6,220188.1,-79.95332,67.2213
10000.0,104674.8,-79.57613,67.2212
