Frequency,Impedance,Phase Angle,Temperature (Dry Bath)
10.0,42425520.0,-38.79975,67.2693
21.5,20281190.0,-34.80865,67.2546
46.4,14357340.0,-61.64241,67.2623
100.0,3159328.0,-71.93726,67.2615
215.4,2235271.0,-102.6204,67.2609
464.2,2105464.0,-74.05835,67.2549
1000.0,832093.0,-83.13751,67.2564
2154.4,422181.0,-81.63036,67.2592
4641.6,217152.3,-78.43365,67.259
10000.0,113201.1,-78.81624,67.2747
