Frequency,Impedance,Phase Angle,Temperature (Dry Bath)
10.0,2138244.0,-11.25071,67.9962
21.5,2127840.0,-11.22423,67.9962
46.4,2026654.0,-13.1277,67.9962
100.0,1786785.0,-14.08627,67.9962
215.4,1533420.0,-26.72009,67.9962
464.2,1243321.0,-41.95788,67.9962
1000.0,956457.1,-52.52383,67.9962
2154.4,564825.4,-65.59649,67.9962
4641.6,330708.2,-78.47058,67.9962
10000.0,155212.8,-86.75771,67.9962
