Frequency,Impedance,Phase Angle,Temperature (Dry Bath)
10.0,169271.9,-21.92133,68.2519
21.5,144934.3,-18.84568,68.2341
46.4,127120.7,-16.5315,68.254
100.0,110921.9,-13.93246,68.2598
215.4,103228.3,-12.51494,68.2473
464.2,95116.08,-12.17127,68.2395
1000.0,87902.57,-12.87761,68.2376
2154.4,79729.16,-17.08622,68.2619
4641.6,68269.87,-26.16296,68.2546
10000.0,57492.6,-41.13845,68.2472
