Frequency,Impedance,Phase Angle,Temperature (Dry Bath)
10.0,35083470.0,-17.0657,67.0805
21.5,26798150.0,-27.18549,67.0752
46.4,15343980.0,-54.82912,67.0954
100.0,3771782.0,-42.84981,67.0758
215.4,168095.7,-110.3244,67.0769
464.2,2070313.0,-73.72319,67.0749
1000.0,1014001.0,-84.4889,67.0709
2154.4,580748.8,-87.03217,67.0821
4641.6,263004.6,-87.07615,67.0824
10000.0,126146.7,-87.42877,67.0832
