Frequency,Impedance,Phase Angle,Temperature (Dry Bath)
10.0,104866.7,-25.15164,67.0634
21.5,87258.28,-22.77529,67.0671
46.4,74583.55,-19.77165,67.0712
100.0,66654.05,-16.91525,67.0507
215.4,58295.23,-15.3799,67.0797
464.2,53297.87,-12.81937,67.0561
1000.0,47523.56,-12.92373,67.0711
2154.4,44926.75,-13.02948,67.0631
4641.6,41249.97,-16.04748,67.0672
10000.0,37289.28,-23.75752,67.0739
