Frequency,Impedance,Phase Angle,Temperature (Dry Bath)
10.0,29820330.0,-7.393285,67.0398
21.5,26403650.0,-47.10704,67.0387
46.4,18096190.0,-50.08322,67.0307
100.0,3248093.0,-68.6862,67.03
215.4,2410703.0,-105.7119,67.0302
464.2,2109246.0,-72.32153,67.0366
1000.0,1241144.0,-72.97539,67.0183
2154.4,493069.1,-81.37185,67.0232
4641.6,267909.3,-86.71355,67.0213
10000.0,120376.5,-83.77977,67.016
