Frequency,Impedance,Phase Angle,Temperature (Dry Bath)
10.0,134295.6,-3.769831,67.4062
21.5,131466.0,-3.474289,67.4023
46.4,128373.4,-3.448904,67.4047
100.0,124981.4,-3.497053,67.4083
215.4,104599.5,-5.829499,67.4066
464.2,120252.5,-7.18931,67.3964
1000.0,114344.3,-9.106765,67.401
2154.4,110481.0,-16.50271,67.3941
4641.6,97139.16,-27.77497,67.4128
10000.0,73462.01,-43.69765,67.4072
