Frequency,Impedance,Phase Angle,Temperature (Dry Bath)
10.0,36420.56,-13.62822,71.0296
21.544346900318832,32766.83,-12.38403,71.005
46.41588833612777,29779.96,-11.40532,71.0175
100.0,27436.4,-10.31414,70.9994
215.44346900318823,25426.36,-10.37246,71.0116
464.15888336127773,22822.92,-10.57855,71.0091
1000.0,20848.29,-8.896918,71.012
2154.4346900318824,20589.87,-8.930562,70.9942
4641.588833612777,18929.69,-11.15896,71.014
10000.0,18176.51,-11.44297,71.0017
