Frequency,Impedance,Phase Angle,Temperature (Dry Bath)
10.0,10423080.0,1.016417,71.2088
21.544346900318832,6269445.0,-30.90799,71.2127
46.41588833612777,7946924.0,-6.857985,71.2216
100.0,1556360.0,-66.78151,71.207
215.44346900318823,351702.8,-150.157,71.2474
464.15888336127773,428696.7,-164.1459,71.2319
1000.0,344809.2,-81.26448,71.2264
2154.4346900318824,287194.2,-116.2975,71.2202
4641.588833612777,370489.1,-98.54004,71.2267
10000.0,130609.4,-100.2911,71.2297
