Frequency,Impedance,Phase Angle,Temperature (Dry Bath)
10.0,4401563.0,7.575115,70.9698
21.544346900318832,5207646.0,-21.42145,70.958
46.41588833612777,4552715.0,-24.14427,70.9431
100.0,1500189.0,177.7018,70.9629
215.44346900318823,1198464.0,60.6812,70.9611
464.15888336127773,1010010.0,-30.56452,70.9659
1000.0,511381.2,176.615,70.9692
2154.4346900318824,370573.5,-90.11216,70.9606
4641.588833612777,104986.5,-78.34924,70.976
10000.0,55629.33,-89.89122,70.9588
