Frequency,Impedance,Phase Angle,Temperature (Dry Bath)
10.0,1515979.0,-18.43738,67.1582
21.5,1378657.0,-16.40085,67.1572
46.4,1278398.0,-19.0517,67.1602
100.0,848286.0,-14.37735,67.1496
215.4,960378.1,-0.003703617,67.1617
464.2,969162.6,-33.67901,67.1405
1000.0,708823.8,-40.2374,67.1667
2154.4,419256.1,-62.64318,67.1598
4641.6,222781.9,-74.10829,67.159
10000.0,110696.2,-79.60983,67.1598
