Frequency,Impedance,Phase Angle,Temperature (Dry Bath)
10.0,161348.5,-14.82034,71.0964
21.544346900318832,145546.8,-13.89714,71.1127
46.41588833612777,132387.5,-12.66235,71.0958
100.0,115364.3,-22.666,71.1152
215.44346900318823,158303.8,2.909635,71.0994
464.15888336127773,121844.0,-17.36584,71.1213
1000.0,83760.18,14.07569,71.1123
2154.4346900318824,61810.7,-5.839074,71.1164
4641.588833612777,72619.7,-8.969304,71.1083
10000.0,51178.53,-36.15657,71.124
