Frequency,Impedance,Phase Angle,Temperature (Dry Bath)
10.0,18902010.0,-17.00406,68.0139
21.5,16374500.0,-36.85484,68.0139
46.4,22892380.0,-46.85351,68.0139
100.0,13160540.0,-85.15764,68.0139
215.4,12889300.0,-23.83997,68.0139
464.2,3112899.0,-80.34143,68.0139
1000.0,1400862.0,-90.89731,68.0139
2154.4,675572.0,-92.32972,68.0139
4641.6,296917.0,-91.75296,68.0139
10000.0,145374.8,-94.30583,68.0139
