Frequency,Impedance,Phase Angle,Temperature (Dry Bath)
10.0,201740.1,-23.67194,67.253
21.5,168800.9,-20.61497,67.2535
46.4,145987.8,-17.70481,67.2743
100.0,129514.2,-15.54155,67.2488
215.4,65672.87,-69.70557,67.2475
464.2,107435.6,-13.28476,67.2474
1000.0,98507.0,-14.47092,67.2555
2154.4,88457.46,-19.72144,67.2637
4641.6,75956.12,-27.78961,67.2532
10000.0,58809.63,-39.23633,67.2539
