Frequency,Impedance,Phase Angle,Temperature (Dry Bath)
10.0,29277310.0,-41.73767,67.4681
21.5,18393600.0,-35.10357,67.4587
46.4,15211880.0,-52.25169,67.4376
100.0,3346817.0,-64.99742,67.435
215.4,1590481.0,-93.47783,67.4199
464.2,1623914.0,-77.85128,67.42
1000.0,1018860.0,-82.76106,67.4155
2154.4,450466.8,-85.70099,67.4211
4641.6,205868.9,-83.17544,67.4081
10000.0,106258.7,-81.26428,67.4076
