Frequency,Impedance,Phase Angle,Temperature (Dry Bath)
10.0,876033.9,-10.43617,71.1385
21.544346900318832,907057.1,-6.352792,71.1491
46.41588833612777,899173.3,-6.987916,71.1336
100.0,620145.8,-91.87574,71.1303
215.44346900318823,624945.9,32.60708,71.1399
464.15888336127773,1599609.0,-39.56653,71.1273
1000.0,449115.7,86.89048,71.1395
2154.4346900318824,317449.1,-10.20389,71.1275
4641.588833612777,216595.6,-75.75881,71.1337
10000.0,93832.08,-79.02583,71.146
