Frequency,Impedance,Phase Angle,Temperature (Dry Bath)
10.0,4748688.0,-12.9706,65.7711
21.544346900318832,6030780.0,-11.34892,65.756
46.41588833612777,3529580.0,-11.27927,65.7628
100.0,512934.4,18.97659,65.7506
215.44346900318823,815843.5,-58.35449,65.7587
464.15888336127773,2980945.0,1.328638,65.7622
1000.0,1101568.0,-149.7162,65.7447
2154.4346900318824,392465.8,-104.1262,65.7475
4641.588833612777,122508.9,-85.91921,65.7607
10000.0,71464.02,-91.22958,65.74
