Frequency,Impedance,Phase Angle,Temperature (Dry Bath)
10.0,52910.21,-33.8925,67.1144
21.5,40814.59,-30.00049,67.0893
46.4,32914.58,-26.17242,67.1231
100.0,27486.98,-22.14246,67.1038
215.4,24716.17,-21.30711,67.107
464.2,21103.88,-16.30292,67.1117
1000.0,18889.74,-14.50955,67.1098
2154.4,17292.67,-12.92254,67.086
4641.6,15811.95,-12.71957,67.1002
10000.0,14621.04,-14.47341,67.1227
