Frequency,Impedance,Phase Angle,Temperature (Dry Bath)
10.0,26698310.0,-8.310722,66.5107
21.5,29181190.0,-40.24279,66.5013
46.4,16013950.0,-59.11195,66.5102
100.0,9653428.0,59.30638,66.5073
215.4,169370.9,150.2916,66.5197
464.2,2300602.0,-78.05348,66.5297
1000.0,1100941.0,-91.47438,66.5104
2154.4,563786.4,-81.74466,66.5167
4641.6,252174.9,-84.32756,66.5469
10000.0,122046.4,-84.75732,66.5341
