Frequency,Impedance,Phase Angle,Temperature (Dry Bath)
10.0,6098834.0,-1.432538,65.7852
21.544346900318832,3400849.0,-15.93463,65.7811
46.41588833612777,4342131.0,-1.692407,65.7811
100.0,4133643.0,22.46059,65.7707
215.44346900318823,22685.67,122.7909,65.7882
464.15888336127773,742409.6,-73.65,65.7604
1000.0,620030.6,-66.18904,65.7461
2154.4346900318824,209895.6,-95.15202,65.7482
4641.588833612777,139423.1,-74.05791,65.7647
10000.0,69572.68,-82.96571,65.7536
