Frequency,Impedance,Phase Angle,Temperature (Dry Bath)
10.0,18903080.0,-15.47618,68.0523
21.5,15672950.0,-38.33059,68.0523
46.4,15683470.0,-47.64262,68.0523
100.0,17177590.0,-34.39795,68.0523
215.4,6192368.0,-91.26011,68.0523
464.2,4639809.0,-71.45921,68.0523
1000.0,1233571.0,-88.10732,68.0523
2154.4,750821.7,-90.96108,68.0523
4641.6,320620.7,-95.98902,68.0523
10000.0,153229.7,-98.25495,68.0523
