Frequency,Impedance,Phase Angle,Temperature (Dry Bath)
10.0,5231154.0,-10.12212,71.2611
21.544346900318832,6013452.0,17.8375,71.2526
46.41588833612777,6607382.0,-17.53755,71.2574
100.0,306356.8,40.0316,71.2648
215.44346900318823,772989.4,-100.8359,71.2657
464.15888336127773,974853.2,-25.10544,71.2606
1000.0,282778.7,-59.90715,71.255
2154.4346900318824,389576.9,-78.81663,71.2496
4641.588833612777,99093.79,-68.76039,71.2538
10000.0,64270.4,-84.05667,71.2637
