Frequency,Impedance,Phase Angle,Temperature (Dry Bath)
10.0,25229780.0,-15.34434,67.3694
21.5,22399810.0,-33.04622,67.3858
46.4,13437220.0,-60.18327,67.3795
100.0,2538889.0,-40.31423,67.3929
215.4,2132714.0,-136.899,67.3718
464.2,1929438.0,-79.65479,67.3787
1000.0,840047.9,-86.05862,67.3775
2154.4,391803.4,-82.34737,67.3801
4641.6,207004.6,-81.62711,67.3812
10000.0,101904.8,-81.31772,67.3696
