Frequency,Impedance,Phase Angle,Temperature (Dry Bath)
10.0,45127880.0,-34.55255,66.9841
21.5,22683380.0,-34.70228,66.9776
46.4,17573990.0,-64.00827,66.9883
100.0,3633004.0,10.48289,66.9829
215.4,7922901.0,-142.3217,66.985
464.2,3490677.0,-64.00085,66.9889
1000.0,1815978.0,-92.97742,66.9653
2154.4,549920.3,-83.60905,67.0075
4641.6,247418.7,-85.54317,66.9802
10000.0,124720.5,-83.36378,66.995
