Frequency,Impedance,Phase Angle,Temperature (Dry Bath)
10.0,12071410.0,-27.33855,70.7837
21.544346900318832,5289393.0,-14.13362,70.7976
46.41588833612777,4695433.0,-31.22972,70.8208
100.0,322215.5,173.9123,70.8082
215.44346900318823,799860.8,135.6312,70.8026
464.15888336127773,451049.2,-91.5368,70.7908
1000.0,503257.6,-150.064,70.7942
2154.4346900318824,726366.1,-76.05758,70.803
4641.588833612777,140221.3,-85.92797,70.8095
10000.0,68577.56,-83.31023,70.7843
