Frequency,Impedance,Phase Angle,Temperature (Dry Bath)
10.0,26200620.0,-17.82358,68.0557
21.5,19381110.0,-30.61922,68.0572
46.4,10645740.0,-43.99483,68.0654
100.0,9682860.0,-5.002924,68.0622
215.4,4862417.0,-71.11072,68.0747
464.2,3046335.0,-75.51505,68.0981
1000.0,1219123.0,-81.82736,68.0916
2154.4,654071.0,-90.94245,68.0941
4641.6,308067.1,-89.86192,68.0979
10000.0,135604.9,-92.39987,68.1046
