Frequency,Impedance,Phase Angle,Temperature (Dry Bath)
10.0,22336500.0,-18.07101,67.0918
21.5,17840570.0,-38.38747,67.0983
46.4,13590520.0,-58.04196,67.1005
100.0,3148409.0,-53.62852,67.1013
215.4,3523371.0,-74.91159,67.0693
464.2,2269764.0,-79.14613,67.0818
1000.0,782496.6,-68.92242,67.0686
2154.4,405899.0,-81.28029,67.0892
4641.6,197139.2,-80.76841,67.0783
10000.0,105070.7,-81.91882,67.0749
