Frequency,Impedance,Phase Angle,Temperature (Dry Bath)
10.0,30142550.0,-12.01899,66.9174
21.5,22621980.0,-43.94134,66.908
46.4,14592830.0,-62.55415,66.9152
100.0,3342332.0,-43.04178,66.9195
215.4,192980.6,85.72678,66.9351
464.2,1543982.0,-68.93835,66.9318
1000.0,882832.9,-85.2006,66.9301
2154.4,399739.5,-82.21259,66.928
4641.6,197446.3,-82.83136,66.9343
10000.0,99200.22,-81.32959,66.9434
