Frequency,Impedance,Phase Angle,Temperature (Dry Bath)
10.0,4240609.0,2.072042,71.2375
21.544346900318832,7841666.0,-24.84809,71.2465
46.41588833612777,5510577.0,-37.0856,71.2477
100.0,551049.7,2.693481,71.244
215.44346900318823,18278.77,-36.84108,71.2576
464.15888336127773,1509670.0,-1.292523,71.25
1000.0,653488.7,-4.044133,71.2652
2154.4346900318824,223350.0,-88.04249,71.2614
4641.588833612777,153071.9,-77.75767,71.2687
10000.0,72411.09,-89.11752,71.2774
