Frequency,Impedance,Phase Angle,Temperature (Dry Bath)
10.0,1520025.0,-12.70664,65.7025
21.544346900318832,1455377.0,-12.80677,65.6863
46.41588833612777,1214868.0,-20.47282,65.6927
100.0,101992.1,30.85735,65.6816
215.44346900318823,670329.2,-44.74461,65.6919
464.15888336127773,665719.2,-16.55401,65.6847
1000.0,377870.2,69.4359,65.6792
2154.4346900318824,248815.9,-78.98393,65.6884
4641.588833612777,144954.6,-64.14397,65.6809
10000.0,68277.4,-82.29411,65.7021
