Frequency,Impedance,Phase Angle,Temperature (Dry Bath)
10.0,6118882.0,14.77993,65.7197
21.544346900318832,4839841.0,-37.90956,65.7326
46.41588833612777,5114787.0,-9.240012,65.7154
100.0,1096786.0,18.30049,65.7165
215.44346900318823,12789.03,95.11472,65.7051
464.15888336127773,1229585.0,41.87336,65.716
1000.0,683463.4,-70.86099,65.6906
2154.4346900318824,213330.4,-75.99034,65.7176
4641.588833612777,129511.4,-94.9711,65.6957
10000.0,63839.65,-79.5568,65.704
