Frequency,Impedance,Phase Angle,Temperature (Dry Bath)
10.0,43992490.0,-23.97941,67.8672
21.5,39990780.0,-47.42208,67.8666
46.4,31927640.0,-48.48582,67.8495
100.0,27160350.0,-50.93032,67.8631
215.4,7979426.0,-65.41533,67.8529
464.2,2849890.0,-72.69291,67.8616
1000.0,1301848.0,-84.97686,67.8611
2154.4,593844.0,-83.64529,67.844
4641.6,276161.4,-92.6354,67.8582
10000.0,127523.4,-94.56998,67.8593
