Frequency,Impedance,Phase Angle,Temperature (Dry Bath)
10.0,3963330.0,-2.531912,65.6428
21.544346900318832,5202565.0,-45.22269,65.6522
46.41588833612777,3762462.0,27.29721,65.6497
100.0,6903209.0,-37.54599,65.6679
215.44346900318823,30485.0,81.96052,65.6605
464.15888336127773,1657692.0,117.8088,65.6556
1000.0,407043.9,-99.86349,65.6865
2154.4346900318824,201746.9,-80.35341,65.6684
4641.588833612777,142650.6,-89.38121,65.686
10000.0,83645.87,-86.17577,65.6967
