Frequency,Impedance,Phase Angle,Temperature (Dry Bath)
10.0,19127340.0,1.613933,68.1421
21.5,18735370.0,-41.61867,68.1421
46.4,10893390.0,-48.91039,68.1421
100.0,8380126.0,-22.23643,68.1421
215.4,5054581.0,-73.08072,68.1421
464.2,2445925.0,-83.27456,68.1421
1000.0,1417682.0,-78.86362,68.1421
2154.4,660430.9,-88.90948,68.1421
4641.6,321866.6,-85.20251,68.1421
10000.0,145581.9,-96.8139,68.1421
