Frequency,Impedance,Phase Angle,Temperature (Dry Bath)
10.0,37098440.0,-1.486512,67.9603
21.5,20178090.0,-30.14474,67.949
46.4,25175920.0,-48.90876,67.9674
100.0,6266329.0,-52.22983,67.9705
215.4,4304738.0,-81.13938,67.9611
464.2,2459168.0,-101.9651,67.9569
1000.0,1528604.0,-86.69913,67.9703
2154.4,676764.1,-88.6178,67.9484
4641.6,332936.9,-95.89079,67.9668
10000.0,147953.2,-95.47369,67.9562
