Frequency,Impedance,Phase Angle,Temperature (Dry Bath)
10.0,20121080.0,-15.80818,68.058
21.5,27396670.0,-35.79165,68.0547
46.4,19055900.0,-54.13337,68.0308
100.0,6098658.0,-79.43554,68.0403
215.4,4159978.0,-37.88275,68.0433
464.2,1973973.0,-89.95888,68.0402
1000.0,1324780.0,-97.01147,68.0539
2154.4,622660.7,-86.24933,68.0478
4641.6,309923.9,-86.61137,68.0405
10000.0,129444.1,-95.07086,68.0436
