Frequency,Impedance,Phase Angle,Temperature (Dry Bath)
10.0,5113801.0,-10.80506,71.3781
21.544346900318832,5699256.0,-17.44202,71.3665
46.41588833612777,3570034.0,-62.3918,71.3964
100.0,408787.5,-177.3506,71.3862
215.44346900318823,16795.61,49.39158,71.3792
464.15888336127773,1096326.0,-106.561,71.3996
1000.0,668978.9,-2.042513,71.3699
2154.4346900318824,261079.9,-96.41515,71.3713
4641.588833612777,113917.4,-74.45937,71.38
10000.0,59910.79,-89.82509,71.3874
