Frequency,Impedance,Phase Angle,Temperature (Dry Bath)
10.0,2563686.0,-15.99173,71.3094
21.544346900318832,2585935.0,-16.61689,71.2821
46.41588833612777,1379666.0,-25.92621,71.2976
100.0,287916.5,38.948,71.3006
215.44346900318823,136192.9,-109.8672,71.2968
464.15888336127773,575570.9,-86.04199,71.2971
1000.0,3392583.0,132.2847,71.3054
2154.4346900318824,266463.9,-73.96089,71.2941
4641.588833612777,124719.4,-74.69627,71.3135
10000.0,61206.22,-84.87764,71.3134
