Frequency,Impedance,Phase Angle,Temperature (Dry Bath)
10.0,1514014.0,-18.26507,67.1184
21.5,1366493.0,-16.09544,67.1379
46.4,1238178.0,-15.95204,67.1278
100.0,1127775.0,-17.22266,67.1338
215.4,368557.6,-5.375865,67.1263
464.2,884776.4,-27.98044,67.125
1000.0,633743.9,-49.62221,67.1192
2154.4,433527.1,-59.84797,67.1272
4641.6,223603.0,-74.74334,67.1175
10000.0,111894.3,-80.42496,67.1299
