Frequency,Impedance,Phase Angle,Temperature (Dry Bath)
10.0,35142180.0,-5.013549,67.311
21.5,27837740.0,-28.87653,67.2962
46.4,20859490.0,-49.59272,67.3069
100.0,3006752.0,-37.90304,67.3087
215.4,2012824.0,-76.52227,67.3051
464.2,2745306.0,-89.24732,67.3011
1000.0,1220598.0,-74.60313,67.2968
2154.4,556681.3,-96.02718,67.3133
4641.6,264034.4,-87.7029,67.3079
10000.0,130447.2,-85.876,67.3191
