Frequency,Impedance,Phase Angle,Temperature (Dry Bath)
10.0,4943037.0,-19.74521,70.9402
21.544346900318832,3700634.0,-22.53897,70.9313
46.41588833612777,2815588.0,-24.21165,70.919
100.0,1152874.0,164.127,70.9215
215.44346900318823,408838.3,-80.37938,70.9296
464.15888336127773,381309.4,-61.32772,70.9087
1000.0,334040.8,-75.0524,70.933
2154.4346900318824,378610.0,-101.444,70.923
4641.588833612777,141208.8,-72.51322,70.9409
10000.0,69999.08,-76.63913,70.9293
