Frequency,Impedance,Phase Angle,Temperature (Dry Bath)
10.0,115809.3,-3.215094,67.455
21.5,113584.1,-2.62543,67.4722
46.4,111855.7,-2.388758,67.4617
100.0,110488.4,-4.441752,67.4693
215.4,218150.6,-14.78941,67.4534
464.2,108144.0,-4.50226,67.4768
1000.0,102848.3,-8.391569,67.4571
2154.4,100049.8,-13.36514,67.4469
4641.6,88976.79,-25.03749,67.4407
10000.0,70167.56,-41.38062,67.4626
