Frequency,Impedance,Phase Angle,Temperature (Dry Bath)
10.0,43940120.0,-17.69664,67.9402
21.5,32971030.0,-23.38887,67.94
46.4,34956210.0,-36.1256,67.9534
100.0,6783422.0,-61.3245,67.9382
215.4,4930581.0,-105.4979,67.9559
464.2,3716313.0,-104.4185,67.947
1000.0,1489115.0,-80.48439,67.9411
2154.4,621492.8,-90.14148,67.9457
4641.6,325337.5,-89.19659,67.9515
10000.0,154792.7,-95.87562,67.9368
