Frequency,Impedance,Phase Angle,Temperature (Dry Bath)
10.0,5010073.0,9.828397,66.3929
21.544346900318832,6559056.0,-1.328473,66.3902
46.41588833612777,6636370.0,-26.31118,66.4112
100.0,971558.1,-165.0329,66.4067
215.44346900318823,882645.8,123.7004,66.4079
464.15888336127773,668168.8,-28.74292,66.4012
1000.0,445065.7,-55.52604,66.3978
2154.4346900318824,221488.1,-74.1348,66.3932
4641.588833612777,151878.0,-85.05866,66.3904
10000.0,70686.73,-86.89671,66.4018
