Frequency,Impedance,Phase Angle,Temperature (Dry Bath)
10.0,1530189.0,-17.20344,68.1972
21.5,1413207.0,-14.81202,68.1761
46.4,1299077.0,-14.214,68.1683
100.0,969501.9,-12.81543,68.1771
215.4,1089090.0,-16.89776,68.1976
464.2,908890.4,-33.11405,68.1784
1000.0,654612.3,-37.28497,68.1895
2154.4,440838.9,-58.19721,68.1863
4641.6,230348.7,-75.51775,68.1833
10000.0,116279.8,-86.28225,68.1766
