Frequency,Impedance,Phase Angle,Temperature (Dry Bath)
10.0,6075130.0,-17.04618,70.7924
21.544346900318832,6614198.0,-1.892727,70.7708
46.41588833612777,5661325.0,-30.41974,70.7765
100.0,463960.6,-19.33507,70.7817
215.44346900318823,846129.9,125.2567,70.786
464.15888336127773,531210.1,-49.20067,70.8064
1000.0,414701.4,-102.9979,70.8074
2154.4346900318824,400145.6,-106.9717,70.7915
4641.588833612777,152814.1,-82.79389,70.8071
10000.0,61379.96,-81.36222,70.8074
