Frequency,Impedance,Phase Angle,Temperature (Dry Bath)
10.0,151959.2,-4.883139,67.6776
21.5,148103.3,-3.858432,67.6698
46.4,144290.6,-3.743813,67.6801
100.0,139740.4,-3.085668,67.6679
215.4,137685.3,-5.317593,67.6579
464.2,132870.1,-6.395135,67.6597
1000.0,128117.3,-10.6811,67.6776
2154.4,122963.0,-16.90608,67.6754
4641.6,109014.6,-29.73236,67.6775
10000.0,84998.75,-50.76204,67.6678
