Frequency,Impedance,Phase Angle,Temperature (Dry Bath)
10.0,28801280.0,-20.23386,67.1436
21.5,24244970.0,-30.32276,67.1483
46.4,18137500.0,-61.51676,67.1526
100.0,8224984.0,-21.84692,67.1687
215.4,4279434.0,-40.27604,67.1559
464.2,2396138.0,-81.89227,67.1652
1000.0,1054891.0,-84.80593,67.1785
2154.4,469534.5,-81.25774,67.1506
4641.6,252256.6,-89.39889,67.1515
10000.0,119608.9,-85.12715,67.1611
