Frequency,Impedance,Phase Angle,Temperature (Dry Bath)
10.0,144216.0,-5.006426,68.0144
21.5,139725.5,-4.275693,68.0358
46.4,136120.0,-3.811236,68.0262
100.0,130377.5,-4.104065,68.0158
215.4,131573.4,-4.333494,68.0225
464.2,132740.7,-5.650032,68.0252
1000.0,124392.0,-9.607835,68.0251
2154.4,114645.7,-15.9876,68.0207
4641.6,103788.1,-27.70699,68.0192
10000.0,86548.34,-50.56336,68.0303
