Frequency,Impedance,Phase Angle,Temperature (Dry Bath)
10.0,702178.4,-10.78052,67.8225
21.5,663998.7,-10.01129,67.8018
46.4,627165.1,-10.71796,67.8234
100.0,555919.1,-11.21944,67.8226
215.4,539138.9,-17.6186,67.8221
464.2,487206.4,-21.7324,67.8141
1000.0,388397.2,-29.21471,67.824
2154.4,314067.4,-38.23237,67.8164
4641.6,220932.3,-53.94819,67.8027
10000.0,132906.8,-74.66267,67.8159
