Frequency,Impedance,Phase Angle,Temperature (Dry Bath)
10.0,8600742.0,-14.14145,66.245
21.544346900318832,4032071.0,-14.07089,66.2559
46.41588833612777,5078086.0,-44.43938,66.2723
100.0,1221200.0,28.05558,66.2569
215.44346900318823,1823957.0,72.61189,66.2596
464.15888336127773,411863.3,-95.64754,66.2664
1000.0,578296.1,-74.13137,66.2672
2154.4346900318824,222757.7,-84.41667,66.2725
4641.588833612777,117150.4,-76.75338,66.2737
10000.0,83266.81,-83.709,66.2591
