Frequency,Impedance,Phase Angle,Temperature (Dry Bath)
10.0,20043340.0,-21.27936,67.947
21.5,22955280.0,-34.96873,67.9385
46.4,17743510.0,-49.23064,67.9514
100.0,5294693.0,-67.97736,67.9543
215.4,5049971.0,-60.28224,67.9375
464.2,1880717.0,-90.87614,67.9308
1000.0,1165323.0,-79.51792,67.9447
2154.4,653586.5,-80.45831,67.9492
4641.6,296372.0,-92.08986,67.9402
10000.0,135657.0,-96.60397,67.9462
