Frequency,Impedance,Phase Angle,Temperature (Dry Bath)
10.0,18643740.0,-22.05122,67.944
21.5,19270410.0,-29.90714,67.9447
46.4,26415820.0,-50.96295,67.9329
100.0,4167788.0,-58.10088,67.9395
215.4,4425087.0,-75.45558,67.9397
464.2,2895199.0,-78.81335,67.9496
1000.0,1248865.0,-89.66509,67.9337
2154.4,641398.6,-89.16672,67.9477
4641.6,276608.4,-90.53377,67.9472
10000.0,140449.0,-97.10934,67.9527
