Frequency,Impedance,Phase Angle,Temperature (Dry Bath)
10.0,19060030.0,-12.73615,68.1692
21.5,15177110.0,-42.09121,68.1923
46.4,16176910.0,-60.05584,68.1716
100.0,5979267.0,-28.49492,68.199
215.4,4044805.0,-78.3828,68.1717
464.2,2396415.0,-99.38985,68.1886
1000.0,1219641.0,-80.62976,68.1908
2154.4,583571.8,-86.94504,68.1769
4641.6,291422.9,-85.05432,68.188
10000.0,133072.3,-96.90871,68.18
