Frequency,Impedance,Phase Angle,Temperature (Dry Bath)
10.0,111276.4,-3.117969,67.0942
21.5,109167.7,-2.621951,67.1139
46.4,107246.7,-2.386769,67.1066
100.0,102742.3,-2.397567,67.1173
215.4,212555.9,36.52967,67.1023
464.2,102105.3,-5.286712,67.1102
1000.0,97405.3,-7.570397,67.106
2154.4,94612.63,-13.26141,67.1025
4641.6,86138.92,-24.59849,67.1128
10000.0,68608.31,-40.43275,67.1079
