Frequency,Impedance,Phase Angle,Temperature (Dry Bath)
10.0,72129.03,-14.83413,70.5033
21.544346900318832,64426.55,-12.45225,70.5036
46.41588833612777,59046.18,-11.48684,70.5036
100.0,66488.2,-21.57219,70.5057
215.44346900318823,54105.99,-8.061711,70.4893
464.15888336127773,49106.54,-6.653381,70.5114
1000.0,46812.28,-6.334226,70.5023
2154.4346900318824,44019.39,-11.24912,70.5123
4641.588833612777,38143.48,-17.79816,70.4961
10000.0,30693.42,-30.95845,70.5025
