Frequency,Impedance,Phase Angle,Temperature (Dry Bath)
10.0,92768.47,-26.6818,66.9932
21.5,76130.58,-23.90544,66.9791
46.4,64499.81,-20.73979,66.9904
100.0,55822.18,-17.53879,66.9879
215.4,50388.49,-13.89544,66.9804
464.2,45340.22,-13.29732,66.9821
1000.0,41243.58,-11.97021,66.9909
2154.4,38160.55,-12.29309,66.9923
4641.6,34991.16,-15.01767,66.9895
10000.0,31775.62,-21.63692,67.0021
