Frequency,Impedance,Phase Angle,Temperature (Dry Bath)
10.0,4662198.0,-2.045619,67.2795
21.5,4160905.0,-1.846492,67.2729
46.4,5252592.0,-12.78144,67.2683
100.0,2739234.0,-40.21143,67.2703
215.4,229842.9,11.51468,67.276
464.2,2303550.0,-67.13594,67.2794
1000.0,1070741.0,-69.40762,67.2744
2154.4,529240.7,-81.12049,67.293
4641.6,255901.1,-84.51834,67.2701
10000.0,124638.4,-84.64509,67.2741
