Frequency,Impedance,Phase Angle,Temperature (Dry Bath)
10.0,4950960.0,14.53218,71.4605
21.544346900318832,1373742.0,-132.4075,71.4536
46.41588833612777,4781671.0,18.02678,71.4437
100.0,651614.7,75.76501,71.4443
215.44346900318823,693205.5,-178.2892,71.4443
464.15888336127773,471436.1,-64.55144,71.4443
1000.0,316782.5,-61.27135,71.4572
2154.4346900318824,455633.0,110.2033,71.4449
4641.588833612777,160713.5,-83.15623,71.4492
10000.0,255700.7,-102.5903,71.4332
