Frequency,Impedance,Phase Angle,Temperature (Dry Bath)
10.0,4199138.0,-27.09267,71.3132
21.544346900318832,4796963.0,-2.663602,71.3231
46.41588833612777,5616688.0,-31.443,71.3119
100.0,441748.8,94.09829,71.311
215.44346900318823,886587.5,-92.35396,71.3104
464.15888336127773,614232.2,164.6486,71.3321
1000.0,388237.5,-99.29298,71.3263
2154.4346900318824,328524.1,-74.86837,71.3245
4641.588833612777,168408.9,-91.37057,71.3048
10000.0,64201.94,-90.979,71.3169
