Frequency,Impedance,Phase Angle,Temperature (Dry Bath)
10.0,31479730.0,-28.66262,67.1604
21.5,22261400.0,-38.2609,67.1409
46.4,20310640.0,-41.50771,67.156
100.0,9707689.0,-108.4645,67.1489
215.4,181686.8,-49.87072,67.1651
464.2,1950936.0,-104.77,67.1587
1000.0,1115986.0,-79.91065,67.1654
2154.4,551232.0,-86.90259,67.1551
4641.6,255462.0,-86.82001,67.1716
10000.0,122260.6,-82.96061,67.1696
