Frequency,Impedance,Phase Angle,Temperature (Dry Bath)
10.0,4687531.0,-12.34855,70.5341
21.544346900318832,7815172.0,-2.562678,70.5559
46.41588833612777,4388494.0,-31.06321,70.5539
100.0,499805.6,-0.2311306,70.5653
215.44346900318823,694120.2,-135.9215,70.5513
464.15888336127773,1471133.0,-41.8531,70.549
1000.0,245298.8,-74.9797,70.5669
2154.4346900318824,232390.7,-98.24538,70.5599
4641.588833612777,124942.4,-80.16943,70.5533
10000.0,57353.54,-88.39184,70.5389
