Frequency,Impedance,Phase Angle,Temperature (Dry Bath)
10.0,23893140.0,-21.34804,68.18
21.5,34416890.0,-30.52183,68.2076
46.4,28459370.0,-57.79597,68.1907
100.0,3594305.0,-49.4631,68.1992
215.4,4270192.0,-60.54267,68.1744
464.2,2299857.0,-80.82382,68.1987
1000.0,1306882.0,-79.47128,68.1758
2154.4,541074.7,-86.51921,68.1815
4641.6,277273.4,-92.80904,68.1814
10000.0,144146.2,-92.54763,68.181
