Frequency,Impedance,Phase Angle,Temperature (Dry Bath)
10.0,31302060.0,-31.45914,67.3762
21.5,31577320.0,-40.21949,67.3792
46.4,15023770.0,-60.9245,67.3823
100.0,3593064.0,-49.18733,67.3983
215.4,2405545.0,-56.02771,67.3901
464.2,1704458.0,-79.32013,67.3946
1000.0,985110.9,-75.08055,67.372
2154.4,421152.8,-83.06779,67.3831
4641.6,214090.0,-81.09373,67.3659
10000.0,107731.6,-80.97639,67.3635
