Frequency,Impedance,Phase Angle,Temperature (Dry Bath)
10.0,146169.7,-4.939361,68.0226
21.5,141607.5,-4.16268,68.0099
46.4,137708.7,-3.792519,68.0085
100.0,134598.8,-4.982317,68.0121
215.4,134848.6,-3.477878,67.9978
464.2,130895.2,-7.46362,67.998
1000.0,124469.3,-10.08104,68.0118
2154.4,117149.8,-17.10269,68.0033
4641.6,107437.5,-31.07009,68.015
10000.0,81870.03,-51.41514,68.0142
