Frequency,Impedance,Phase Angle,Temperature (Dry Bath)
10.0,57281.76,-33.10712,67.0698
21.5,44373.41,-29.18794,67.075
46.4,36229.3,-25.44996,67.0789
100.0,30280.67,-21.97045,67.0686
215.4,26418.47,-18.53043,67.0867
464.2,23546.82,-15.90641,67.0758
1000.0,21070.74,-13.75611,67.0644
2154.4,19323.9,-12.77831,67.0728
4641.6,17655.42,-13.02536,67.072
10000.0,16344.56,-15.32257,67.0742
