Frequency,Impedance,Phase Angle,Temperature (Dry Bath)
10.0,978791.1,-6.15565,72.2462
21.544346900318832,1061295.0,-3.312054,72.2446
46.41588833612777,1007948.0,-8.869282,72.2494
100.0,1121613.0,51.39138,72.2705
215.44346900318823,1735057.0,106.7864,72.2507
464.15888336127773,424005.9,46.92518,72.2426
1000.0,545930.6,138.8976,72.2456
2154.4346900318824,446820.7,-105.3655,72.233
4641.588833612777,142649.2,-49.86342,72.2532
10000.0,144101.0,-65.4098,72.2452
