Frequency,Impedance,Phase Angle,Temperature (Dry Bath)
10.0,65151.78,-14.61697,70.9082
21.544346900318832,58822.17,-12.63643,70.8995
46.41588833612777,53211.73,-11.95771,70.9046
100.0,52060.58,-17.82797,70.8965
215.44346900318823,44842.41,-11.29758,70.8827
464.15888336127773,43368.66,-9.30889,70.8936
1000.0,39558.69,-12.37782,70.8861
2154.4346900318824,36780.59,-14.71004,70.9051
4641.588833612777,35037.81,-20.67478,70.9031
10000.0,27780.93,-34.25396,70.8949
