Frequency,Impedance,Phase Angle,Temperature (Dry Bath)
10.0,1430431.0,-15.02312,67.9513
21.5,1234629.0,-13.59383,67.9446
46.4,1093572.0,-13.26351,67.9471
100.0,920613.9,-16.87865,67.9309
215.4,912953.6,-17.64339,67.9524
464.2,779708.9,-22.34667,67.9343
1000.0,708251.7,-36.04257,67.9591
2154.4,499641.5,-55.29173,67.9495
4641.6,263820.3,-73.46031,67.9549
10000.0,132590.7,-85.37815,67.9577
