Frequency,Impedance,Phase Angle,Temperature (Dry Bath)
10.0,6068298.0,-35.00044,65.701
21.544346900318832,7981557.0,-1.857013,65.7178
46.41588833612777,3288118.0,-8.345622,65.7139
100.0,436072.2,-16.80171,65.6985
215.44346900318823,50331.74,-5.386704,65.696
464.15888336127773,1878221.0,-177.7788,65.6939
1000.0,536546.6,-42.19078,65.703
2154.4346900318824,455525.8,-66.37652,65.6883
4641.588833612777,176835.0,-79.12145,65.696
10000.0,73477.68,-86.86148,65.6898
