Frequency,Impedance,Phase Angle,Temperature (Dry Bath)
10.0,614641.1,-1.567966,71.3813
21.544346900318832,584586.0,-2.445317,71.3886
46.41588833612777,581976.3,-4.780809,71.399
100.0,1427386.0,27.57536,71.3869
215.44346900318823,444305.4,-58.51162,71.3867
464.15888336127773,338391.8,-30.51004,71.4028
1000.0,384605.8,-6.662761,71.3853
2154.4346900318824,280821.3,-50.10516,71.3887
4641.588833612777,174374.9,-71.63815,71.3957
10000.0,139396.2,-74.9837,71.4015
