Frequency,Impedance,Phase Angle,Temperature (Dry Bath)
10.0,26240080.0,-30.76834,67.3692
21.5,29791540.0,-21.2688,67.368
46.4,16228110.0,-54.34903,67.3702
100.0,5465724.0,9.1002,67.3503
215.4,229207.4,57.61909,67.3853
464.2,2415165.0,-85.98276,67.3806
1000.0,1148807.0,-89.7382,67.3785
2154.4,551382.8,-86.60672,67.3831
4641.6,276304.8,-89.048,67.3536
10000.0,128202.6,-87.05113,67.3653
