Frequency,Impedance,Phase Angle,Temperature (Dry Bath)
10.0,1366949.0,-13.88903,68.1892
21.5,1240809.0,-14.32094,68.2015
46.4,1079430.0,-12.56741,68.1848
100.0,903908.5,-11.50604,68.1905
215.4,901985.5,-10.4431,68.1741
464.2,909721.0,-24.6425,68.1805
1000.0,674561.5,-34.44418,68.2006
2154.4,469539.5,-56.10732,68.1912
4641.6,272573.3,-69.57199,68.1736
10000.0,141454.1,-86.58413,68.1814
