Frequency,Impedance,Phase Angle,Temperature (Dry Bath)
10.0,1572016.0,-18.35119,67.0626
21.5,1390185.0,-16.59879,67.0743
46.4,1260224.0,-16.02856,67.0621
100.0,1014388.0,-16.11964,67.0701
215.4,151672.9,-36.28548,67.0537
464.2,1007715.0,-33.36731,67.0528
1000.0,653960.0,-38.10508,67.0509
2154.4,419579.9,-60.1535,67.0779
4641.6,229026.2,-73.14919,67.0641
10000.0,109111.9,-77.71436,67.0669
