Frequency,Impedance,Phase Angle,Temperature (Dry Bath)
10.0,4708528.0,13.71257,68.2134
21.5,13402460.0,-10.81878,68.2058
46.4,5582588.0,11.69238,68.2157
100.0,10783390.0,-22.64443,68.2047
215.4,6471141.0,-60.18679,68.2086
464.2,3060235.0,-74.21408,68.2208
1000.0,1495826.0,-82.87043,68.2158
2154.4,672732.8,-90.13042,68.1988
4641.6,300611.3,-93.29113,68.2194
10000.0,137044.4,-96.3735,68.219
