Frequency,Impedance,Phase Angle,Temperature (Dry Bath)
10.0,4059682.0,-36.20233,70.9354
21.544346900318832,4141291.0,-2.963625,70.9296
46.41588833612777,4266194.0,-8.679198,70.9312
100.0,400964.5,26.92342,70.9216
215.44346900318823,462228.6,-75.71889,70.9152
464.15888336127773,816709.4,-139.0832,70.9033
1000.0,369645.6,-103.4446,70.9057
2154.4346900318824,239185.7,-95.08755,70.8972
4641.588833612777,150937.8,-76.45807,70.9074
10000.0,57926.33,-84.91248,70.9176
