Frequency,Impedance,Phase Angle,Temperature (Dry Bath)
10.0,1630602.0,-17.07382,65.8647
21.544346900318832,1580132.0,-17.51219,65.8626
46.41588833612777,1353839.0,-13.68986,65.8873
100.0,303480.4,-30.36243,65.8664
215.44346900318823,22379.83,-175.1816,65.894
464.15888336127773,1738527.0,-53.9146,65.8646
1000.0,174702.1,-86.15927,65.8568
2154.4346900318824,371912.8,-47.60245,65.8831
4641.588833612777,160990.0,-73.46067,65.8698
10000.0,69578.87,-85.44997,65.8841
