Frequency,Impedance,Phase Angle,Temperature (Dry Bath)
10.0,216568.9,-23.42046,67.107
21.5,181905.5,-20.23504,67.1084
46.4,157378.1,-17.65258,67.0955
100.0,137544.9,-15.18633,67.1178
215.4,90585.3,-4.163301,67.1173
464.2,116196.4,-12.60149,67.1409
1000.0,105030.8,-15.21069,67.1112
2154.4,93393.56,-20.03449,67.1188
4641.6,80362.91,-29.26137,67.1246
10000.0,62338.92,-40.24116,67.1275
