Frequency,Impedance,Phase Angle,Temperature (Dry Bath)
10.0,33251230.0,-31.06426,67.3139
21.5,24403970.0,-25.05419,67.3359
46.4,17632130.0,-57.25185,67.3231
100.0,12868510.0,-27.56582,67.3172
215.4,2864199.0,-3.943897,67.3171
464.2,2549126.0,-84.90598,67.3324
1000.0,1353711.0,-85.77455,67.3158
2154.4,601624.8,-84.45746,67.311
4641.6,262187.1,-88.13058,67.3272
10000.0,128908.0,-83.33898,67.3237
