Frequency,Impedance,Phase Angle,Temperature (Dry Bath)
10.0,1954107.0,-10.07551,67.8342
21.5,1845029.0,-9.659431,67.8207
46.4,1662873.0,-11.6035,67.8429
100.0,1484286.0,-15.67311,67.8326
215.4,1466203.0,-22.3894,67.84
464.2,1071683.0,-33.02756,67.827
1000.0,893933.8,-50.74247,67.8347
2154.4,556774.5,-64.3327,67.8459
4641.6,266629.4,-74.6244,67.8514
10000.0,137103.1,-96.34263,67.8193
