Frequency,Impedance,Phase Angle,Temperature (Dry Bath)
10.0,4417589.0,4.409453,71.5697
21.544346900318832,6101676.0,-14.55443,71.5812
46.41588833612777,5055613.0,-17.06604,71.5839
100.0,773598.0,-48.60614,71.5905
215.44346900318823,812273.3,-100.5498,71.5856
464.15888336127773,1872469.0,128.9226,71.5861
1000.0,684964.1,170.9292,71.5818
2154.4346900318824,729887.4,-69.23155,71.5836
4641.588833612777,261920.7,-72.41797,71.5818
10000.0,135345.6,-86.52555,71.5867
