Frequency,Impedance,Phase Angle,Temperature (Dry Bath)
10.0,411342.0,-25.86698,65.7282
21.544346900318832,331320.6,-23.52594,65.7124
46.41588833612777,262257.2,-21.33624,65.7369
100.0,245600.9,-35.49564,65.7243
215.44346900318823,10202.51,82.32611,65.7464
464.15888336127773,171678.2,-28.67526,65.7577
1000.0,112823.5,-29.32622,65.738
2154.4346900318824,116194.1,-36.03081,65.7231
4641.588833612777,78862.71,-45.83139,65.7392
10000.0,49151.1,-54.33086,65.7317
