Frequency,Impedance,Phase Angle,Temperature (Dry Bath)
10.0,35693850.0,0.7922536,67.2988
21.5,30138040.0,-24.92956,67.2995
46.4,19488300.0,-51.69911,67.2888
100.0,3726057.0,-68.778,67.2985
215.4,1917343.0,-68.28144,67.3005
464.2,2462375.0,-72.46965,67.2948
1000.0,1528406.0,-79.67839,67.3155
2154.4,580243.8,-88.39701,67.315
4641.6,264575.5,-84.19732,67.2927
10000.0,128556.5,-85.04477,67.3133
