Frequency,Impedance,Phase Angle,Temperature (Dry Bath)
10.0,19032330.0,-18.39558,68.2345
21.5,22474120.0,-31.38532,68.2406
46.4,30937880.0,-45.885,68.2259
100.0,7048779.0,-57.98635,68.242
215.4,4395317.0,-66.22405,68.2429
464.2,2533628.0,-88.72818,68.2359
1000.0,1432172.0,-88.83482,68.2374
2154.4,665636.8,-86.26354,68.2428
4641.6,307105.9,-91.45638,68.2406
10000.0,149050.1,-93.27688,68.2468
