Frequency,Impedance,Phase Angle,Temperature (Dry Bath)
10.0,134579.0,-3.956694,67.4635
21.5,131200.6,-3.141154,67.4602
46.4,128596.8,-3.215357,67.4356
100.0,126499.8,-4.178761,67.4347
215.4,126373.1,-7.877381,67.4212
464.2,123567.2,-6.061587,67.4273
1000.0,117824.3,-9.858895,67.4451
2154.4,109093.7,-15.42609,67.4431
4641.6,97116.52,-25.9356,67.4291
10000.0,73742.26,-43.66245,67.4273
