Frequency,Impedance,Phase Angle,Temperature (Dry Bath)
10.0,23573330.0,-8.769009,68.1439
21.5,14265370.0,-43.389,68.1439
46.4,18478110.0,-42.44058,68.1439
100.0,11127990.0,-42.27017,68.1439
215.4,6584946.0,-114.8555,68.1439
464.2,3536679.0,-99.17164,68.1439
1000.0,1324843.0,-83.66812,68.1439
2154.4,707183.9,-82.00723,68.1439
4641.6,331561.3,-88.37864,68.1439
10000.0,157945.0,-96.70442,68.1439
