Frequency,Impedance,Phase Angle,Temperature (Dry Bath)
10.0,1548113.0,-16.2992,67.7526
21.5,1412854.0,-15.28088,67.7567
46.4,1209768.0,-13.59407,67.7619
100.0,1056834.0,-14.00256,67.7534
215.4,1130814.0,-14.531,67.7709
464.2,825452.4,-30.14226,67.7574
1000.0,781446.1,-42.5391,67.7707
2154.4,469745.5,-54.88118,67.7713
4641.6,281634.2,-73.78038,67.7648
10000.0,129906.5,-87.3543,67.7688
