Frequency,Impedance,Phase Angle,Temperature (Dry Bath)
10.0,8467071.0,-23.89843,70.5034
21.544346900318832,4670216.0,-3.52079,70.5032
46.41588833612777,3718371.0,-25.11551,70.5064
100.0,1424471.0,43.96509,70.506
215.44346900318823,1197910.0,-54.18575,70.4946
464.15888336127773,2200632.0,60.37538,70.5082
1000.0,383506.1,-26.33451,70.4971
2154.4346900318824,327714.5,-89.22228,70.5014
4641.588833612777,136193.9,-92.16425,70.4942
10000.0,55601.07,-89.11873,70.499
