Frequency,Impedance,Phase Angle,Temperature (Dry Bath)
10.0,1464038.0,-17.43121,67.2708
21.5,1296653.0,-15.91243,67.273
46.4,1175281.0,-15.19936,67.262
100.0,1232468.0,-21.34457,67.2664
215.4,790856.9,-30.60722,67.2725
464.2,764542.3,-21.71069,67.2679
1000.0,611155.1,-43.90064,67.2704
2154.4,440664.5,-58.79735,67.2656
4641.6,229941.8,-74.60831,67.2616
10000.0,113609.6,-79.55419,67.2561
