Frequency,Impedance,Phase Angle,Temperature (Dry Bath)
10.0,70696.6,-14.10407,71.8572
21.544346900318832,62751.3,-13.03865,71.863
46.41588833612777,56794.19,-11.59119,71.863
100.0,52496.61,-14.43393,71.8822
215.44346900318823,46387.18,-6.791101,71.8648
464.15888336127773,44541.48,-2.053015,71.8771
1000.0,39804.21,-11.49053,71.8662
2154.4346900318824,41270.4,-4.009074,71.8734
4641.588833612777,39448.52,-13.52175,71.8717
10000.0,36835.46,-10.33315,71.8623
