Frequency,Impedance,Phase Angle,Temperature (Dry Bath)
10.0,1979919.0,-21.61979,70.8891
21.544346900318832,1478077.0,-14.41818,70.8948
46.41588833612777,1279454.0,-22.49651,70.8798
100.0,393153.2,-179.646,70.8703
215.44346900318823,561291.4,-38.22953,70.8848
464.15888336127773,2544810.0,176.7536,70.8994
1000.0,393757.9,-85.391,70.9013
2154.4346900318824,394519.3,-38.23604,70.8871
4641.588833612777,190648.1,-112.0318,70.8885
10000.0,68206.09,-93.53665,70.8858
