Frequency,Impedance,Phase Angle,Temperature (Dry Bath)
10.0,17035760.0,-14.35612,68.0971
21.5,30094600.0,-41.76294,68.105
46.4,36472730.0,-40.08776,68.1034
100.0,11185530.0,-12.07354,68.0957
215.4,4334077.0,-88.83728,68.0975
464.2,2283030.0,-71.80902,68.1054
1000.0,1514817.0,-83.90649,68.0926
2154.4,750006.2,-87.20234,68.1006
4641.6,314497.1,-86.96759,68.104
10000.0,154904.4,-97.85523,68.1163
