Frequency,Impedance,Phase Angle,Temperature (Dry Bath)
10.0,16951410.0,-18.47336,68.0139
21.5,15684100.0,-41.02754,68.0139
46.4,14194080.0,-59.3104,68.0139
100.0,5727662.0,-31.42278,68.0139
215.4,3123063.0,-70.85618,68.0139
464.2,1816348.0,-83.75306,68.0139
1000.0,1127816.0,-76.13076,68.0139
2154.4,567518.7,-83.80499,68.0139
4641.6,285803.2,-91.04884,68.0139
10000.0,131774.3,-93.57083,68.0139
