Frequency,Impedance,Phase Angle,Temperature (Dry Bath)
10.0,55335.17,-33.33713,67.1864
21.5,42882.37,-29.45026,67.1673
46.4,34847.11,-25.71028,67.1877
100.0,29416.33,-21.84964,67.1943
215.4,25353.6,-19.0227,67.1849
464.2,22425.86,-16.05897,67.176
1000.0,20313.0,-13.76427,67.1788
2154.4,18506.43,-12.59781,67.1869
4641.6,17032.14,-12.89601,67.1791
10000.0,15683.5,-15.12735,67.1937
