Frequency,Impedance,Phase Angle,Temperature (Dry Bath)
10.0,26263550.0,-16.21201,68.3342
21.5,19519380.0,-28.11649,68.3272
46.4,13755390.0,-43.13186,68.3118
100.0,6700991.0,-43.32948,68.3135
215.4,7861995.0,-58.88259,68.3273
464.2,2219147.0,-76.22314,68.3222
1000.0,1395328.0,-89.61989,68.3151
2154.4,703609.2,-90.58072,68.3329
4641.6,300118.0,-92.49661,68.3258
10000.0,142988.6,-85.94806,68.3208
