Frequency,Impedance,Phase Angle,Temperature (Dry Bath)
10.0,1450778.0,-18.42993,67.4663
21.5,1295276.0,-15.77892,67.4604
46.4,1221817.0,-12.89633,67.4448
100.0,1428649.0,-12.62978,67.4461
215.4,821300.5,7.202635,67.4656
464.2,894385.2,-31.81948,67.4404
1000.0,642765.9,-47.64816,67.4398
2154.4,438157.9,-59.98998,67.4536
4641.6,227906.5,-73.42154,67.443
10000.0,114473.8,-78.4248,67.4388
