Frequency,Impedance,Phase Angle,Temperature (Dry Bath)
10.0,36406730.0,-1.663798,67.9624
21.5,29202060.0,-28.8883,67.9867
46.4,30941350.0,-45.58487,67.9683
100.0,8253548.0,-102.7645,67.9768
215.4,3676730.0,-51.47163,67.9832
464.2,2777181.0,-77.39632,67.9784
1000.0,1671936.0,-85.48031,67.9634
2154.4,685650.0,-89.29915,67.9745
4641.6,332451.2,-87.40285,67.9646
10000.0,144214.0,-98.94214,67.9817
