Frequency,Impedance,Phase Angle,Temperature (Dry Bath)
10.0,3849498.0,-8.664238,67.1
21.544346900318832,4235953.0,12.68593,67.1
46.41588833612777,9965521.0,8.292191,67.1
100.0,2700991.0,-12.67467,67.1
215.44346900318823,2740702.0,-17.80058,67.1
464.15888336127773,5934438.0,-15.24667,67.1
1000.0,3126974.0,-43.96595,67.1
2154.4346900318824,1972191.0,-20.99665,67.1
4641.588833612777,1601575.0,-36.51271,67.1
10000.0,4886532.0,-17.73335,67.1
