Frequency,Impedance,Phase Angle,Temperature (Dry Bath)
10.0,117728.9,-3.203826,67.2822
21.5,115337.7,-2.63365,67.2809
46.4,113482.6,-2.33706,67.2712
100.0,109044.5,-2.15679,67.2865
215.4,75423.19,5.639444,67.2768
464.2,108280.0,-5.10175,67.2726
1000.0,104548.5,-8.283652,67.2751
2154.4,97755.79,-14.13799,67.2621
4641.6,87964.85,-24.21187,67.2826
10000.0,71473.22,-41.39188,67.2809
