Frequency,Impedance,Phase Angle,Temperature (Dry Bath)
10.0,6098506.0,-12.39642,72.2472
21.544346900318832,5162005.0,-18.14889,72.2602
46.41588833612777,4904606.0,-24.10061,72.2577
100.0,595070.1,-179.3844,72.2489
215.44346900318823,1314723.0,152.0071,72.2454
464.15888336127773,432019.8,-20.16841,72.2346
1000.0,460070.7,104.9127,72.257
2154.4346900318824,569481.5,-98.37665,72.2398
4641.588833612777,683299.5,-55.50182,72.2534
10000.0,145687.5,-81.37473,72.2679
