Frequency,Impedance,Phase Angle,Temperature (Dry Bath)
10.0,6623165.0,21.10317,71.5017
21.544346900318832,4507494.0,-15.44867,71.5202
46.41588833612777,4640996.0,-13.61179,71.5101
100.0,537571.7,90.07671,71.5058
215.44346900318823,1315063.0,-80.24494,71.5232
464.15888336127773,2092304.0,-131.3655,71.5184
1000.0,1082519.0,-12.79252,71.5079
2154.4346900318824,530389.5,-62.9744,71.5024
4641.588833612777,298641.0,-83.5965,71.5277
10000.0,155703.4,-86.50001,71.5201
