Frequency,Impedance,Phase Angle,Temperature (Dry Bath)
10.0,5225666.0,2.991719,66.3682
21.544346900318832,5119188.0,-22.10525,66.3655
46.41588833612777,4629620.0,-15.95026,66.3525
100.0,834976.2,26.08629,66.3575
215.44346900318823,195760.6,9.314739,66.3633
464.15888336127773,2706713.0,87.99655,66.3715
1000.0,328517.7,-72.7011,66.36
2154.4346900318824,276306.2,-98.76293,66.3585
4641.588833612777,160687.1,-91.83576,66.3511
10000.0,73227.46,-76.90807,66.3502
