Frequency,Impedance,Phase Angle,Temperature (Dry Bath)
10.0,78615230.0,22.86477,68.1965
21.5,52222130.0,-42.73211,68.1807
46.4,19642110.0,-51.12568,68.1915
100.0,7189987.0,-18.33393,68.201
215.4,4161600.0,-81.10202,68.17
464.2,3740598.0,-79.90711,68.205
1000.0,1221134.0,-85.16319,68.1864
2154.4,730921.2,-101.3479,68.1768
4641.6,306390.6,-93.23206,68.1948
10000.0,143952.4,-96.11118,68.2044
