Frequency,Impedance,Phase Angle,Temperature (Dry Bath)
10.0,15854120.0,-3.687816,68.1871
21.5,14202320.0,-30.04869,68.1864
46.4,19863370.0,-42.79652,68.1654
100.0,4475056.0,-25.90736,68.1953
215.4,4903939.0,-46.33698,68.1928
464.2,3153765.0,-91.68894,68.1809
1000.0,1394579.0,-78.31882,68.1828
2154.4,729266.1,-91.33185,68.1985
4641.6,272082.5,-91.35762,68.189
10000.0,146773.5,-95.13791,68.1767
