Frequency,Impedance,Phase Angle,Temperature (Dry Bath)
10.0,5040237.0,-8.680909,70.9817
21.544346900318832,6154974.0,-26.74019,70.9668
46.41588833612777,4097953.0,-20.05096,70.9747
100.0,745500.3,12.72039,70.964
215.44346900318823,1419472.0,-33.66439,70.9506
464.15888336127773,614283.7,-109.9046,70.9599
1000.0,504579.2,-49.74946,70.97
2154.4346900318824,466229.6,-86.21435,70.9687
4641.588833612777,126924.2,-79.34936,70.9592
10000.0,61520.64,-88.5838,70.9596
