Frequency,Impedance,Phase Angle,Temperature (Dry Bath)
10.0,6081151.0,-6.985772,71.3062
21.544346900318832,5574128.0,-24.45836,71.3069
46.41588833612777,4462605.0,5.151269,71.3174
100.0,1304606.0,-1.647003,71.3142
215.44346900318823,2147039.0,-8.485578,71.3127
464.15888336127773,2982644.0,75.96088,71.3138
1000.0,5043991.0,146.8893,71.3218
2154.4346900318824,465622.9,-98.90503,71.3106
4641.588833612777,184561.5,-83.91323,71.3209
10000.0,127652.7,-79.21936,71.311
