Frequency,Impedance,Phase Angle,Temperature (Dry Bath)
10.0,5732622.0,-11.9526,71.4472
21.544346900318832,5838852.0,-14.34914,71.4563
46.41588833612777,4911953.0,-11.44053,71.4545
100.0,843058.9,112.1737,71.4615
215.44346900318823,1384914.0,1.0167,71.4427
464.15888336127773,534619.5,-76.40679,71.4536
1000.0,310151.2,-61.56164,71.4565
2154.4346900318824,354031.3,-75.02745,71.4585
4641.588833612777,150546.1,-94.36315,71.4524
10000.0,66036.26,-89.90151,71.4536
