Frequency,Impedance,Phase Angle,Temperature (Dry Bath)
10.0,7734988.0,-4.242519,71.3359
21.544346900318832,5899356.0,-14.47546,71.3433
46.41588833612777,4343723.0,-15.15538,71.3456
100.0,288186.2,18.46216,71.3347
215.44346900318823,322550.7,-87.40771,71.3579
464.15888336127773,1161562.0,-30.42976,71.3612
1000.0,502142.2,176.1047,71.3297
2154.4346900318824,348536.7,-70.01801,71.3497
4641.588833612777,134119.8,-92.43403,71.3504
10000.0,68994.82,-86.06924,71.3361
