Frequency,Impedance,Phase Angle,Temperature (Dry Bath)
10.0,25800100.0,-19.49991,68.1561
21.5,19718090.0,-13.63674,68.1385
46.4,28202110.0,-49.8694,68.1387
100.0,7890703.0,-20.49915,68.1448
215.4,4245158.0,-72.55284,68.1318
464.2,3315751.0,-89.78335,68.1287
1000.0,1198888.0,-80.5158,68.1325
2154.4,689550.0,-81.93895,68.1264
4641.6,301169.9,-87.74901,68.1405
10000.0,145128.3,-93.4438,68.1263
