Frequency,Impedance,Phase Angle,Temperature (Dry Bath)
10.0,20690360.0,-22.69155,68.2401
21.5,17833840.0,-27.90783,68.2283
46.4,14800780.0,-45.89709,68.2273
100.0,3842768.0,-58.80001,68.2161
215.4,4802165.0,-38.81313,68.2214
464.2,2611834.0,-103.4963,68.2231
1000.0,1243712.0,-90.23544,68.2337
2154.4,662337.0,-79.06781,68.2376
4641.6,285594.6,-93.64754,68.2095
10000.0,146902.2,-96.26251,68.2349
