Frequency,Impedance,Phase Angle,Temperature (Dry Bath)
10.0,28963890.0,-5.744972,67.2307
21.5,24328530.0,-43.51933,67.2298
46.4,17335410.0,-68.37594,67.2318
100.0,9738110.0,-22.49276,67.2295
215.4,278968.5,-142.2103,67.2288
464.2,1815396.0,-85.47737,67.2258
1000.0,849239.2,-79.06804,67.2411
2154.4,420587.3,-86.58982,67.2438
4641.6,197621.9,-83.55545,67.2176
10000.0,97054.41,-81.66011,67.2194
