Frequency,Impedance,Phase Angle,Temperature (Dry Bath)
10.0,7908828.0,-14.84932,66.3716
21.544346900318832,6809149.0,-6.956649,66.3747
46.41588833612777,5702067.0,3.948522,66.3521
100.0,5532797.0,-36.68333,66.3723
215.44346900318823,2883169.0,-3.966524,66.3667
464.15888336127773,2125728.0,-66.71282,66.3774
1000.0,1678228.0,-68.22709,66.3865
2154.4346900318824,11336920.0,-110.1515,66.3694
4641.588833612777,935224.4,-48.94083,66.3461
10000.0,1022542.0,-93.65707,66.3523
