Frequency,Impedance,Phase Angle,Temperature (Dry Bath)
10.0,26056720.0,-24.29204,67.4145
21.5,20277110.0,-43.71296,67.423
46.4,13343250.0,-59.94993,67.4204
100.0,8112402.0,-43.23927,67.4264
215.4,1562524.0,-94.47249,67.4211
464.2,1621133.0,-66.29377,67.4303
1000.0,888721.2,-80.74103,67.4238
2154.4,443764.7,-84.9471,67.4196
4641.6,192580.0,-82.46463,67.4208
10000.0,102373.7,-80.82472,67.4298
