Frequency,Impedance,Phase Angle,Temperature (Dry Bath)
10.0,30401070.0,-7.986102,68.2568
21.5,24549260.0,-34.36743,68.2568
46.4,17047800.0,-52.43237,68.2568
100.0,12255820.0,-38.13439,68.2568
215.4,5115893.0,-21.089,68.2568
464.2,3414831.0,-93.5983,68.2568
1000.0,1514722.0,-83.01351,68.2568
2154.4,714023.6,-90.6166,68.2568
4641.6,310051.2,-90.41933,68.2568
10000.0,154858.2,-97.87251,68.2568
