Frequency,Impedance,Phase Angle,Temperature (Dry Bath)
10.0,144149.6,-20.2657,68.009
21.5,123945.5,-17.23618,67.9941
46.4,110387.9,-14.97091,67.994
100.0,97335.86,-13.41621,67.9865
215.4,93172.79,-10.62076,68.0001
464.2,85199.28,-11.34623,67.9831
1000.0,78595.63,-12.05351,67.997
2154.4,73912.21,-15.9542,67.9987
4641.6,64977.76,-23.42935,68.0008
10000.0,55013.95,-35.26159,67.9988
