Frequency,Impedance,Phase Angle,Temperature (Dry Bath)
10.0,43624650.0,-15.9154,67.1275
21.5,28438260.0,-24.5052,67.1232
46.4,19286670.0,-49.15031,67.1192
100.0,8947756.0,-16.01893,67.1273
215.4,5977573.0,-113.883,67.1242
464.2,2105169.0,-72.88678,67.1148
1000.0,1196421.0,-83.50759,67.1261
2154.4,528708.5,-86.6526,67.1425
4641.6,260691.8,-88.51374,67.1527
10000.0,124254.4,-85.94449,67.1422
