Frequency,Impedance,Phase Angle,Temperature (Dry Bath)
10.0,1963226.0,-20.99516,65.7824
21.544346900318832,1705959.0,-17.17952,65.7559
46.41588833612777,1305164.0,-9.376454,65.775
100.0,485686.2,-2.307638,65.7564
215.44346900318823,14209.01,172.6134,65.7621
464.15888336127773,777290.0,-57.2915,65.7555
1000.0,492400.2,-44.87248,65.7827
2154.4346900318824,263494.3,-43.68639,65.7765
4641.588833612777,164608.5,-88.23651,65.7732
10000.0,65840.97,-90.8778,65.775
