Frequency,Impedance,Phase Angle,Temperature (Dry Bath)
10.0,4816631.0,-17.23582,71.4967
21.544346900318832,3880290.0,-9.254281,71.4978
46.41588833612777,5651061.0,-29.92636,71.5054
100.0,851048.8,55.02209,71.4964
215.44346900318823,1190199.0,-21.55473,71.5015
464.15888336127773,1081673.0,-97.21295,71.5031
1000.0,372499.5,-88.04653,71.5162
2154.4346900318824,278864.9,-83.20654,71.5039
4641.588833612777,164007.1,-113.5529,71.4938
10000.0,72518.9,-86.46134,71.4896
