Frequency,Impedance,Phase Angle,Temperature (Dry Bath)
10.0,24486330.0,-17.99121,67.9519
21.5,19907270.0,-37.11539,67.9519
46.4,21919130.0,-44.78723,67.9519
100.0,5624970.0,-28.29139,67.9519
215.4,4216653.0,-66.67327,67.9519
464.2,3216833.0,-67.35999,67.9519
1000.0,1418178.0,-88.37262,67.9519
2154.4,654035.5,-86.19704,67.9519
4641.6,297580.9,-92.22245,67.9519
10000.0,141505.2,-98.56289,67.9519
