Frequency,Impedance,Phase Angle,Temperature (Dry Bath)
10.0,5294058.0,-0.3991835,70.9383
21.544346900318832,6365523.0,-8.471372,70.9276
46.41588833612777,6306580.0,-19.44903,70.9355
100.0,1168077.0,173.1788,70.9329
215.44346900318823,577473.7,-132.7947,70.9143
464.15888336127773,413294.6,-75.75996,70.9277
1000.0,349007.9,-49.21256,70.9295
2154.4346900318824,302178.2,-94.33781,70.9291
4641.588833612777,116615.3,-74.69075,70.9363
10000.0,62575.1,-89.37563,70.9094
