Frequency,Impedance,Phase Angle,Temperature (Dry Bath)
10.0,27350050.0,-33.77674,67.2872
21.5,32728950.0,-22.60981,67.2779
46.4,22508630.0,-46.7704,67.2935
100.0,5897123.0,-59.88633,67.2905
215.4,2526436.0,-46.783,67.2937
464.2,2944082.0,-86.61397,67.3188
1000.0,1161171.0,-82.7255,67.3102
2154.4,580272.5,-84.66986,67.3234
4641.6,270910.4,-86.45664,67.3026
10000.0,135750.5,-86.75091,67.2966
