Frequency,Impedance,Phase Angle,Temperature (Dry Bath)
10.0,1488490.0,-18.27575,67.4481
21.5,1330013.0,-16.52793,67.4474
46.4,1212282.0,-13.59057,67.4614
100.0,1176736.0,-10.07619,67.4563
215.4,274758.0,-135.8975,67.4578
464.2,851961.1,-22.03127,67.4514
1000.0,642565.3,-43.76318,67.4718
2154.4,488891.3,-63.40399,67.4404
4641.6,249375.8,-70.28352,67.4609
10000.0,115138.3,-77.93404,67.4444
