Frequency,Impedance,Phase Angle,Temperature (Dry Bath)
10.0,38946000.0,-28.27019,67.9253
21.5,28717310.0,-36.47658,67.9212
46.4,30329990.0,-48.09258,67.9132
100.0,5078789.0,-54.1876,67.9272
215.4,4846547.0,-92.6151,67.9273
464.2,3016835.0,-89.21743,67.9264
1000.0,1172030.0,-85.74874,67.9167
2154.4,597666.0,-84.55342,67.9358
4641.6,296459.6,-96.74542,67.9333
10000.0,133116.6,-94.86482,67.9219
