Frequency,Impedance,Phase Angle,Temperature (Dry Bath)
10.0,1464771.0,-17.52494,67.3702
21.5,1303172.0,-15.85401,67.366
46.4,1162089.0,-17.01065,67.3781
100.0,969199.4,-14.92301,67.3865
215.4,360381.8,81.05614,67.3779
464.2,856515.1,-31.68697,67.3753
1000.0,661873.5,-45.16059,67.3747
2154.4,429862.5,-59.22487,67.3789
4641.6,220745.5,-68.54835,67.3721
10000.0,112155.1,-77.86284,67.394
