Frequency,Impedance,Phase Angle,Temperature (Dry Bath)
10.0,111304.1,-3.098701,67.2479
21.5,109092.4,-2.580927,67.251
46.4,107140.5,-2.442713,67.2715
100.0,104307.2,-2.333768,67.2615
215.4,104443.6,-3.34048,67.285
464.2,102477.7,-5.595098,67.2669
1000.0,98494.22,-7.949133,67.2725
2154.4,94893.83,-13.02493,67.2745
4641.6,85801.3,-23.69632,67.2817
10000.0,69862.6,-40.28832,67.2492
