Frequency,Impedance,Phase Angle,Temperature (Dry Bath)
10.0,4252980.0,-14.24773,70.6125
21.544346900318832,4467918.0,7.762857,70.6048
46.41588833612777,5294965.0,-50.03309,70.6122
100.0,965988.2,48.22689,70.6162
215.44346900318823,558784.6,-86.34665,70.6231
464.15888336127773,847415.8,156.475,70.6125
1000.0,251311.2,-63.65198,70.6193
2154.4346900318824,198905.6,-108.5234,70.6154
4641.588833612777,120270.3,-72.10516,70.6073
10000.0,54816.99,-91.93554,70.6058
