Frequency,Impedance,Phase Angle,Temperature (Dry Bath)
10.0,1570262.0,-17.29574,67.1926
21.5,1378848.0,-17.24569,67.1985
46.4,1255050.0,-15.30644,67.1658
100.0,1143697.0,-23.53209,67.1951
215.4,845157.6,-13.23274,67.1932
464.2,955301.2,-47.34381,67.2138
1000.0,678536.3,-47.38918,67.1907
2154.4,417458.4,-60.90722,67.1838
4641.6,224199.5,-69.2739,67.1757
10000.0,109403.8,-79.97886,67.1922
