Frequency,Impedance,Phase Angle,Temperature (Dry Bath)
10.0,118547.8,-4.331339,67.0657
21.5,115112.8,-3.225742,67.0703
46.4,113217.8,-3.139111,67.0677
100.0,112336.5,-2.728781,67.062
215.4,107864.2,-4.676028,67.077
464.2,109661.5,-6.842667,67.083
1000.0,102697.5,-8.812825,67.0869
2154.4,98826.95,-14.7384,67.0627
4641.6,87967.41,-24.47332,67.0774
10000.0,70156.66,-40.37307,67.0851
