Frequency,Impedance,Phase Angle,Temperature (Dry Bath)
10.0,179399.0,-22.45531,68.1705
21.5,151855.3,-19.47352,68.1687
46.4,134145.5,-16.75272,68.1773
100.0,118502.6,-14.40544,68.1711
215.4,108959.1,-13.89627,68.18
464.2,97902.31,-13.46833,68.1632
1000.0,89812.08,-14.67386,68.1691
2154.4,84099.01,-18.36618,68.1781
4641.6,70995.04,-25.92774,68.1837
10000.0,59368.23,-40.42269,68.1809
