Frequency,Impedance,Phase Angle,Temperature (Dry Bath)
10.0,157547.2,-21.0619,67.83
21.5,136848.2,-17.92629,67.8336
46.4,120324.8,-15.61042,67.8298
100.0,105307.7,-12.85131,67.8469
215.4,98731.14,-11.77374,67.8545
464.2,89448.94,-11.17934,67.8452
1000.0,83391.36,-13.4931,67.8333
2154.4,76610.47,-17.34295,67.8393
4641.6,69608.21,-23.25791,67.8491
10000.0,58616.74,-36.66343,67.8223
