Frequency,Impedance,Phase Angle,Temperature (Dry Bath)
10.0,4097438.0,-14.72874,71.212
21.544346900318832,7682646.0,-9.914008,71.2259
46.41588833612777,6830260.0,-32.14681,71.231
100.0,280318.9,-72.47681,71.2328
215.44346900318823,1166997.0,-16.08715,71.2526
464.15888336127773,718010.0,37.83969,71.2299
1000.0,1814665.0,154.7988,71.239
2154.4346900318824,264629.2,-85.65378,71.2156
4641.588833612777,142553.9,-82.37077,71.2287
10000.0,60332.66,-82.19025,71.2387
