Frequency,Impedance,Phase Angle,Temperature (Dry Bath)
10.0,6954002.0,-16.97176,71.522
21.544346900318832,4732167.0,20.37643,71.528
46.41588833612777,4478239.0,-18.65804,71.5403
100.0,591018.8,-45.9445,71.5353
215.44346900318823,599290.4,-32.43148,71.5235
464.15888336127773,2092298.0,-141.0916,71.5332
1000.0,1621750.0,-42.9568,71.5452
2154.4346900318824,738025.3,16.54387,71.5238
4641.588833612777,367222.2,-85.69103,71.5346
10000.0,134553.7,-88.67681,71.5365
