Frequency,Impedance,Phase Angle,Temperature (Dry Bath)
10.0,4529802.0,-2.425577,70.6469
21.544346900318832,3344510.0,-29.45292,70.641
46.41588833612777,5341631.0,-45.80782,70.6368
100.0,582896.0,-84.8618,70.6368
215.44346900318823,651142.6,147.5496,70.6289
464.15888336127773,474667.3,-25.04684,70.6277
1000.0,206249.1,-97.4929,70.6358
2154.4346900318824,269773.9,-69.40136,70.6305
4641.588833612777,91717.91,-80.85032,70.634
10000.0,56934.38,-86.02718,70.6376
