Frequency,Impedance,Phase Angle,Temperature (Dry Bath)
10.0,24629.94,-14.44238,70.5659
21.544346900318832,22410.81,-11.32013,70.5544
46.41588833612777,20701.78,-9.206442,70.5766
100.0,19135.3,-4.799125,70.5685
215.44346900318823,17999.34,-7.199019,70.5666
464.15888336127773,17822.8,-6.288058,70.5708
1000.0,17211.67,-5.731465,70.5645
2154.4346900318824,15621.59,-8.429996,70.5713
4641.588833612777,15722.06,-10.82581,70.5743
10000.0,14327.6,-18.18418,70.5854
