Frequency,Impedance,Phase Angle,Temperature (Dry Bath)
10.0,19220730.0,-25.35787,68.1861
21.5,12023860.0,-41.14661,68.1858
46.4,10022340.0,-58.26647,68.187
100.0,9794635.0,-43.35007,68.1885
215.4,4158006.0,-64.05396,68.1851
464.2,1847345.0,-74.83912,68.1752
1000.0,895990.8,-79.12072,68.1974
2154.4,478780.9,-80.63611,68.1803
4641.6,274007.2,-81.12405,68.1685
10000.0,134019.3,-89.67581,68.1837
