Frequency,Impedance,Phase Angle,Temperature (Dry Bath)
10.0,108581.7,-4.307651,67.2847
21.5,106002.1,-3.442546,67.2819
46.4,104505.7,-3.5208,67.2821
100.0,100758.2,-3.881456,67.2905
215.4,100332.6,-4.196189,67.3046
464.2,100022.2,-5.400469,67.2947
1000.0,95105.19,-8.735642,67.2845
2154.4,90127.7,-13.93712,67.2781
4641.6,82819.7,-22.67728,67.2894
10000.0,67434.8,-39.98076,67.274
