Frequency,Impedance,Phase Angle,Temperature (Dry Bath)
10.0,56407.25,-33.20505,67.3169
21.5,43625.12,-28.954,67.312
46.4,35682.27,-24.93655,67.3115
100.0,30260.95,-21.09796,67.3071
215.4,26548.78,-17.85306,67.3067
464.2,23748.87,-14.88628,67.3192
1000.0,21398.69,-12.86141,67.3001
2154.4,19757.39,-11.85501,67.2844
4641.6,18290.68,-12.07077,67.2904
10000.0,16923.94,-14.41499,67.3043
