Frequency,Impedance,Phase Angle,Temperature (Dry Bath)
10.0,4945661.0,-38.31742,71.4722
21.544346900318832,15717320.0,-9.51894,71.4576
46.41588833612777,5162362.0,-27.65697,71.465
100.0,471252.9,3.292239,71.4744
215.44346900318823,486456.4,14.3442,71.4583
464.15888336127773,456252.9,-77.20704,71.4645
1000.0,184500.2,-72.06869,71.4689
2154.4346900318824,310673.9,-74.17057,71.4676
4641.588833612777,124561.8,-84.1251,71.4721
10000.0,68427.53,-86.86283,71.467
