Frequency,Impedance,Phase Angle,Temperature (Dry Bath)
10.0,34725870.0,-19.47047,67.352
21.5,23497490.0,-28.26515,67.3513
46.4,10086170.0,-64.8685,67.3484
100.0,4176340.0,-61.70434,67.328
215.4,1516493.0,-56.47553,67.3336
464.2,2554208.0,-72.46422,67.3525
1000.0,1106824.0,-81.54371,67.3399
2154.4,540601.3,-89.00155,67.3319
4641.6,254018.7,-86.37165,67.3433
10000.0,124466.0,-84.0238,67.3383
