Frequency,Impedance,Phase Angle,Temperature (Dry Bath)
10.0,4870393.0,-27.49383,66.42
21.544346900318832,5881364.0,15.09685,66.4306
46.41588833612777,6433549.0,-25.55771,66.4031
100.0,332976.7,-66.89349,66.4116
215.44346900318823,464270.7,-50.21061,66.4281
464.15888336127773,490089.9,-60.15088,66.4161
1000.0,1155123.0,148.9341,66.4269
2154.4346900318824,322649.7,-82.6916,66.4262
4641.588833612777,154275.7,-81.77666,66.4166
10000.0,66490.27,-83.67997,66.4071
