Frequency,Impedance,Phase Angle,Temperature (Dry Bath)
10.0,41811520.0,-31.0737,67.72
21.5,27356840.0,-39.56252,67.7253
46.4,26193310.0,-44.86868,67.725
100.0,5299809.0,-30.89933,67.7186
215.4,3619143.0,-58.98829,67.7137
464.2,3518286.0,-95.54032,67.7074
1000.0,1583139.0,-86.90141,67.6987
2154.4,720872.9,-93.00965,67.7094
4641.6,320561.5,-86.57278,67.7076
10000.0,152597.9,-95.26739,67.6944
