Frequency,Impedance,Phase Angle,Temperature (Dry Bath)
10.0,131127.3,-4.051132,67.1171
21.5,128325.0,-3.544915,67.103
46.4,126354.3,-3.509767,67.1083
100.0,125189.3,-2.520196,67.1091
215.4,85295.83,43.04881,67.1218
464.2,119380.9,-6.471253,67.1085
1000.0,113139.8,-10.52887,67.1161
2154.4,107350.9,-15.40969,67.1036
4641.6,95189.83,-27.54397,67.1064
10000.0,72358.03,-43.76642,67.1084
