Frequency,Impedance,Phase Angle,Temperature (Dry Bath)
10.0,27423260.0,-1.976753,68.0268
21.5,23405720.0,-20.00868,68.0391
46.4,25767700.0,-48.83811,68.0297
100.0,17046970.0,-28.88491,68.0056
215.4,4737578.0,-101.538,68.0309
464.2,2257342.0,-77.76081,68.0204
1000.0,1409953.0,-77.80352,68.0395
2154.4,690893.3,-82.0865,68.0227
4641.6,294662.8,-90.21313,68.0316
10000.0,157487.9,-100.7804,68.0295
