Frequency,Impedance,Phase Angle,Temperature (Dry Bath)
10.0,1559298.0,-17.05577,67.8772
21.5,1411549.0,-14.85854,67.8679
46.4,1256973.0,-14.58077,67.8751
100.0,1194476.0,-13.93172,67.8533
215.4,936146.8,-15.84016,67.8794
464.2,969304.8,-19.24423,67.8482
1000.0,713322.3,-37.7982,67.8323
2154.4,508084.0,-59.18682,67.8585
4641.6,259751.9,-76.69572,67.8465
10000.0,132808.2,-89.71882,67.8673
