Frequency,Impedance,Phase Angle,Temperature (Dry Bath)
10.0,46049880.0,1.991304,67.7714
21.5,55524120.0,-28.66032,67.7777
46.4,23020550.0,-43.58786,67.7568
100.0,4449633.0,-33.95449,67.7644
215.4,4261602.0,-30.01478,67.7841
464.2,2233924.0,-90.60832,67.7624
1000.0,1542281.0,-87.77374,67.7606
2154.4,704072.1,-93.06133,67.7843
4641.6,301294.1,-88.51303,67.7712
10000.0,155025.0,-96.44175,67.7569
