Frequency,Impedance,Phase Angle,Temperature (Dry Bath)
10.0,875157.4,-31.14612,71.2692
21.544346900318832,705624.5,-24.95008,71.274
46.41588833612777,587996.0,-21.53767,71.2979
100.0,275582.1,-41.24194,71.2952
215.44346900318823,527227.4,5.67367,71.2891
464.15888336127773,359563.6,-41.46449,71.2691
1000.0,186887.5,-5.112212,71.2819
2154.4346900318824,161210.6,-60.32109,71.2774
4641.588833612777,131879.0,-73.32006,71.268
10000.0,57296.56,-71.64437,71.2791
