Frequency,Impedance,Phase Angle,Temperature (Dry Bath)
10.0,6638952.0,33.37531,71.2629
21.544346900318832,4682662.0,-19.64626,71.238
46.41588833612777,3616836.0,-12.29539,71.2493
100.0,410168.9,-28.5573,71.2554
215.44346900318823,374761.4,-73.56896,71.2543
464.15888336127773,648944.5,-72.67995,71.2698
1000.0,380147.2,-76.7174,71.2611
2154.4346900318824,473115.9,-44.2354,71.2577
4641.588833612777,121451.4,-76.12154,71.2574
10000.0,71221.65,-88.13763,71.2488
