Frequency,Impedance,Phase Angle,Temperature (Dry Bath)
10.0,6650277.0,5.52846,71.3468
21.544346900318832,5071664.0,-17.50371,71.3437
46.41588833612777,4831217.0,-28.85125,71.3482
100.0,744345.0,137.6375,71.353
215.44346900318823,551589.1,69.86697,71.3597
464.15888336127773,640041.4,-19.90164,71.3397
1000.0,530031.0,-88.30133,71.3372
2154.4346900318824,237077.9,-96.41465,71.3504
4641.588833612777,153743.5,-86.68778,71.3478
10000.0,62991.84,-91.37904,71.3451
