Frequency,Impedance,Phase Angle,Temperature (Dry Bath)
10.0,20640800.0,-20.54221,67.2771
21.5,19148330.0,-27.70184,67.2888
46.4,14411660.0,-59.02,67.2654
100.0,29518010.0,102.9262,67.2516
215.4,1823630.0,-87.13344,67.2735
464.2,2354582.0,-97.99401,67.2732
1000.0,921280.9,-95.30006,67.2793
2154.4,425187.2,-81.13465,67.2812
4641.6,214673.2,-80.50061,67.2845
10000.0,109019.6,-80.51362,67.3023
