Frequency,Impedance,Phase Angle,Temperature (Dry Bath)
10.0,3591088.0,5.140419,71.4886
21.544346900318832,7001096.0,-1.506701,71.485
46.41588833612777,4453642.0,-19.17793,71.4899
100.0,1486065.0,76.79268,71.4925
215.44346900318823,537083.4,-121.5237,71.4881
464.15888336127773,1565194.0,179.7328,71.4884
1000.0,627221.2,-81.58264,71.4995
2154.4346900318824,519760.1,-72.17052,71.4902
4641.588833612777,195398.4,-91.77987,71.5019
10000.0,117312.9,-88.44521,71.487
