Frequency,Impedance,Phase Angle,Temperature (Dry Bath)
10.0,105795.4,-14.00806,71.3266
21.544346900318832,96394.89,-12.89684,71.3353
46.41588833612777,87530.37,-11.65466,71.3199
100.0,86635.42,-4.578762,71.3314
215.44346900318823,69985.08,-11.66223,71.3334
464.15888336127773,61020.21,-13.02499,71.3261
1000.0,52724.83,-21.79068,71.3103
2154.4346900318824,51613.84,-13.7925,71.3394
4641.588833612777,41436.01,-35.02978,71.3257
10000.0,37679.72,-43.82197,71.3288
