Frequency,Impedance,Phase Angle,Temperature (Dry Bath)
10.0,1481755.0,-17.55469,67.4096
21.5,1322354.0,-16.71446,67.4067
46.4,1239948.0,-14.40998,67.4034
100.0,1264278.0,-20.50433,67.4122
215.4,280056.0,87.99707,67.426
464.2,937616.6,-37.98033,67.4067
1000.0,674507.5,-44.29405,67.4054
2154.4,467745.9,-63.85507,67.4126
4641.6,242999.9,-71.76999,67.4138
10000.0,117153.4,-79.28769,67.4067
