Frequency,Impedance,Phase Angle,Temperature (Dry Bath)
10.0,173353.2,-12.38373,71.1927
21.544346900318832,158362.6,-12.17605,71.1951
46.41588833612777,142043.5,-11.47374,71.1955
100.0,141702.1,2.100169,71.2127
215.44346900318823,110522.0,-12.40828,71.2018
464.15888336127773,113451.6,-13.12534,71.2022
1000.0,100455.6,-22.32359,71.1894
2154.4346900318824,89120.31,-17.49795,71.2071
4641.588833612777,68015.04,-40.58053,71.2031
10000.0,50979.72,-56.37972,71.2018
