Frequency,Impedance,Phase Angle,Temperature (Dry Bath)
10.0,1471091.0,-17.50231,67.2771
21.5,1331876.0,-15.22392,67.2847
46.4,1190939.0,-14.71902,67.2926
100.0,1001711.0,-20.02452,67.3084
215.4,943838.2,-18.00787,67.2796
464.2,800120.5,-28.57222,67.2417
1000.0,648087.4,-42.03166,67.2684
2154.4,435202.0,-60.60125,67.2659
4641.6,231365.3,-73.51925,67.2563
10000.0,111824.5,-78.61424,67.2633
