Frequency,Impedance,Phase Angle,Temperature (Dry Bath)
10.0,28491040.0,-32.93319,67.8204
21.5,24557790.0,-27.80077,67.8127
46.4,26658190.0,-52.31182,67.8203
100.0,5133701.0,-92.21679,67.8246
215.4,3821676.0,-75.71118,67.8033
464.2,2949662.0,-82.37485,67.8298
1000.0,1406939.0,-80.58628,67.8277
2154.4,597844.1,-89.2153,67.8171
4641.6,282679.5,-87.41782,67.8203
10000.0,129768.4,-96.08884,67.8181
