Frequency,Impedance,Phase Angle,Temperature (Dry Bath)
10.0,6028435.0,3.166783,71.3192
21.544346900318832,10116820.0,-12.27394,71.3289
46.41588833612777,3738119.0,-19.3983,71.3246
100.0,584160.8,109.4358,71.3346
215.44346900318823,25733.62,-93.91135,71.3189
464.15888336127773,636951.3,166.7448,71.3239
1000.0,381472.5,-12.33724,71.3206
2154.4346900318824,277171.9,-77.09715,71.3307
4641.588833612777,214946.6,-80.13438,71.3231
10000.0,67612.01,-78.82846,71.3349
