Frequency,Impedance,Phase Angle,Temperature (Dry Bath)
10.0,7157529.0,-26.61119,71.3725
21.544346900318832,7314009.0,13.19754,71.3688
46.41588833612777,4479768.0,-22.29923,71.3502
100.0,887598.3,27.82544,71.3465
215.44346900318823,816677.8,120.23,71.3592
464.15888336127773,550840.2,-94.99056,71.3587
1000.0,921760.7,-45.80694,71.3705
2154.4346900318824,342739.5,-63.76179,71.3713
4641.588833612777,308375.9,-77.6239,71.3808
10000.0,137098.7,-79.05298,71.3586
