Frequency,Impedance,Phase Angle,Temperature (Dry Bath)
10.0,4451346.0,4.672792,71.4577
21.544346900318832,4698547.0,5.515501,71.4519
46.41588833612777,6406507.0,-24.9021,71.4541
100.0,1831321.0,-84.17611,71.4649
215.44346900318823,600092.9,-170.078,71.4744
464.15888336127773,372338.3,-36.0894,71.4696
1000.0,1290842.0,-82.19134,71.4502
2154.4346900318824,406599.4,-110.2301,71.47
4641.588833612777,194536.0,-83.22659,71.4574
10000.0,177327.0,-94.00631,71.4621
