Frequency,Impedance,Phase Angle,Temperature (Dry Bath)
10.0,210062.5,-23.33117,67.4238
21.5,176601.6,-20.56371,67.4098
46.4,152597.5,-17.84218,67.4283
100.0,138254.3,-15.75175,67.4282
215.4,263837.0,25.06549,67.4239
464.2,111273.6,-14.22575,67.4221
1000.0,101332.3,-15.53506,67.4296
2154.4,91385.33,-20.05235,67.4261
4641.6,76772.49,-28.60596,67.4196
10000.0,59223.1,-40.09525,67.4278
