Frequency,Impedance,Phase Angle,Temperature (Dry Bath)
10.0,51588.25,-34.4054,67.4952
21.5,39473.48,-30.36651,67.5114
46.4,31694.23,-26.42685,67.5051
100.0,26584.92,-22.20568,67.4833
215.4,20249.17,-23.64646,67.49
464.2,20397.47,-15.95466,67.4958
1000.0,18373.1,-13.63037,67.4969
2154.4,16824.26,-12.36612,67.486
4641.6,15508.72,-12.22662,67.512
10000.0,14344.68,-13.94481,67.5028
