Frequency,Impedance,Phase Angle,Temperature (Dry Bath)
10.0,1459192.0,-17.99272,67.3221
21.5,1281512.0,-15.25067,67.3132
46.4,1181839.0,-14.69644,67.3235
100.0,1268355.0,1.367583,67.3086
215.4,1093738.0,-20.38856,67.3362
464.2,827705.6,-29.31542,67.3151
1000.0,633411.4,-41.11939,67.3348
2154.4,435740.8,-59.86858,67.3224
4641.6,237257.1,-73.39805,67.321
10000.0,114132.9,-78.69881,67.3249
