Frequency,Impedance,Phase Angle,Temperature (Dry Bath)
10.0,519289.3,-3.234091,71.3042
21.544346900318832,547716.5,-4.447335,71.304
46.41588833612777,523535.7,-3.439399,71.3226
100.0,334286.1,14.63418,71.3193
215.44346900318823,536565.0,-1.50048,71.3092
464.15888336127773,416541.9,3.879107,71.3044
1000.0,486114.9,-7.904462,71.3116
2154.4346900318824,638133.3,-54.31716,71.3159
4641.588833612777,209322.8,-57.02429,71.3152
10000.0,98919.84,-76.10672,71.3121
