Frequency,Impedance,Phase Angle,Temperature (Dry Bath)
10.0,5615027.0,-23.04057,71.1175
21.544346900318832,5165587.0,-12.56319,71.1021
46.41588833612777,4402342.0,-27.94327,71.11
100.0,790262.3,178.8246,71.1176
215.44346900318823,580401.8,-89.70081,71.1199
464.15888336127773,414221.9,-130.0301,71.1016
1000.0,232079.7,-105.5965,71.108
2154.4346900318824,280868.9,-102.1794,71.1214
4641.588833612777,164335.5,-90.58477,71.0901
10000.0,58832.62,-86.73749,71.1171
