Frequency,Impedance,Phase Angle,Temperature (Dry Bath)
10.0,2712257.0,-24.16985,71.0729
21.544346900318832,2809620.0,-9.323547,71.0797
46.41588833612777,2565212.0,-22.09889,71.0754
100.0,1837417.0,4.500509,71.082
215.44346900318823,2065093.0,37.43805,71.0773
464.15888336127773,612144.4,-14.48483,71.0767
1000.0,707774.7,-85.72597,71.0766
2154.4346900318824,204668.6,-100.4038,71.0531
4641.588833612777,127185.3,-86.57732,71.0714
10000.0,69161.44,-86.76363,71.0494
