Frequency,Impedance,Phase Angle,Temperature (Dry Bath)
10.0,23604160.0,-20.14979,67.3861
21.5,26373330.0,-54.5366,67.393
46.4,13652500.0,-56.56762,67.3713
100.0,17660130.0,-137.4142,67.3675
215.4,212052.1,104.3665,67.3794
464.2,3295263.0,-88.96222,67.3769
1000.0,1061351.0,-71.78649,67.3913
2154.4,488862.4,-87.91148,67.3939
4641.6,250622.6,-86.0283,67.3796
10000.0,125792.5,-84.29221,67.3807
