Frequency,Impedance,Phase Angle,Temperature (Dry Bath)
10.0,23464450.0,-19.29169,68.0804
21.5,30214340.0,-14.40343,68.0788
46.4,27120140.0,-43.88801,68.0868
100.0,4518848.0,-49.4811,68.0706
215.4,5731397.0,-75.20995,68.0771
464.2,2672331.0,-75.98785,68.0801
1000.0,1532703.0,-81.66969,68.0608
2154.4,630314.8,-86.08443,68.0647
4641.6,296076.8,-84.12443,68.0648
10000.0,154723.2,-101.7004,68.0743
