Frequency,Impedance,Phase Angle,Temperature (Dry Bath)
10.0,23956460.0,-9.894416,67.3763
21.5,28905280.0,-29.37151,67.364
46.4,14204030.0,-61.61629,67.372
100.0,8187541.0,-78.7304,67.3733
215.4,301315.9,14.91594,67.3695
464.2,2863248.0,-88.43668,67.3769
1000.0,1340370.0,-86.49792,67.363
2154.4,619868.4,-83.08165,67.3727
4641.6,261505.9,-88.69338,67.3616
10000.0,129310.7,-85.31535,67.3581
