Frequency,Impedance,Phase Angle,Temperature (Dry Bath)
10.0,29317870.0,-32.94142,68.0676
21.5,24665580.0,-38.1955,68.0703
46.4,28278920.0,-43.8712,68.0669
100.0,5540317.0,-63.62757,68.0603
215.4,4253287.0,-73.87529,68.0662
464.2,2598049.0,-93.03896,68.0621
1000.0,1417073.0,-85.96725,68.0662
2154.4,670782.9,-86.98538,68.0709
4641.6,321140.1,-93.10201,68.0757
10000.0,144331.0,-96.75227,68.0653
