Frequency,Impedance,Phase Angle,Temperature (Dry Bath)
10.0,26822330.0,-18.95999,68.1363
21.5,57929420.0,-29.86941,68.1404
46.4,35992990.0,-44.98579,68.1436
100.0,5215698.0,-33.08386,68.1368
215.4,6745466.0,-71.66352,68.1473
464.2,2499559.0,-80.16513,68.1374
1000.0,1397817.0,-81.97426,68.1422
2154.4,631056.1,-85.77677,68.1529
4641.6,283318.7,-89.92304,68.1523
10000.0,139173.3,-93.04117,68.1403
