Frequency,Impedance,Phase Angle,Temperature (Dry Bath)
10.0,5904102.0,3.048122,71.4793
21.544346900318832,3562911.0,-2.85624,71.4881
46.41588833612777,5582935.0,-9.837484,71.4928
100.0,1298467.0,-63.80088,71.468
215.44346900318823,1163527.0,27.23272,71.4873
464.15888336127773,338878.9,-13.76573,71.4846
1000.0,696399.6,-76.0032,71.4755
2154.4346900318824,655955.2,-64.7159,71.4817
4641.588833612777,567543.5,-76.92608,71.5053
10000.0,150622.6,-95.84471,71.5041
