Frequency,Impedance,Phase Angle,Temperature (Dry Bath)
10.0,4052206.0,23.79317,70.4027
21.544346900318832,10288290.0,-24.06328,70.3821
46.41588833612777,5537976.0,1.631585,70.3775
100.0,771022.1,15.69149,70.3733
215.44346900318823,969015.6,66.77466,70.3864
464.15888336127773,1849871.0,-23.54048,70.404
1000.0,430401.8,-37.31661,70.3872
2154.4346900318824,1063397.0,-45.35211,70.372
4641.588833612777,307513.2,-80.64209,70.3813
10000.0,148998.7,-86.85501,70.3659
