Frequency,Impedance,Phase Angle,Temperature (Dry Bath)
10.0,22285610.0,-9.273993,68.3094
21.5,15909300.0,-30.39698,68.3094
46.4,16165850.0,-52.81287,68.3094
100.0,11184720.0,-79.39068,68.3094
215.4,4967308.0,-46.22622,68.3094
464.2,2401284.0,-75.33567,68.3094
1000.0,1258070.0,-84.31083,68.3094
2154.4,658764.5,-89.90317,68.3094
4641.6,286307.8,-91.29647,68.3094
10000.0,154185.9,-96.36397,68.3094
