Frequency,Impedance,Phase Angle,Temperature (Dry Bath)
10.0,8429773.0,24.75778,71.188
21.544346900318832,7011013.0,-18.81851,71.1965
46.41588833612777,4040542.0,-10.40839,71.2084
100.0,344093.4,-25.72633,71.2017
215.44346900318823,1035637.0,89.14866,71.2038
464.15888336127773,393275.1,-132.1214,71.1971
1000.0,401044.1,-51.48863,71.2204
2154.4346900318824,302679.6,-55.01872,71.2105
4641.588833612777,141397.4,-84.09336,71.1965
10000.0,61646.56,-87.27251,71.2128
