Frequency,Impedance,Phase Angle,Temperature (Dry Bath)
10.0,6430756.0,-19.48129,71.2
21.544346900318832,3638078.0,-17.19129,71.1915
46.41588833612777,3282048.0,-47.25253,71.1812
100.0,607966.0,-127.6396,71.2038
215.44346900318823,1662982.0,-40.82128,71.1791
464.15888336127773,483848.5,-18.06948,71.2086
1000.0,846058.7,128.5713,71.1896
2154.4346900318824,155624.0,-76.9279,71.1953
4641.588833612777,75875.43,-84.23456,71.1902
10000.0,38093.93,-87.71207,71.1848
