Frequency,Impedance,Phase Angle,Temperature (Dry Bath)
10.0,174061.1,-12.03432,66.2731
21.544346900318832,159655.9,-11.59561,66.2505
46.41588833612777,146981.5,-10.44081,66.2651
100.0,136019.0,-20.36029,66.252
215.44346900318823,127816.0,-0.962779,66.2696
464.15888336127773,109870.3,-12.75932,66.2662
1000.0,106990.2,-9.691858,66.2577
2154.4346900318824,89814.69,-22.52988,66.2414
4641.588833612777,67765.8,-34.90469,66.2364
10000.0,54326.36,-54.29422,66.2351
