Frequency,Impedance,Phase Angle,Temperature (Dry Bath)
10.0,6600533.0,-3.817938,67.3374
21.5,7131157.0,-5.958632,67.3645
46.4,5883230.0,-16.38463,67.36
100.0,3124344.0,-47.28947,67.3388
215.4,189885.5,-77.51085,67.3326
464.2,1326705.0,-75.25098,67.3417
1000.0,1205317.0,-72.9627,67.3339
2154.4,548679.4,-88.97766,67.3465
4641.6,283100.6,-83.23542,67.3246
10000.0,126807.3,-84.20736,67.318
