Frequency,Impedance,Phase Angle,Temperature (Dry Bath)
10.0,28356100.0,-5.318634,67.9686
21.5,18976520.0,-27.01791,67.9686
46.4,24437170.0,-51.82546,67.9686
100.0,11142290.0,-47.28051,67.9686
215.4,8325461.0,-65.79156,67.9686
464.2,2820441.0,-53.45526,67.9686
1000.0,1398580.0,-83.80359,67.9686
2154.4,624030.3,-84.55209,67.9686
4641.6,301977.3,-86.98613,67.9686
10000.0,143847.9,-98.70425,67.9686
