Frequency,Impedance,Phase Angle,Temperature (Dry Bath)
10.0,34671700.0,-11.6964,68.1265
21.5,31761490.0,-29.0728,68.144
46.4,36926690.0,-43.66953,68.1391
100.0,7566931.0,-67.54235,68.1397
215.4,6612828.0,-68.1145,68.1491
464.2,3128579.0,-90.52407,68.1323
1000.0,1441868.0,-83.92948,68.1389
2154.4,711202.4,-86.78946,68.1528
4641.6,287607.2,-92.32967,68.1414
10000.0,158235.9,-96.32068,68.1545
