Frequency,Impedance,Phase Angle,Temperature (Dry Bath)
10.0,73419.31,-13.76547,70.9535
21.544346900318832,66063.27,-11.88906,70.9659
46.41588833612777,60506.85,-10.6491,70.964
100.0,66310.19,-8.695036,70.9552
215.44346900318823,54469.17,-5.31071,70.9758
464.15888336127773,56021.27,-8.859195,70.9695
1000.0,45825.36,-12.58805,70.9595
2154.4346900318824,43674.08,-14.15912,70.9659
4641.588833612777,37320.56,-26.05763,70.9683
10000.0,30878.26,-37.51629,70.9542
