Frequency,Impedance,Phase Angle,Temperature (Dry Bath)
10.0,30233150.0,-10.58665,67.1945
21.5,22756200.0,-26.31727,67.1952
46.4,15271630.0,-56.07421,67.1906
100.0,3420604.0,-68.80739,67.203
215.4,2990603.0,-68.84356,67.2079
464.2,2514696.0,-78.43303,67.2054
1000.0,940499.5,-90.98031,67.2072
2154.4,538317.7,-77.74824,67.2028
4641.6,264230.4,-84.83777,67.1944
10000.0,124257.6,-83.94648,67.2027
