Frequency,Impedance,Phase Angle,Temperature (Dry Bath)
10.0,20284040.0,-17.95123,68.1065
21.5,17407160.0,-34.8083,68.1025
46.4,17359980.0,-56.44325,68.1116
100.0,6966031.0,-56.02913,68.103
215.4,4919161.0,-64.8501,68.1053
464.2,2966720.0,-82.6572,68.1004
1000.0,1408680.0,-80.59821,68.1099
2154.4,655455.6,-85.96809,68.1053
4641.6,308038.8,-92.60097,68.0925
10000.0,138792.7,-93.94933,68.0967
