Frequency,Impedance,Phase Angle,Temperature (Dry Bath)
10.0,208034.2,-23.4246,67.4433
21.5,174682.6,-20.53027,67.4446
46.4,151277.1,-17.3562,67.4744
100.0,138499.5,-15.51338,67.4647
215.4,117272.0,-19.06417,67.4531
464.2,113406.7,-13.20376,67.4595
1000.0,101400.5,-15.61484,67.4792
2154.4,91689.78,-20.22657,67.4653
4641.6,77542.99,-28.23048,67.4411
10000.0,59148.41,-39.16334,67.465
