Frequency,Impedance,Phase Angle,Temperature (Dry Bath)
10.0,17145780.0,-7.522876,68.1367
21.5,17867160.0,-24.25557,68.1411
46.4,15980570.0,-44.50781,68.13
100.0,6890439.0,-61.61247,68.1391
215.4,5520883.0,-65.67429,68.1416
464.2,2832377.0,-101.2747,68.1398
1000.0,1346554.0,-81.82674,68.1445
2154.4,663345.4,-83.03316,68.1646
4641.6,304334.5,-93.72742,68.1428
10000.0,157625.0,-94.80715,68.1331
