Frequency,Impedance,Phase Angle,Temperature (Dry Bath)
10.0,124843.6,-23.85034,66.9885
21.5,105154.8,-21.38198,66.992
46.4,90814.74,-18.55288,66.9878
100.0,79954.13,-16.87614,66.9787
215.4,72523.76,-14.74484,66.9523
464.2,65971.09,-13.07594,66.9666
1000.0,59630.51,-12.2393,66.9919
2154.4,56129.36,-13.78955,66.9875
4641.6,51564.91,-18.37249,66.9611
10000.0,45394.17,-27.64708,66.9692
