Frequency,Impedance,Phase Angle,Temperature (Dry Bath)
10.0,46493.91,-16.49636,70.6139
21.544346900318832,40855.11,-15.08577,70.6118
46.41588833612777,36111.29,-13.8343,70.6141
100.0,31724.68,-9.516093,70.6356
215.44346900318823,28844.5,-10.61878,70.6354
464.15888336127773,26857.38,-7.853706,70.6205
1000.0,24124.61,-13.05809,70.6193
2154.4346900318824,23014.67,-13.29404,70.6312
4641.588833612777,22352.09,-13.42986,70.6189
10000.0,19065.8,-24.20126,70.6278
