Frequency,Impedance,Phase Angle,Temperature (Dry Bath)
10.0,34798840.0,-47.04335,67.3064
21.5,20329040.0,-25.53295,67.3129
46.4,17625390.0,29.01814,67.3082
100.0,4359420.0,-52.56047,67.3078
215.4,194265.5,146.7627,67.3075
464.2,2881370.0,-23.16286,67.3192
1000.0,1036287.0,-84.63127,67.2986
2154.4,493229.5,-90.70004,67.3235
4641.6,258977.9,-82.75598,67.3056
10000.0,125395.4,-85.91752,67.3154
