Frequency,Impedance,Phase Angle,Temperature (Dry Bath)
10.0,30442220.0,-11.99294,67.3612
21.5,22753340.0,-48.37352,67.3746
46.4,8899595.0,-73.10301,67.3821
100.0,4272573.0,-66.50559,67.362
215.4,540311.5,101.7767,67.3813
464.2,1940700.0,-77.15542,67.3752
1000.0,1004287.0,-74.84957,67.3828
2154.4,480808.1,-80.70275,67.3749
4641.6,247860.3,-79.57157,67.3844
10000.0,126509.1,-81.64338,67.3684
