Frequency,Impedance,Phase Angle,Temperature (Dry Bath)
10.0,35918980.0,10.75058,67.1581
21.5,25917930.0,-21.73154,67.1372
46.4,17697030.0,-49.92313,67.1498
100.0,796244.5,131.8133,67.1618
215.4,12838080.0,-19.99158,67.1562
464.2,2210351.0,-86.24402,67.164
1000.0,1235386.0,-95.86469,67.1552
2154.4,512702.9,-83.74998,67.1532
4641.6,301616.7,-89.07359,67.1488
10000.0,130494.8,-85.9067,67.1511
