Frequency,Impedance,Phase Angle,Temperature (Dry Bath)
10.0,3524033.0,-6.206473,71.4364
21.544346900318832,4111775.0,-16.37196,71.4482
46.41588833612777,4914274.0,-16.19421,71.4353
100.0,1331801.0,10.44852,71.4494
215.44346900318823,1218597.0,-53.84634,71.441
464.15888336127773,1101797.0,-149.1572,71.4472
1000.0,402847.2,-81.41398,71.4594
2154.4346900318824,524056.3,-53.73288,71.4435
4641.588833612777,205041.1,-80.25925,71.4423
10000.0,100407.7,-80.57947,71.4441
