Frequency,Impedance,Phase Angle,Temperature (Dry Bath)
10.0,850070.3,14.35892,67.0845
21.5,97029.02,-3.708193,67.1049
46.4,96580.11,-3.414367,67.0892
100.0,93845.99,-4.349144,67.0773
215.4,93812.45,-2.358192,67.094
464.2,93680.17,-5.718708,67.0748
1000.0,87481.83,-7.306757,67.0855
2154.4,85388.56,-12.91015,67.0751
4641.6,79001.4,-21.09306,67.075
10000.0,64349.06,-37.22961,67.0759
