Frequency,Impedance,Phase Angle,Temperature (Dry Bath)
10.0,22155020.0,9.766969,68.0036
21.5,23527590.0,-32.60475,67.9922
46.4,24940430.0,-37.84621,67.9994
100.0,13548300.0,-62.12768,68.0018
215.4,2321669.0,-83.34929,67.9767
464.2,2464215.0,-55.52621,68.0056
1000.0,1492709.0,-85.49648,67.9926
2154.4,678736.6,-96.42451,68.0024
4641.6,327724.5,-91.15804,67.9789
10000.0,158812.8,-94.37662,67.9831
