Frequency,Impedance,Phase Angle,Temperature (Dry Bath)
10.0,120547.6,-3.325298,67.4072
21.5,118562.3,-3.124033,67.3901
46.4,117216.9,-3.254192,67.3812
100.0,117120.9,-2.496879,67.3806
215.4,88231.28,22.81205,67.388
464.2,111820.9,-5.294444,67.3791
1000.0,107439.5,-8.592567,67.3954
2154.4,102988.6,-14.39402,67.3792
4641.6,94216.06,-25.09579,67.3973
10000.0,73279.13,-40.29239,67.3683
