Frequency,Impedance,Phase Angle,Temperature (Dry Bath)
10.0,55504.45,-16.95105,70.8751
21.544346900318832,49148.32,-14.68992,70.8679
46.41588833612777,44006.28,-14.05925,70.8665
100.0,43098.86,-11.40366,70.8688
215.44346900318823,34479.5,-13.87124,70.8726
464.15888336127773,32414.12,-9.59967,70.8688
1000.0,28819.62,-12.49697,70.8747
2154.4346900318824,26881.23,-15.96749,70.8522
4641.588833612777,25010.09,-16.66325,70.8581
10000.0,21323.09,-29.56286,70.8575
