Frequency,Impedance,Phase Angle,Temperature (Dry Bath)
10.0,25171800.0,-10.75412,67.9824
21.5,22139460.0,-23.96735,67.9929
46.4,28451080.0,-45.93101,68.0044
100.0,7175001.0,-47.28603,68.0118
215.4,4796354.0,-39.91128,67.9842
464.2,2643337.0,-121.5765,67.9777
1000.0,1261729.0,-88.21318,67.9902
2154.4,592390.1,-85.65501,67.9973
4641.6,281569.2,-87.8751,68.0056
10000.0,129053.3,-95.80412,68.0076
