Frequency,Impedance,Phase Angle,Temperature (Dry Bath)
10.0,20149850.0,-14.97844,67.9543
21.5,35147720.0,-17.59808,67.933
46.4,36439470.0,-56.78521,67.943
100.0,4393081.0,-18.56399,67.9475
215.4,6438702.0,-57.29283,67.9503
464.2,2821203.0,-93.87756,67.9417
1000.0,1330005.0,-81.43498,67.9397
2154.4,572253.7,-89.67103,67.9556
4641.6,306171.0,-93.685,67.9396
10000.0,145365.4,-96.22725,67.9306
