Frequency,Impedance,Phase Angle,Temperature (Dry Bath)
10.0,2302251.0,-13.4174,65.8198
21.544346900318832,1660430.0,-9.027528,65.8183
46.41588833612777,1262841.0,-19.03423,65.8379
100.0,750306.9,1.387564,65.8163
215.44346900318823,10581.81,163.5642,65.8111
464.15888336127773,470682.5,-43.59814,65.8168
1000.0,919531.9,29.62219,65.819
2154.4346900318824,339643.0,-84.20844,65.8292
4641.588833612777,120962.0,-76.33309,65.8171
10000.0,65454.26,-87.84427,65.8151
