Frequency,Impedance,Phase Angle,Temperature (Dry Bath)
10.0,24944240.0,-7.261779,67.4265
21.5,20946740.0,-34.8032,67.4371
46.4,13588100.0,-47.46129,67.4309
100.0,9682638.0,-80.11019,67.427
215.4,618130.7,23.66606,67.4346
464.2,2163630.0,-128.9775,67.4238
1000.0,799062.9,-81.22902,67.4202
2154.4,420852.8,-82.07534,67.4184
4641.6,217776.4,-82.99599,67.4233
10000.0,100094.1,-81.20904,67.4202
