Frequency,Impedance,Phase Angle,Temperature (Dry Bath)
10.0,453313.7,-12.04542,71.0895
21.544346900318832,434235.1,-10.03384,71.0874
46.41588833612777,407856.2,-11.47281,71.0966
100.0,735698.5,24.62109,71.0985
215.44346900318823,294254.5,10.32499,71.0945
464.15888336127773,1213503.0,-55.64202,71.1011
1000.0,107757.0,0.1152839,71.0835
2154.4346900318824,405592.2,-54.88306,71.086
4641.588833612777,124860.0,-44.35481,71.0922
10000.0,90033.16,-48.4852,71.0784
