Frequency,Impedance,Phase Angle,Temperature (Dry Bath)
10.0,31549870.0,-17.08584,67.4882
21.5,22588220.0,-26.92644,67.48
46.4,13312680.0,-35.2321,67.4935
100.0,4402118.0,-42.51797,67.4703
215.4,319791.3,-152.1934,67.4772
464.2,3073817.0,-74.32295,67.4866
1000.0,982036.4,-81.47773,67.4767
2154.4,508639.6,-88.40264,67.4793
4641.6,256629.4,-83.39654,67.4647
10000.0,124317.6,-84.68076,67.4664
