Frequency,Impedance,Phase Angle,Temperature (Dry Bath)
10.0,176010.0,-13.34027,71.3175
21.544346900318832,160100.2,-11.10475,71.3029
46.41588833612777,147900.0,-11.3633,71.3368
100.0,147349.3,-11.68669,71.3268
215.44346900318823,89891.79,-20.96328,71.3171
464.15888336127773,112814.9,-7.570794,71.3178
1000.0,104743.6,-26.92103,71.3125
2154.4346900318824,79427.06,-23.41639,71.3395
4641.588833612777,79194.78,-38.57142,71.3264
10000.0,51100.44,-57.33297,71.318
