Frequency,Impedance,Phase Angle,Temperature (Dry Bath)
10.0,147927.8,-4.858023,68.091
21.5,142442.7,-4.127801,68.0799
46.4,139138.7,-3.802675,68.1015
100.0,137699.5,-2.739864,68.0873
215.4,130022.9,-2.721908,68.0904
464.2,126785.2,-6.0119,68.0696
1000.0,126706.1,-9.011083,68.0866
2154.4,118762.7,-16.55927,68.0836
4641.6,110041.8,-30.13143,68.0731
10000.0,84649.91,-51.08511,68.0791
