Frequency,Impedance,Phase Angle,Temperature (Dry Bath)
10.0,5905584.0,-24.56374,70.9386
21.544346900318832,4507762.0,-11.58092,70.9472
46.41588833612777,5906188.0,-22.05872,70.9566
100.0,725931.6,1.732759,70.9603
215.44346900318823,2281636.0,106.3215,70.9501
464.15888336127773,1700085.0,-73.5505,70.9444
1000.0,1744473.0,74.84157,70.9456
2154.4346900318824,395693.6,-74.62671,70.9372
4641.588833612777,148769.5,-105.4565,70.9546
10000.0,67709.86,-86.05398,70.9436
