Frequency,Impedance,Phase Angle,Temperature (Dry Bath)
10.0,26386530.0,-19.46901,67.1188
21.5,20880360.0,-34.47239,67.1492
46.4,10235170.0,-48.94456,67.1392
100.0,4020617.0,-42.76307,67.1465
215.4,450878.0,-112.3871,67.1328
464.2,1833357.0,-69.43447,67.1519
1000.0,903517.7,-80.73892,67.1517
2154.4,421747.4,-82.67147,67.1634
4641.6,218144.7,-79.95329,67.1455
10000.0,110052.4,-79.26177,67.1634
