Frequency,Impedance,Phase Angle,Temperature (Dry Bath)
10.0,120980.2,-3.30793,67.353
21.5,119231.4,-3.078823,67.3501
46.4,117589.9,-3.186486,67.3591
100.0,115958.8,-2.945648,67.3471
215.4,117962.9,-6.03839,67.3533
464.2,111801.2,-5.308526,67.3582
1000.0,107370.6,-8.079559,67.3369
2154.4,100695.5,-14.75426,67.3439
4641.6,93269.93,-24.36217,67.3316
10000.0,73943.05,-41.02543,67.3445
