Frequency,Impedance,Phase Angle,Temperature (Dry Bath)
10.0,49127.22,-16.03362,70.5922
21.544346900318832,43482.56,-14.78862,70.5956
46.41588833612777,38592.38,-13.56597,70.5905
100.0,34825.4,-10.5672,70.5969
215.44346900318823,32684.18,-11.96885,70.6031
464.15888336127773,29057.8,-9.669667,70.5763
1000.0,27175.55,-10.00633,70.6053
2154.4346900318824,25660.67,-13.35747,70.5921
4641.588833612777,23793.35,-16.05157,70.5917
10000.0,20151.93,-23.73455,70.5881
