Frequency,Impedance,Phase Angle,Temperature (Dry Bath)
10.0,1505325.0,-17.58505,67.1205
21.5,1350960.0,-16.862,67.1282
46.4,1188454.0,-14.24855,67.1302
100.0,1110622.0,-16.00883,67.1388
215.4,225219.1,7.279149,67.1184
464.2,746348.5,-30.85862,67.1337
1000.0,676477.7,-39.92328,67.1223
2154.4,411954.6,-62.06422,67.1195
4641.6,215314.7,-71.85804,67.1209
10000.0,112766.2,-80.00544,67.1322
