Frequency,Impedance,Phase Angle,Temperature (Dry Bath)
10.0,3930401.0,-1.917511,66.3924
21.544346900318832,4396732.0,4.884198,66.3975
46.41588833612777,4366933.0,-20.27299,66.3908
100.0,531426.9,-162.7144,66.4059
215.44346900318823,1497649.0,-166.9338,66.3906
464.15888336127773,1469568.0,91.20997,66.4115
1000.0,435656.4,-90.39095,66.4173
2154.4346900318824,189945.9,-67.9411,66.4112
4641.588833612777,131567.1,-89.33505,66.4113
10000.0,69763.91,-77.03045,66.4113
