Frequency,Impedance,Phase Angle,Temperature (Dry Bath)
10.0,4707024.0,-7.713496,71.4212
21.544346900318832,5231681.0,-18.08971,71.4185
46.41588833612777,6740398.0,-44.85736,71.4244
100.0,369659.9,-66.77683,71.4203
215.44346900318823,102551.7,49.80701,71.4202
464.15888336127773,849393.3,-76.50059,71.4267
1000.0,272445.7,-129.9631,71.4393
2154.4346900318824,201015.2,-85.40353,71.4241
4641.588833612777,116037.3,-93.61472,71.427
10000.0,55356.71,-88.70103,71.4076
