Frequency,Impedance,Phase Angle,Temperature (Dry Bath)
10.0,4663944.0,-14.28348,71.4554
21.544346900318832,6307535.0,-14.16736,71.4852
46.41588833612777,4809266.0,7.167923,71.4807
100.0,1144788.0,27.72919,71.4783
215.44346900318823,7226976.0,-121.6399,71.4753
464.15888336127773,1662351.0,15.04936,71.4713
1000.0,944378.4,-37.76468,71.483
2154.4346900318824,485281.4,-63.14548,71.487
4641.588833612777,449697.7,-87.48454,71.4835
10000.0,176172.7,-95.00352,71.5003
