Frequency,Impedance,Phase Angle,Temperature (Dry Bath)
10.0,44581220.0,-18.24541,67.8856
21.5,48462670.0,-18.27003,67.8532
46.4,21198680.0,-45.09351,67.8731
100.0,11186720.0,-33.52924,67.8622
215.4,7436631.0,-62.12247,67.8816
464.2,2111591.0,-70.40781,67.8653
1000.0,1402002.0,-91.44307,67.863
2154.4,613281.6,-91.04277,67.8743
4641.6,317792.5,-89.93867,67.8752
10000.0,139423.3,-94.70462,67.8738
