Frequency,Impedance,Phase Angle,Temperature (Dry Bath)
10.0,4539612.0,12.95556,71.5149
21.544346900318832,4258944.0,-6.699099,71.5038
46.41588833612777,5260145.0,-18.25633,71.513
100.0,780314.4,31.60824,71.4967
215.44346900318823,1420529.0,-13.38141,71.5041
464.15888336127773,356744.9,-4.849949,71.5002
1000.0,632084.7,-90.6144,71.494
2154.4346900318824,1207585.0,-100.8167,71.515
4641.588833612777,369076.9,-90.8427,71.5016
10000.0,154354.1,-83.27131,71.4745
