Frequency,Impedance,Phase Angle,Temperature (Dry Bath)
10.0,3170812.0,-2.172111,67.3
21.544346900318832,5328618.0,-31.64781,67.3
46.41588833612777,4225282.0,-14.68258,67.3
100.0,5227216.0,51.53393,67.3
215.44346900318823,5508647.0,-27.02877,67.3
464.15888336127773,6506142.0,54.24256,67.3
1000.0,10365810.0,33.91533,67.3
2154.4346900318824,5757064.0,-17.94922,67.3
4641.588833612777,4572592.0,27.31694,67.3
10000.0,4479711.0,-80.27281,67.3
