Frequency,Impedance,Phase Angle,Temperature (Dry Bath)
10.0,1647397.0,-19.40192,67.3113
21.5,1422085.0,-17.15686,67.3036
46.4,1287748.0,-17.78357,67.3006
100.0,1309183.0,7.600804,67.2902
215.4,159892.1,16.80049,67.2904
464.2,952505.6,-18.72084,67.2834
1000.0,713445.8,-45.19557,67.3076
2154.4,504777.4,-58.2725,67.3037
4641.6,262129.2,-70.3179,67.306
10000.0,128875.4,-77.39816,67.2932
