Frequency,Impedance,Phase Angle,Temperature (Dry Bath)
10.0,2310217.0,-11.59098,68.2379
21.5,1914563.0,-12.06053,68.2624
46.4,1756377.0,-12.62193,68.2402
100.0,1181093.0,-18.28288,68.2477
215.4,1376728.0,-18.22827,68.2301
464.2,1249164.0,-27.06586,68.2523
1000.0,902279.1,-46.56065,68.2321
2154.4,581258.2,-63.08335,68.2558
4641.6,293471.2,-81.14328,68.2583
10000.0,136153.5,-89.53773,68.2428
