Frequency,Impedance,Phase Angle,Temperature (Dry Bath)
10.0,28979740.0,-27.34532,67.3044
21.5,19555480.0,-39.52185,67.3056
46.4,10525050.0,-74.37716,67.309
100.0,5688851.0,-31.00028,67.3055
215.4,864118.2,46.28433,67.2976
464.2,1594355.0,-64.79743,67.3105
1000.0,972773.1,-80.04107,67.2931
2154.4,480805.0,-77.08355,67.2924
4641.6,242656.6,-79.17688,67.2941
10000.0,124835.5,-80.82997,67.2961
