Frequency,Impedance,Phase Angle,Temperature (Dry Bath)
10.0,490517.6,-27.28119,66.2816
21.544346900318832,370687.2,-27.00528,66.2833
46.41588833612777,319421.9,-23.73765,66.291
100.0,178777.1,-2.380064,66.2717
215.44346900318823,150430.7,-19.75603,66.2973
464.15888336127773,185350.9,-23.52801,66.2778
1000.0,165539.3,-46.26725,66.2896
2154.4346900318824,111362.4,-33.03322,66.2947
4641.588833612777,82724.26,-55.13924,66.2855
10000.0,50606.29,-62.14631,66.2646
