Frequency,Impedance,Phase Angle,Temperature (Dry Bath)
10.0,82238.13,-36.88221,71.4312
21.544346900318832,60740.06,-32.50078,71.4246
46.41588833612777,47046.05,-28.49007,71.4232
100.0,38247.74,-21.89684,71.4262
215.44346900318823,6225.352,-58.57551,71.4255
464.15888336127773,27015.85,-19.73052,71.4342
1000.0,22874.81,-18.75628,71.4284
2154.4346900318824,21783.54,-17.48913,71.4412
4641.588833612777,18762.36,-19.02073,71.404
10000.0,17324.51,-25.58846,71.4155
