Frequency,Impedance,Phase Angle,Temperature (Dry Bath)
10.0,1499890.0,-18.07104,67.2237
21.5,1326949.0,-16.83488,67.2239
46.4,1208218.0,-16.86405,67.2307
100.0,863525.5,-17.54252,67.2282
215.4,295504.0,33.34335,67.2315
464.2,966723.2,-24.17609,67.2301
1000.0,745411.9,-40.9129,67.22
2154.4,438221.2,-59.57075,67.2226
4641.6,236738.7,-72.74825,67.2093
10000.0,116851.4,-78.32054,67.2312
