Frequency,Impedance,Phase Angle,Temperature (Dry Bath)
10.0,41912210.0,-24.17135,67.9106
21.5,35037520.0,-19.82388,67.9219
46.4,21202000.0,-50.8384,67.9111
100.0,4264635.0,-32.46316,67.9127
215.4,6561399.0,-108.075,67.9057
464.2,2716567.0,-97.2401,67.893
1000.0,1431973.0,-89.41385,67.8888
2154.4,680024.4,-85.80702,67.9072
4641.6,331038.6,-93.18403,67.9121
10000.0,156976.1,-99.83549,67.8879
