Frequency,Impedance,Phase Angle,Temperature (Dry Bath)
10.0,4881210.0,-22.57547,71.2451
21.544346900318832,6046569.0,18.6106,71.255
46.41588833612777,3594045.0,-20.98644,71.2489
100.0,876176.3,10.75742,71.2532
215.44346900318823,13003.3,-160.004,71.2534
464.15888336127773,1111532.0,-79.85474,71.2371
1000.0,641822.3,32.95182,71.2432
2154.4346900318824,225702.2,-80.21192,71.2512
4641.588833612777,114774.8,-80.00422,71.2463
10000.0,60054.8,-90.93892,71.2335
