Frequency,Impedance,Phase Angle,Temperature (Dry Bath)
10.0,32911030.0,-14.59971,67.4535
21.5,25573800.0,-24.09151,67.4416
46.4,15761240.0,-66.28554,67.4449
100.0,9166706.0,-15.85671,67.4423
215.4,206659.7,-138.8254,67.4396
464.2,2123637.0,-89.61145,67.4404
1000.0,1021208.0,-73.35533,67.4381
2154.4,607811.3,-86.65865,67.4284
4641.6,270898.2,-87.31475,67.437
10000.0,125151.5,-83.40299,67.4396
