Frequency,Impedance,Phase Angle,Temperature (Dry Bath)
10.0,175864.5,-4.978575,68.2587
21.5,169580.7,-4.371048,68.2512
46.4,164300.3,-4.161429,68.2517
100.0,155215.0,-4.712687,68.2661
215.4,154104.8,-6.319436,68.2705
464.2,147209.2,-6.63911,68.2643
1000.0,142599.8,-11.33247,68.2646
2154.4,132682.4,-17.08613,68.2552
4641.6,116746.7,-31.0363,68.2499
10000.0,92345.0,-51.8209,68.2525
