Frequency,Impedance,Phase Angle,Temperature (Dry Bath)
10.0,2819347.0,-22.69316,70.9491
21.544346900318832,6852205.0,-27.11698,70.9479
46.41588833612777,3503851.0,-49.39054,70.9539
100.0,530454.0,-1.853521,70.9679
215.44346900318823,1327305.0,-17.87035,70.9785
464.15888336127773,507152.7,-56.24282,70.9697
1000.0,234368.1,-97.59453,70.9815
2154.4346900318824,191840.7,-67.1031,70.9593
4641.588833612777,127571.9,-79.15394,70.9713
10000.0,58505.29,-85.30052,70.9738
