Frequency,Impedance,Phase Angle,Temperature (Dry Bath)
10.0,40549560.0,-4.233486,68.3172
21.5,14769030.0,-26.47482,68.3172
46.4,11779060.0,-41.05618,68.3172
100.0,4379983.0,-28.95478,68.3172
215.4,6503054.0,-75.3862,68.3172
464.2,3198560.0,-70.7938,68.3172
1000.0,1311902.0,-80.72361,68.3172
2154.4,714112.6,-88.07702,68.3172
4641.6,323651.6,-93.03277,68.3172
10000.0,139333.8,-96.0145,68.3172
