Frequency,Impedance,Phase Angle,Temperature (Dry Bath)
10.0,41791550.0,-5.785421,68.039
21.5,35767870.0,-16.5194,68.0096
46.4,36594070.0,-47.54561,68.0189
100.0,5370122.0,-41.56038,68.0158
215.4,3848645.0,-95.95704,68.0302
464.2,2460260.0,-91.72889,68.0259
1000.0,1758164.0,-89.22993,68.0217
2154.4,674882.3,-89.45542,68.0198
4641.6,328430.2,-95.25773,68.0285
10000.0,142032.7,-94.76524,68.0198
