Frequency,Impedance,Phase Angle,Temperature (Dry Bath)
10.0,172599.6,-11.9926,65.7928
21.544346900318832,157390.0,-10.87829,65.7804
46.41588833612777,144601.2,-11.29968,65.7874
100.0,173122.9,-17.78652,65.7668
215.44346900318823,9810.057,44.6154,65.7973
464.15888336127773,118163.1,-10.03343,65.7897
1000.0,87734.64,-20.94314,65.7924
2154.4346900318824,96631.68,-25.76223,65.7832
4641.588833612777,70487.12,-33.50078,65.7813
10000.0,54202.05,-54.94009,65.7833
