Frequency,Impedance,Phase Angle,Temperature (Dry Bath)
10.0,29058740.0,-43.66516,66.6
21.544346900318832,5142810.0,11.42981,66.6
46.41588833612777,5826810.0,-9.480913,66.6
100.0,320633.2,-18.33759,66.6
215.44346900318823,994952.8,13.75503,66.6
464.15888336127773,2088083.0,45.41704,66.6
1000.0,1466194.0,-50.00049,66.6
2154.4346900318824,504550.6,-104.3363,66.6
4641.588833612777,1764627.0,105.5748,66.6
10000.0,1079167.0,-7.152336,66.6
