Frequency,Impedance,Phase Angle,Temperature (Dry Bath)
10.0,5266709.0,-24.41662,71.1495
21.544346900318832,6126515.0,-46.63222,71.1315
46.41588833612777,4468290.0,-22.72513,71.1381
100.0,382308.5,-81.37306,71.1346
215.44346900318823,487658.9,-24.09585,71.1238
464.15888336127773,407613.2,-78.63563,71.1287
1000.0,653880.9,-105.7194,71.1306
2154.4346900318824,240718.5,-64.63597,71.135
4641.588833612777,92533.53,-77.49191,71.1288
10000.0,71774.43,-80.93142,71.1327
