Frequency,Impedance,Phase Angle,Temperature (Dry Bath)
10.0,35702760.0,4.858841,66.9696
21.5,23376360.0,-32.78177,66.9871
46.4,18663220.0,-53.87469,66.9848
100.0,10533100.0,10.35788,66.9818
215.4,4220556.0,-68.3146,66.9734
464.2,2278791.0,-78.0144,66.9779
1000.0,1156537.0,-82.71194,66.9938
2154.4,616689.2,-88.46236,66.9692
4641.6,266047.1,-91.28772,66.9773
10000.0,120548.8,-86.6985,66.975
