Frequency,Impedance,Phase Angle,Temperature (Dry Bath)
10.0,57954.97,-32.62145,67.2125
21.5,45241.97,-28.62364,67.2089
46.4,37167.71,-24.63228,67.2107
100.0,31611.32,-20.32381,67.2218
215.4,30523.86,-12.22535,67.2337
464.2,24765.37,-14.9346,67.219
1000.0,22488.68,-12.74473,67.2124
2154.4,20708.28,-11.657,67.2296
4641.6,19252.92,-12.08908,67.2289
10000.0,17844.4,-14.87699,67.2335
