Frequency,Impedance,Phase Angle,Temperature (Dry Bath)
10.0,3835318.0,8.569722,65.7594
21.544346900318832,5892554.0,4.414504,65.7766
46.41588833612777,5473794.0,-5.780788,65.7693
100.0,719653.2,31.35106,65.7703
215.44346900318823,14805.25,143.3866,65.7761
464.15888336127773,1275749.0,-34.84408,65.7749
1000.0,589585.3,-48.74712,65.7619
2154.4346900318824,304187.1,-71.87817,65.778
4641.588833612777,139417.6,-76.3308,65.7669
10000.0,53314.99,-74.48514,65.7802
