Frequency,Impedance,Phase Angle,Temperature (Dry Bath)
10.0,1393454.0,-24.79954,71.1397
21.544346900318832,1265150.0,-18.2237,71.1592
46.41588833612777,1068463.0,-21.90198,71.1311
100.0,367726.9,-34.446,71.1413
215.44346900318823,451519.3,13.43092,71.1605
464.15888336127773,954356.5,-29.3788,71.1385
1000.0,502427.0,-40.09258,71.1447
2154.4346900318824,214758.3,-65.17251,71.1315
4641.588833612777,142349.6,-72.78697,71.1455
10000.0,61673.44,-82.11861,71.1497
