Frequency,Impedance,Phase Angle,Temperature (Dry Bath)
10.0,2191374.0,-10.15609,68.1439
21.5,2158236.0,-12.72593,68.1439
46.4,2163227.0,-14.37613,68.1439
100.0,1434412.0,-14.95964,68.1439
215.4,1707354.0,-22.84718,68.1439
464.2,1237418.0,-29.81003,68.1439
1000.0,999269.1,-51.81699,68.1439
2154.4,612704.7,-60.00097,68.1439
4641.6,325971.3,-76.55894,68.1439
10000.0,148340.1,-85.27942,68.1439
