Frequency,Impedance,Phase Angle,Temperature (Dry Bath)
10.0,25350320.0,-26.7105,67.3439
21.5,23250230.0,-43.31603,67.3581
46.4,14255440.0,-62.21655,67.3434
100.0,5196353.0,-43.99775,67.3562
215.4,4094956.0,-79.67132,67.3629
464.2,1681877.0,-80.91165,67.3582
1000.0,818613.2,-74.29097,67.3509
2154.4,444376.7,-83.52461,67.3544
4641.6,222660.0,-80.75847,67.3589
10000.0,113898.2,-78.36172,67.3531
