Frequency,Impedance,Phase Angle,Temperature (Dry Bath)
10.0,29692870.0,0.5591527,68.1943
21.5,23111650.0,-26.17072,68.1859
46.4,38173300.0,-38.83381,68.1658
100.0,5154442.0,-46.82593,68.1745
215.4,7739032.0,-77.81366,68.1976
464.2,2652792.0,-64.7658,68.1767
1000.0,1481408.0,-82.36082,68.1822
2154.4,691293.1,-90.25217,68.1813
4641.6,315142.0,-90.69113,68.1789
10000.0,147694.5,-96.46883,68.1851
