Frequency,Impedance,Phase Angle,Temperature (Dry Bath)
10.0,26430370.0,-11.3141,67.9545
21.5,26366440.0,-33.75584,67.96
46.4,26775690.0,-43.19841,67.9515
100.0,5012503.0,-71.62663,67.9566
215.4,6832723.0,-101.5279,67.9756
464.2,3479791.0,-102.983,67.9758
1000.0,1430597.0,-82.77338,67.9673
2154.4,703399.9,-91.84084,67.9757
4641.6,291501.0,-95.23408,67.9721
10000.0,136518.4,-93.10471,67.9796
