Frequency,Impedance,Phase Angle,Temperature (Dry Bath)
10.0,2154846.0,-10.42911,68.0523
21.5,2083121.0,-11.0148,68.0523
46.4,2043900.0,-12.87552,68.0523
100.0,1404238.0,-18.41834,68.0523
215.4,1831701.0,-23.60273,68.0523
464.2,1271317.0,-36.0215,68.0523
1000.0,914783.2,-48.15403,68.0523
2154.4,641193.4,-66.49204,68.0523
4641.6,309371.9,-75.50363,68.0523
10000.0,156604.4,-90.2951,68.0523
