Frequency,Impedance,Phase Angle,Temperature (Dry Bath)
10.0,4864019.0,-9.497246,71.2677
21.544346900318832,6807770.0,-0.9193634,71.2613
46.41588833612777,4761842.0,-31.29892,71.2569
100.0,405176.9,-169.3113,71.2412
215.44346900318823,337170.6,68.42256,71.2567
464.15888336127773,1284528.0,-59.75167,71.2504
1000.0,291107.3,-147.9438,71.254
2154.4346900318824,544359.4,-127.3062,71.2446
4641.588833612777,122898.5,-76.48519,71.2579
10000.0,66333.2,-94.6299,71.2486
