Frequency,Impedance,Phase Angle,Temperature (Dry Bath)
10.0,173074.7,-12.96876,66.2775
21.544346900318832,157943.0,-10.75384,66.3004
46.41588833612777,147138.9,-11.16168,66.2992
100.0,133417.3,-20.54202,66.2856
215.44346900318823,85749.5,-16.44341,66.2817
464.15888336127773,102382.5,-17.8469,66.2827
1000.0,104892.7,-10.29803,66.2939
2154.4346900318824,89285.0,-24.77246,66.2816
4641.588833612777,94184.84,-39.42721,66.2961
10000.0,51750.52,-63.7556,66.2718
