Frequency,Impedance,Phase Angle,Temperature (Dry Bath)
10.0,28356860.0,-6.399905,68.1016
21.5,29006040.0,-22.38909,68.1016
46.4,32316460.0,-41.8297,68.1016
100.0,3826358.0,-15.60233,68.1016
215.4,7406150.0,-71.55796,68.1016
464.2,3729706.0,-94.30417,68.1016
1000.0,1395524.0,-88.02274,68.1016
2154.4,636835.2,-88.36698,68.1016
4641.6,299401.3,-88.44985,68.1016
10000.0,145603.3,-95.27569,68.1016
