Frequency,Impedance,Phase Angle,Temperature (Dry Bath)
10.0,36000.43,-13.98965,70.8424
21.544346900318832,32800.38,-11.74338,70.8378
46.41588833612777,30259.21,-10.67901,70.8496
100.0,28474.53,-8.540364,70.8521
215.44346900318823,25842.71,-10.61275,70.8437
464.15888336127773,24339.87,-9.572866,70.8294
1000.0,22578.53,-8.908163,70.8246
2154.4346900318824,20579.26,-12.8601,70.8409
4641.588833612777,18939.8,-15.51958,70.8435
10000.0,17300.16,-23.61052,70.8461
