Frequency,Impedance,Phase Angle,Temperature (Dry Bath)
10.0,5140309.0,11.42183,65.858
21.544346900318832,9321477.0,-17.79987,65.8388
46.41588833612777,4062149.0,-25.37858,65.8467
100.0,522128.1,26.27842,65.8499
215.44346900318823,8447.891,158.5325,65.8429
464.15888336127773,594073.0,-92.14705,65.852
1000.0,323857.1,-80.25888,65.8608
2154.4346900318824,240322.6,-116.3126,65.8493
4641.588833612777,130662.0,-85.69829,65.829
10000.0,77220.15,-99.794,65.8529
