Frequency,Impedance,Phase Angle,Temperature (Dry Bath)
10.0,62538.66,-32.37624,67.0361
21.5,48831.6,-28.3961,67.0532
46.4,40234.51,-24.67971,67.0512
100.0,33976.05,-21.09032,67.0514
215.4,29638.58,-17.91909,67.0459
464.2,26466.36,-15.26674,67.0413
1000.0,23848.91,-13.27544,67.0395
2154.4,21924.21,-12.61407,67.045
4641.6,20119.49,-13.16258,67.0345
10000.0,18469.14,-16.19754,67.0512
