Frequency,Impedance,Phase Angle,Temperature (Dry Bath)
10.0,35832990.0,-26.765,67.3143
21.5,18334120.0,-36.52459,67.2956
46.4,17256730.0,-61.59056,67.2983
100.0,4538683.0,-46.43883,67.2876
215.4,1786123.0,-78.60817,67.2941
464.2,2207744.0,-87.00916,67.2968
1000.0,825286.2,-77.32651,67.2986
2154.4,449805.5,-84.31757,67.2928
4641.6,213682.7,-82.4532,67.2976
10000.0,107107.2,-80.63497,67.2917
