Frequency,Impedance,Phase Angle,Temperature (Dry Bath)
10.0,1548217.0,-18.44294,67.0738
21.5,1382543.0,-16.37667,67.088
46.4,1241210.0,-15.29369,67.076
100.0,928005.0,-21.11099,67.0701
215.4,815024.3,-37.0531,67.0797
464.2,817572.7,-41.47073,67.0674
1000.0,720574.8,-44.58253,67.0814
2154.4,451462.2,-66.4564,67.071
4641.6,236683.8,-73.53985,67.0685
10000.0,109637.0,-79.64731,67.0734
