Frequency,Impedance,Phase Angle,Temperature (Dry Bath)
10.0,52004.7,-34.25982,67.4908
21.5,39819.74,-30.16854,67.4832
46.4,32123.02,-26.16424,67.4872
100.0,26785.75,-22.17974,67.48
215.4,21625.18,-13.79964,67.4903
464.2,20816.2,-15.76883,67.4886
1000.0,18736.88,-13.54595,67.5002
2154.4,17142.39,-12.31041,67.4858
4641.6,15818.15,-12.25374,67.5028
10000.0,14597.5,-14.17452,67.4934
