Frequency,Impedance,Phase Angle,Temperature (Dry Bath)
10.0,2115333.0,-30.14664,65.7824
21.544346900318832,1574047.0,-23.52483,65.7748
46.41588833612777,1511478.0,-29.16544,65.7952
100.0,1164481.0,86.36667,65.781
215.44346900318823,6007.826,-94.62188,65.7833
464.15888336127773,695939.8,-66.31383,65.7924
1000.0,268718.1,-57.16113,65.7761
2154.4346900318824,273365.9,-74.15981,65.7753
4641.588833612777,110071.4,-87.35192,65.7627
10000.0,72890.75,-83.28567,65.773
