Frequency,Impedance,Phase Angle,Temperature (Dry Bath)
10.0,126636.0,-3.832794,67.216
21.5,123721.8,-3.326709,67.2186
46.4,121151.2,-2.993804,67.2197
100.0,120420.3,-3.480955,67.2111
215.4,123367.5,-4.086197,67.1929
464.2,112535.7,-6.462854,67.2149
1000.0,108891.9,-9.932095,67.2061
2154.4,101825.6,-15.40913,67.2178
4641.6,91563.1,-26.04949,67.2227
10000.0,70696.14,-41.55419,67.2121
