Frequency,Impedance,Phase Angle,Temperature (Dry Bath)
10.0,29116640.0,-6.44529,67.9904
21.5,19615250.0,-26.22203,68.0018
46.4,16518550.0,-52.62636,68.0089
100.0,7629266.0,-59.9059,68.0062
215.4,4970204.0,-88.2134,68.0026
464.2,2987413.0,-84.93305,68.0086
1000.0,1564502.0,-79.10213,68.0015
2154.4,674292.1,-90.72116,68.0112
4641.6,359856.4,-94.45296,67.988
10000.0,143510.1,-98.41022,68.0086
