Frequency,Impedance,Phase Angle,Temperature (Dry Bath)
10.0,26749350.0,-18.56293,67.2632
21.5,25307810.0,-36.38006,67.2621
46.4,14041410.0,-55.26622,67.2611
100.0,2816039.0,-49.27034,67.2604
215.4,182358.1,-16.35042,67.2693
464.2,2205980.0,-70.34234,67.2622
1000.0,789070.5,-73.65407,67.2465
2154.4,471885.4,-83.22724,67.2715
4641.6,210164.0,-84.85132,67.2507
10000.0,106809.7,-79.94368,67.2667
