Frequency,Impedance,Phase Angle,Temperature (Dry Bath)
10.0,5579243.0,-29.35898,71.0651
21.544346900318832,4441307.0,-30.58767,71.0626
46.41588833612777,4984178.0,-24.09693,71.071
100.0,1273470.0,3.617586,71.0693
215.44346900318823,1348579.0,-30.84684,71.0651
464.15888336127773,2720935.0,-77.62903,71.056
1000.0,2142622.0,-42.23314,71.0676
2154.4346900318824,317008.5,-58.97264,71.0733
4641.588833612777,149218.9,-75.80792,71.056
10000.0,56813.24,-83.28044,71.0634
