Frequency,Impedance,Phase Angle,Temperature (Dry Bath)
10.0,26336290.0,-44.25491,67.0896
21.5,21735970.0,-53.94002,67.111
46.4,17123580.0,-21.81158,67.1137
100.0,4482291.0,-45.86865,67.1049
215.4,237832.1,29.94276,67.1058
464.2,1635335.0,-77.58271,67.1134
1000.0,939986.4,-77.81125,67.0961
2154.4,436806.0,-86.10905,67.0981
4641.6,202319.2,-82.03825,67.1004
10000.0,98392.93,-80.67132,67.1093
