Frequency,Impedance,Phase Angle,Temperature (Dry Bath)
10.0,2995536.0,-8.958187,70.4681
21.544346900318832,3675485.0,-22.39226,70.4929
46.41588833612777,3853998.0,-15.21141,70.4886
100.0,342496.6,-15.38627,70.496
215.44346900318823,431351.7,-25.95788,70.5105
464.15888336127773,1511643.0,-41.15417,70.5077
1000.0,168890.2,-111.1157,70.4884
2154.4346900318824,280042.3,-67.60925,70.4965
4641.588833612777,124745.8,-83.35661,70.5076
10000.0,59978.82,-82.46574,70.5198
