Frequency,Impedance,Phase Angle,Temperature (Dry Bath)
10.0,23439.07,-14.13563,70.9508
21.544346900318832,21239.39,-11.18787,70.9348
46.41588833612777,19669.43,-8.957176,70.9444
100.0,19104.33,-6.566369,70.9381
215.44346900318823,17919.91,-6.218742,70.9527
464.15888336127773,17084.59,-4.454704,70.9425
1000.0,16122.11,-6.317252,70.9447
2154.4346900318824,15764.75,-7.129498,70.9249
4641.588833612777,14568.95,-10.44928,70.9491
10000.0,13704.01,-18.73385,70.924
