Frequency,Impedance,Phase Angle,Temperature (Dry Bath)
10.0,52567.48,-33.93087,67.2908
21.5,40482.86,-30.07594,67.2987
46.4,32610.79,-26.31915,67.3032
100.0,27168.74,-22.46052,67.2751
215.4,22633.21,-26.35158,67.2872
464.2,20847.91,-16.24416,67.3079
1000.0,18657.36,-14.37976,67.28
2154.4,17033.42,-13.01408,67.2732
4641.6,15585.66,-13.02982,67.29
10000.0,14378.17,-14.65698,67.2929
