Frequency,Impedance,Phase Angle,Temperature (Dry Bath)
10.0,4520419.0,4.698513,65.7702
21.544346900318832,4185975.0,-27.9566,65.7824
46.41588833612777,4949961.0,-24.3498,65.7775
100.0,1179834.0,-23.64785,65.7838
215.44346900318823,176306.3,-98.53847,65.7747
464.15888336127773,733536.9,5.593835,65.7665
1000.0,344255.6,-90.81827,65.7589
2154.4346900318824,271122.6,-65.69117,65.7869
4641.588833612777,142777.2,-88.25763,65.776
10000.0,65566.2,-72.78154,65.7887
