Frequency,Impedance,Phase Angle,Temperature (Dry Bath)
10.0,32246340.0,-15.19756,67.9345
21.5,19202930.0,-33.37832,67.9231
46.4,20409690.0,-58.13434,67.9374
100.0,3494992.0,-46.40444,67.9269
215.4,2444197.0,-97.93581,67.9282
464.2,2579955.0,-93.79699,67.9162
1000.0,1410527.0,-84.83514,67.9229
2154.4,554410.9,-89.33681,67.9323
4641.6,284785.5,-82.73593,67.9349
10000.0,137837.1,-98.73932,67.9353
