Frequency,Impedance,Phase Angle,Temperature (Dry Bath)
10.0,27132220.0,-27.68311,67.1675
21.5,20275970.0,-46.3432,67.1798
46.4,15944680.0,-63.09858,67.1446
100.0,4033211.0,-47.26988,67.1695
215.4,173433.0,49.05516,67.1504
464.2,1764167.0,-70.31717,67.1581
1000.0,811826.7,-83.76879,67.1677
2154.4,435012.7,-82.49726,67.1491
4641.6,204011.1,-81.54268,67.1674
10000.0,99494.72,-80.63429,67.181
