Frequency,Impedance,Phase Angle,Temperature (Dry Bath)
10.0,121514.8,-16.90844,68.0162
21.5,107529.4,-14.50801,68.0211
46.4,97527.38,-12.85828,68.0277
100.0,88071.9,-11.99928,68.0306
215.4,83179.26,-10.52722,68.0193
464.2,79265.38,-10.50475,68.0042
1000.0,72659.95,-11.94575,68.0264
2154.4,67193.53,-15.50225,68.0354
4641.6,59723.5,-20.95953,68.0291
10000.0,55278.42,-34.49104,68.016
