Frequency,Impedance,Phase Angle,Temperature (Dry Bath)
10.0,85221.9,-27.91223,66.9698
21.5,69262.8,-24.92804,66.9644
46.4,58224.93,-21.57611,66.9646
100.0,50920.69,-18.55339,66.9699
215.4,44847.56,-15.31726,66.9699
464.2,40580.37,-13.52271,66.9798
1000.0,36595.75,-12.20361,66.9783
2154.4,33869.95,-12.14394,66.9819
4641.6,31538.75,-14.69368,66.9789
10000.0,28492.82,-19.98585,66.9775
