Frequency,Impedance,Phase Angle,Temperature (Dry Bath)
10.0,511908.8,-13.98209,68.2754
21.5,464746.8,-12.73734,68.2754
46.4,425704.9,-11.60616,68.2754
100.0,377142.8,-10.06144,68.2754
215.4,356892.8,-11.13984,68.2754
464.2,336262.8,-14.32871,68.2754
1000.0,301695.7,-20.1699,68.2754
2154.4,279043.9,-33.03908,68.2754
4641.6,210610.2,-50.58939,68.2754
10000.0,123131.7,-74.50667,68.2754
