Frequency,Impedance,Phase Angle,Temperature (Dry Bath)
10.0,1611613.0,-20.47884,67.2522
21.5,1432237.0,-17.78771,67.2478
46.4,1292722.0,-15.88243,67.2553
100.0,916300.0,-19.40033,67.2599
215.4,976533.7,-26.10526,67.2624
464.2,990459.0,-30.85524,67.2595
1000.0,719702.3,-40.10508,67.2477
2154.4,477568.1,-58.21719,67.2578
4641.6,256678.2,-76.04217,67.2515
10000.0,126871.1,-80.06531,67.2515
