Frequency,Impedance,Phase Angle,Temperature (Dry Bath)
10.0,5255182.0,11.45527,71.2571
21.544346900318832,5509419.0,4.017774,71.2411
46.41588833612777,4373772.0,-5.81314,71.2677
100.0,624874.0,37.14195,71.2864
215.44346900318823,998579.3,-2.095764,71.2704
464.15888336127773,1340747.0,47.2848,71.2671
1000.0,2378088.0,-58.70148,71.2515
2154.4346900318824,477033.7,-66.17844,71.2587
4641.588833612777,231449.6,-83.33192,71.2565
10000.0,123246.9,-83.72481,71.2849
