Frequency,Impedance,Phase Angle,Temperature (Dry Bath)
10.0,1446261.0,-15.34004,68.1503
21.5,1219834.0,-13.41268,68.1618
46.4,1098317.0,-13.21271,68.1724
100.0,834461.3,-15.33328,68.1647
215.4,1071000.0,-11.49426,68.1538
464.2,787202.1,-25.09561,68.1581
1000.0,750400.2,-39.14689,68.1645
2154.4,484553.1,-52.31642,68.1585
4641.6,278770.3,-66.57458,68.1905
10000.0,141334.6,-85.62353,68.1838
