Frequency,Impedance,Phase Angle,Temperature (Dry Bath)
10.0,686454.4,-10.06138,72.2323
21.544346900318832,639773.4,-9.68403,72.2333
46.41588833612777,566714.8,-12.34185,72.2374
100.0,822637.4,-48.46177,72.2404
215.44346900318823,222015.6,-33.20459,72.2223
464.15888336127773,496512.8,-90.89761,72.2373
1000.0,196747.1,13.30109,72.2267
2154.4346900318824,276199.7,-32.00708,72.2416
4641.588833612777,149699.0,-44.32486,72.2353
10000.0,98357.51,-54.47227,72.237
