Frequency,Impedance,Phase Angle,Temperature (Dry Bath)
10.0,1586566.0,-19.45501,67.0018
21.5,1389809.0,-17.07838,66.9864
46.4,1271028.0,-15.38014,66.9877
100.0,838413.6,-20.48791,66.9777
215.4,1080386.0,-14.93105,66.9935
464.2,1056891.0,-23.26056,66.9915
1000.0,578709.0,-44.63582,66.9852
2154.4,455558.8,-61.53064,66.9922
4641.6,220712.0,-72.7145,67.0068
10000.0,112065.6,-79.34048,66.9908
