Frequency,Impedance,Phase Angle,Temperature (Dry Bath)
10.0,235786.8,-22.67323,66.9888
21.5,197073.7,-19.91413,66.9934
46.4,172588.0,-17.69703,66.992
100.0,156671.0,-14.498,67.0037
215.4,141912.4,-13.20246,66.9823
464.2,126709.1,-14.71042,66.9846
1000.0,113095.0,-16.76935,66.9923
2154.4,100138.5,-23.40832,66.9898
4641.6,81393.13,-30.65383,67.0005
10000.0,61626.38,-43.47952,66.9903
