Frequency,Impedance,Phase Angle,Temperature (Dry Bath)
10.0,434558.4,-10.28186,71.2779
21.544346900318832,385836.5,-11.09391,71.2839
46.41588833612777,365750.8,-12.43847,71.2738
100.0,546354.3,14.59538,71.27
215.44346900318823,187366.7,-13.00303,71.2754
464.15888336127773,177749.9,-19.71316,71.2821
1000.0,94990.04,-106.7451,71.2733
2154.4346900318824,253072.4,-26.53762,71.2772
4641.588833612777,123098.5,-7.208639,71.2772
10000.0,114658.4,-51.87362,71.2704
