Frequency,Impedance,Phase Angle,Temperature (Dry Bath)
10.0,44286640.0,-17.50433,67.8525
21.5,29316870.0,-30.37976,67.8493
46.4,41712160.0,-44.25208,67.8559
100.0,12943340.0,-54.36178,67.8397
215.4,5954694.0,-58.74212,67.8447
464.2,3384992.0,-76.82867,67.8349
1000.0,1419767.0,-85.98242,67.8314
2154.4,700950.3,-86.85965,67.8345
4641.6,331089.9,-86.54698,67.8191
10000.0,157229.0,-98.60763,67.8266
