Frequency,Impedance,Phase Angle,Temperature (Dry Bath)
10.0,22124540.0,-5.776569,68.244
21.5,26053590.0,-24.68249,68.2536
46.4,25368120.0,-48.82515,68.233
100.0,7114824.0,-7.868128,68.2596
215.4,3650261.0,-70.60802,68.2714
464.2,3087995.0,-75.75724,68.2584
1000.0,1380724.0,-89.4906,68.2626
2154.4,643923.1,-87.8515,68.2548
4641.6,306771.0,-93.69173,68.2422
10000.0,130405.2,-93.37016,68.2549
