Frequency,Impedance,Phase Angle,Temperature (Dry Bath)
10.0,4566535.0,1.418141,71.0406
21.544346900318832,3256362.0,-15.11982,71.0406
46.41588833612777,5584803.0,-31.91155,71.0505
100.0,890703.1,49.64237,71.0312
215.44346900318823,441285.8,-72.58581,71.0487
464.15888336127773,574905.2,-55.77521,71.0531
1000.0,783156.4,-50.40932,71.0518
2154.4346900318824,317641.6,-83.68401,71.0328
4641.588833612777,116934.3,-103.126,71.0407
10000.0,71117.84,-82.10284,71.0496
