Frequency,Impedance,Phase Angle,Temperature (Dry Bath)
10.0,24688430.0,-27.47901,67.2439
21.5,19148950.0,-47.76223,67.2534
46.4,14839910.0,-46.98077,67.259
100.0,4156103.0,-61.08721,67.2904
215.4,280081.5,151.7965,67.2552
464.2,1588275.0,-88.7475,67.2534
1000.0,811051.1,-81.20448,67.242
2154.4,412355.5,-84.54618,67.2557
4641.6,212629.6,-79.65161,67.2455
10000.0,109819.9,-78.67954,67.243
