Frequency,Impedance,Phase Angle,Temperature (Dry Bath)
10.0,26187660.0,-6.223458,67.2555
21.5,24930280.0,-30.53316,67.2411
46.4,9320164.0,-51.61402,67.2585
100.0,2946509.0,-11.78985,67.2419
215.4,646356.5,-38.89203,67.2494
464.2,2406846.0,-97.3263,67.2326
1000.0,1262635.0,-96.50967,67.2275
2154.4,564024.4,-92.18099,67.254
4641.6,257355.1,-88.42828,67.2633
10000.0,122981.4,-86.64349,67.2729
