Frequency,Impedance,Phase Angle,Temperature (Dry Bath)
10.0,24080000.0,-20.28928,68.0913
21.5,35937460.0,-22.68297,68.0982
46.4,28411470.0,-47.16495,68.1002
100.0,5754678.0,-61.95715,68.0965
215.4,3453020.0,-79.65581,68.094
464.2,2485759.0,-74.5859,68.1171
1000.0,1485798.0,-98.9602,68.09
2154.4,620711.0,-85.80078,68.098
4641.6,309558.3,-89.74926,68.0969
10000.0,155959.7,-97.45269,68.0794
