Frequency,Impedance,Phase Angle,Temperature (Dry Bath)
10.0,1373055.0,-15.03595,67.9637
21.5,1260054.0,-14.4478,67.9753
46.4,1114742.0,-13.91717,67.9685
100.0,907786.4,-17.88912,67.9715
215.4,870969.1,-18.50191,67.9546
464.2,778824.2,-29.32426,67.9824
1000.0,678779.4,-38.86452,67.9659
2154.4,453801.4,-55.86895,67.9711
4641.6,265568.9,-72.94742,67.9738
10000.0,128019.9,-86.02051,67.9743
