Frequency,Impedance,Phase Angle,Temperature (Dry Bath)
10.0,3107646.0,-12.31811,65.7888
21.544346900318832,7991595.0,-19.13962,65.7889
46.41588833612777,3551835.0,-7.338002,65.799
100.0,907480.7,-124.0165,65.806
215.44346900318823,4141.89,113.2068,65.7846
464.15888336127773,1187100.0,-90.11516,65.7915
1000.0,301479.8,-48.39122,65.82
2154.4346900318824,358496.8,-81.70938,65.7854
4641.588833612777,142960.2,-96.48287,65.7995
10000.0,63123.38,-80.96009,65.7788
