Frequency,Impedance,Phase Angle,Temperature (Dry Bath)
10.0,3433474.0,-5.73368,65.685
21.544346900318832,8437270.0,-15.33105,65.6831
46.41588833612777,3090457.0,-23.21279,65.6671
100.0,1034608.0,-125.9721,65.6736
215.44346900318823,6531.935,-6.833147,65.6938
464.15888336127773,2071951.0,77.63497,65.6839
1000.0,296254.2,-62.16039,65.6664
2154.4346900318824,248319.3,-74.52171,65.6709
4641.588833612777,147343.3,-87.63669,65.6443
10000.0,61431.43,-84.81745,65.6839
