Frequency,Impedance,Phase Angle,Temperature (Dry Bath)
10.0,234266.9,-23.0177,67.1207
21.5,197487.9,-20.41386,67.1287
46.4,171440.3,-17.78634,67.128
100.0,149690.8,-13.29205,67.1154
215.4,162769.0,-30.75536,67.1298
464.2,126924.4,-14.9243,67.1301
1000.0,113994.4,-17.20788,67.1358
2154.4,100227.8,-22.39208,67.1323
4641.6,83007.79,-31.14749,67.1373
10000.0,61959.84,-43.09489,67.1238
