Frequency,Impedance,Phase Angle,Temperature (Dry Bath)
10.0,208592.2,-23.39919,67.4312
21.5,174841.4,-20.41297,67.4441
46.4,151458.1,-17.68949,67.4374
100.0,134730.7,-15.81213,67.4339
215.4,122802.9,-14.00726,67.4308
464.2,111359.6,-14.47977,67.4448
1000.0,101130.1,-15.69516,67.4283
2154.4,90602.85,-20.21269,67.4286
4641.6,76905.34,-28.23032,67.421
10000.0,60053.96,-40.39703,67.4179
