Frequency,Impedance,Phase Angle,Temperature (Dry Bath)
10.0,147686.8,-5.044478,68.0689
21.5,142706.3,-4.244852,68.061
46.4,139646.0,-3.813028,68.0761
100.0,137558.6,-3.605149,68.0713
215.4,133803.6,-4.803342,68.0592
464.2,134621.2,-6.758675,68.0698
1000.0,127648.2,-9.272798,68.0521
2154.4,116368.1,-15.99359,68.0611
4641.6,105570.8,-28.53072,68.0677
10000.0,89622.44,-49.29124,68.0543
