Frequency,Impedance,Phase Angle,Temperature (Dry Bath)
10.0,23433.36,-14.26884,70.9617
21.544346900318832,21250.57,-11.22633,70.9772
46.41588833612777,19631.51,-8.999491,70.9725
100.0,17228.68,-7.854213,70.977
215.44346900318823,17713.23,-5.794791,70.9608
464.15888336127773,16640.6,-7.006394,70.9662
1000.0,16189.3,-7.336488,70.9591
2154.4346900318824,15284.35,-10.83367,70.9731
4641.588833612777,15363.95,-11.84983,70.9701
10000.0,13972.07,-17.00152,70.9805
