Frequency,Impedance,Phase Angle,Temperature (Dry Bath)
10.0,3223707.0,5.392456,71.3951
21.544346900318832,3356493.0,-3.142686,71.4129
46.41588833612777,4682459.0,-24.66175,71.3916
100.0,1189770.0,-16.33144,71.4129
215.44346900318823,39518.26,-116.5499,71.4151
464.15888336127773,626690.2,-102.1959,71.4246
1000.0,543036.8,-60.51478,71.3905
2154.4346900318824,267025.3,-69.76574,71.4084
4641.588833612777,116154.7,-91.97222,71.4097
10000.0,63239.11,-97.48183,71.4011
