Frequency,Impedance,Phase Angle,Temperature (Dry Bath)
10.0,25755850.0,-17.1262,68.2706
21.5,16253430.0,-29.25003,68.2564
46.4,20241200.0,-48.95051,68.2596
100.0,5861214.0,-38.77206,68.2536
215.4,4874354.0,-77.03171,68.2564
464.2,3000189.0,-82.58366,68.2546
1000.0,1240199.0,-78.56347,68.2332
2154.4,586204.0,-90.86221,68.2504
4641.6,324620.6,-85.46424,68.2504
10000.0,140062.0,-95.6917,68.2311
