Frequency,Impedance,Phase Angle,Temperature (Dry Bath)
10.0,216609.0,-23.27379,67.2426
21.5,182245.2,-20.38186,67.235
46.4,158080.5,-17.60336,67.2385
100.0,138775.0,-14.05878,67.2209
215.4,213581.3,-33.64069,67.2495
464.2,115826.7,-13.57799,67.234
1000.0,104778.0,-16.62521,67.212
2154.4,95457.46,-20.14881,67.2358
4641.6,79251.51,-29.69386,67.2316
10000.0,61151.22,-40.63545,67.2353
