Frequency,Impedance,Phase Angle,Temperature (Dry Bath)
10.0,8420880.0,4.379331,65.7731
21.544346900318832,5371334.0,4.659228,65.7705
46.41588833612777,8158595.0,-33.45331,65.7945
100.0,1513695.0,-32.49821,65.7692
215.44346900318823,4495.814,97.11823,65.7963
464.15888336127773,514209.6,-93.09956,65.771
1000.0,333892.4,-81.86582,65.7851
2154.4346900318824,309250.9,-96.26914,65.7789
4641.588833612777,168641.7,-66.775,65.7963
10000.0,68074.46,-83.80089,65.7901
