Frequency,Impedance,Phase Angle,Temperature (Dry Bath)
10.0,31628080.0,-15.95092,68.2603
21.5,25954360.0,-7.53143,68.2556
46.4,27148050.0,-50.22548,68.2559
100.0,4244693.0,-21.38879,68.2555
215.4,4949644.0,-88.8373,68.2495
464.2,3313208.0,-72.8844,68.2547
1000.0,1189211.0,-82.76049,68.2655
2154.4,656085.5,-87.70284,68.2558
4641.6,318626.1,-85.00119,68.2615
10000.0,130931.8,-93.76739,68.2719
