Frequency,Impedance,Phase Angle,Temperature (Dry Bath)
10.0,84660.84,-3.307819,66.5604
21.5,82520.13,-2.79201,66.5445
46.4,80846.55,-2.45426,66.5578
100.0,79450.64,-2.877596,66.5444
215.4,70225.83,17.19988,66.5594
464.2,78579.95,-4.165078,66.5534
1000.0,75305.36,-6.423077,66.5624
2154.4,73745.82,-11.14228,66.5617
4641.6,67728.11,-18.99285,66.5574
10000.0,57594.73,-33.61565,66.544
