Frequency,Impedance,Phase Angle,Temperature (Dry Bath)
10.0,5631524.0,-0.4892855,70.9202
21.544346900318832,7717865.0,-33.61897,70.9255
46.41588833612777,5821855.0,-18.21741,70.9215
100.0,334399.2,17.26499,70.926
215.44346900318823,552378.9,31.16545,70.9285
464.15888336127773,804211.6,-44.61737,70.9258
1000.0,853633.0,-61.45109,70.9284
2154.4346900318824,320968.3,-87.56192,70.9253
4641.588833612777,130251.7,-93.40279,70.929
10000.0,61245.33,-91.61529,70.9296
