Frequency,Impedance,Phase Angle,Temperature (Dry Bath)
10.0,36589430.0,-21.38986,67.3294
21.5,17078540.0,-35.9776,67.3321
46.4,14239160.0,-56.58825,67.3257
100.0,7230627.0,-61.05913,67.3378
215.4,2171285.0,-68.09723,67.3307
464.2,2453325.0,-81.21908,67.3337
1000.0,1061505.0,-85.23838,67.3573
2154.4,518661.2,-84.38959,67.3408
4641.6,263031.8,-83.6096,67.3439
10000.0,129383.7,-84.71771,67.3478
