Frequency,Impedance,Phase Angle,Temperature (Dry Bath)
10.0,1506432.0,-17.64674,67.056
21.5,1347462.0,-16.08243,67.059
46.4,1226817.0,-15.40977,67.0677
100.0,1017104.0,-22.01103,67.0605
215.4,957420.8,4.408546,67.0724
464.2,987059.2,-17.82134,67.0743
1000.0,633769.5,-43.43648,67.0763
2154.4,451037.9,-59.17908,67.047
4641.6,220716.0,-76.79608,67.0611
10000.0,111399.7,-80.14773,67.0655
