Frequency,Impedance,Phase Angle,Temperature (Dry Bath)
10.0,26811870.0,-34.05988,67.1488
21.5,18051230.0,-37.8069,67.1549
46.4,12911120.0,-60.8025,67.1484
100.0,4653801.0,-42.02956,67.1493
215.4,2302760.0,-69.646,67.1574
464.2,1903079.0,-101.052,67.1433
1000.0,786975.1,-87.12547,67.1368
2154.4,432335.4,-84.92611,67.1546
4641.6,200152.5,-81.05887,67.1494
10000.0,100861.9,-80.32366,67.1506
