Frequency,Impedance,Phase Angle,Temperature (Dry Bath)
10.0,27448670.0,-7.681385,67.0735
21.5,22083760.0,-50.8515,67.068
46.4,11394590.0,-60.09861,67.0705
100.0,4150244.0,-51.59086,67.0528
215.4,193146.6,104.1798,67.0674
464.2,1461235.0,-77.73946,67.0571
1000.0,884947.7,-86.57417,67.069
2154.4,432498.5,-84.38517,67.0448
4641.6,197723.2,-81.69533,67.0394
10000.0,100715.3,-80.04839,67.06
