Frequency,Impedance,Phase Angle,Temperature (Dry Bath)
10.0,8658.098,-11.86319,71.6026
21.544346900318832,8016.659,-9.789669,71.6063
46.41588833612777,7492.285,-8.64594,71.6167
100.0,7088.656,-8.531127,71.5985
215.44346900318823,6632.297,-6.896493,71.6055
464.15888336127773,6333.101,-6.254655,71.6056
1000.0,6026.312,-5.879017,71.6
2154.4346900318824,5722.234,-5.430776,71.6098
4641.588833612777,5498.634,-5.381395,71.6113
10000.0,5317.169,-5.684714,71.6105
