Frequency,Impedance,Phase Angle,Temperature (Dry Bath)
10.0,1488425.0,-17.98254,67.3392
21.5,1329544.0,-15.82889,67.3481
46.4,1167173.0,-13.65096,67.3382
100.0,951827.6,-27.0203,67.3375
215.4,140909.9,-22.92543,67.3209
464.2,980855.6,-27.96022,67.3481
1000.0,656206.8,-38.33359,67.3349
2154.4,419326.0,-61.66443,67.3431
4641.6,234036.8,-74.30729,67.3518
10000.0,112627.0,-79.94333,67.3426
