Frequency,Impedance,Phase Angle,Temperature (Dry Bath)
10.0,1452987.0,-15.32085,68.2239
21.5,1278376.0,-13.3274,68.2401
46.4,1074041.0,-13.27797,68.232
100.0,921600.3,-13.81776,68.2218
215.4,1006928.0,-11.74911,68.232
464.2,895707.5,-23.56667,68.2366
1000.0,710251.3,-38.18826,68.2351
2154.4,479018.5,-58.87078,68.2359
4641.6,260966.4,-74.77008,68.2362
10000.0,149655.1,-89.14321,68.2219
