Frequency,Impedance,Phase Angle,Temperature (Dry Bath)
10.0,7012394.0,-10.75925,70.8444
21.544346900318832,6943979.0,-19.93214,70.824
46.41588833612777,5950961.0,-0.9830584,70.8244
100.0,1320259.0,-46.90032,70.8355
215.44346900318823,1281831.0,-111.3077,70.823
464.15888336127773,674174.8,-123.0785,70.8125
1000.0,147383.0,0.0852081,70.8361
2154.4346900318824,298122.4,-72.59278,70.8402
4641.588833612777,104289.1,-89.11345,70.8374
10000.0,64208.82,-88.14186,70.8363
