Frequency,Impedance,Phase Angle,Temperature (Dry Bath)
10.0,53243080.0,-3.52309,67.8572
21.5,50998280.0,-12.80564,67.8581
46.4,40211510.0,-62.81378,67.8703
100.0,7964946.0,-44.67079,67.849
215.4,4050480.0,-72.10683,67.8519
464.2,3012104.0,-73.68492,67.8555
1000.0,1383528.0,-80.80179,67.8474
2154.4,662500.4,-86.71014,67.8562
4641.6,324462.5,-93.27527,67.8593
10000.0,164113.8,-102.3982,67.8512
