Frequency,Impedance,Phase Angle,Temperature (Dry Bath)
10.0,118280.5,-16.34102,67.7814
21.5,104978.2,-14.19239,67.7656
46.4,95379.73,-12.47747,67.7667
100.0,84791.11,-11.93721,67.7697
215.4,80462.82,-10.29885,67.7868
464.2,77066.79,-10.38831,67.7945
1000.0,71252.88,-11.35798,67.791
2154.4,66087.94,-16.3072,67.7979
4641.6,61393.22,-21.88797,67.7901
10000.0,50708.12,-32.13354,67.8034
