Frequency,Impedance,Phase Angle,Temperature (Dry Bath)
10.0,22945340.0,0.856673,68.0814
21.5,16893550.0,-6.714217,68.1026
46.4,21796150.0,-57.24244,68.0941
100.0,4614050.0,-65.89369,68.0999
215.4,4661906.0,-72.22335,68.0874
464.2,3884860.0,-75.22272,68.0874
1000.0,1390136.0,-82.53423,68.093
2154.4,686138.4,-84.94692,68.0917
4641.6,294275.3,-89.77755,68.0944
10000.0,144195.3,-93.18502,68.0981
