Frequency,Impedance,Phase Angle,Temperature (Dry Bath)
10.0,20163600.0,-14.52075,68.1794
21.5,16721120.0,-32.45919,68.1805
46.4,12280360.0,-56.98952,68.1872
100.0,3321692.0,-14.35739,68.1837
215.4,4035150.0,-73.51852,68.1843
464.2,2995495.0,-79.96426,68.1871
1000.0,1146917.0,-83.62265,68.1798
2154.4,511168.7,-87.5958,68.191
4641.6,271603.6,-86.47759,68.1848
10000.0,126409.7,-91.36039,68.1877
