Frequency,Impedance,Phase Angle,Temperature (Dry Bath)
10.0,237136.1,-22.59294,67.0514
21.5,200910.0,-20.15561,67.0498
46.4,173925.2,-17.43439,67.0632
100.0,145021.6,-15.70428,67.0402
215.4,107969.0,-84.03981,67.0678
464.2,125462.9,-15.75495,67.0808
1000.0,111853.8,-18.00241,67.0595
2154.4,99693.81,-23.77673,67.0399
4641.6,82568.04,-32.15369,67.0497
10000.0,61773.11,-43.37934,67.0486
