Frequency,Impedance,Phase Angle,Temperature (Dry Bath)
10.0,178513.4,-11.91075,71.2791
21.544346900318832,160406.9,-10.39516,71.281
46.41588833612777,145251.9,-9.079533,71.2986
100.0,120798.1,-22.32061,71.3004
215.44346900318823,31380.04,-47.97504,71.2979
464.15888336127773,88864.84,-9.755754,71.2892
1000.0,96108.06,-30.86331,71.2811
2154.4346900318824,88068.24,-30.49372,71.2902
4641.588833612777,83015.6,-38.00378,71.2827
10000.0,50475.2,-61.40686,71.2983
