Frequency,Impedance,Phase Angle,Temperature (Dry Bath)
10.0,20946380.0,-19.06673,68.2754
21.5,24328230.0,-38.21285,68.2705
46.4,16021180.0,-53.85995,68.2631
100.0,6526542.0,-85.37738,68.2705
215.4,3579920.0,-61.32376,68.2575
464.2,2402509.0,-73.40041,68.2798
1000.0,1173857.0,-83.96671,68.2669
2154.4,656801.5,-77.01063,68.2649
4641.6,309611.0,-89.88613,68.2679
10000.0,138061.2,-94.83628,68.2671
