Frequency,Impedance,Phase Angle,Temperature (Dry Bath)
10.0,2973929.0,-9.241003,71.2624
21.544346900318832,2755523.0,-20.40347,71.2613
46.41588833612777,1945510.0,-27.24063,71.2561
100.0,289134.7,73.37404,71.26
215.44346900318823,281729.7,-134.3199,71.2634
464.15888336127773,794189.6,-47.10254,71.2642
1000.0,603018.8,-66.11855,71.2675
2154.4346900318824,179731.5,-64.67894,71.2731
4641.588833612777,204721.8,-92.33274,71.2753
10000.0,60265.29,-83.77421,71.258
