Frequency,Impedance,Phase Angle,Temperature (Dry Bath)
10.0,52729.5,-34.04409,67.4733
21.5,40586.22,-30.00482,67.4814
46.4,32726.41,-25.88225,67.4831
100.0,27536.56,-21.98887,67.4764
215.4,22761.16,-11.77833,67.491
464.2,21280.64,-15.56496,67.4696
1000.0,19230.26,-13.47946,67.4977
2154.4,17598.7,-12.19102,67.5003
4641.6,16229.75,-12.32113,67.481
10000.0,15040.75,-14.18608,67.4629
