Frequency,Impedance,Phase Angle,Temperature (Dry Bath)
10.0,175382.0,-11.38673,66.3649
21.544346900318832,157474.0,-11.17201,66.3475
46.41588833612777,146039.0,-11.0352,66.3677
100.0,131596.0,4.347098,66.3638
215.44346900318823,114772.3,-4.321919,66.36
464.15888336127773,102844.3,-22.36679,66.3756
1000.0,124600.2,-7.900261,66.3735
2154.4346900318824,96612.82,-30.50518,66.3647
4641.588833612777,71634.99,-36.10971,66.3562
10000.0,57474.21,-52.62454,66.3694
