Frequency,Impedance,Phase Angle,Temperature (Dry Bath)
10.0,1563823.0,-19.75311,67.5466
21.5,1393810.0,-17.03167,67.5639
46.4,1241857.0,-14.8633,67.5475
100.0,1106686.0,-22.44858,67.5656
215.4,129216.9,-78.36467,67.5558
464.2,959407.2,-26.80869,67.5531
1000.0,641212.3,-46.07997,67.5627
2154.4,464682.1,-56.88116,67.561
4641.6,266409.3,-73.24758,67.5547
10000.0,126084.7,-78.9386,67.5595
