Frequency,Impedance,Phase Angle,Temperature (Dry Bath)
10.0,30520180.0,-20.47607,67.1705
21.5,28331700.0,-47.9973,67.1706
46.4,18835080.0,-52.97518,67.1584
100.0,3713008.0,-39.37138,67.1671
215.4,6141776.0,-139.8865,67.1494
464.2,1990081.0,-83.23395,67.169
1000.0,1173689.0,-78.39485,67.1445
2154.4,512709.0,-84.07654,67.1429
4641.6,249133.7,-84.66468,67.1545
10000.0,123976.2,-85.10862,67.1583
