Frequency,Impedance,Phase Angle,Temperature (Dry Bath)
10.0,130579.1,-3.774316,67.1902
21.5,127613.5,-3.500963,67.2033
46.4,124285.6,-3.555488,67.1906
100.0,118825.0,-4.794776,67.1949
215.4,106680.2,-1.094641,67.1769
464.2,118062.4,-6.191488,67.19
1000.0,109756.0,-10.46905,67.1995
2154.4,103713.0,-16.26538,67.1833
4641.6,93184.45,-26.99698,67.1805
10000.0,71739.58,-42.2793,67.1935
