Frequency,Impedance,Phase Angle,Temperature (Dry Bath)
10.0,4477069.0,10.32138,71.329
21.544346900318832,5470526.0,-18.32453,71.3145
46.41588833612777,4191420.0,-15.48447,71.3164
100.0,374749.6,-24.26994,71.3237
215.44346900318823,342273.1,81.43122,71.3203
464.15888336127773,494490.7,-24.34754,71.3217
1000.0,190649.1,-66.66544,71.3232
2154.4346900318824,368571.1,-63.10786,71.3196
4641.588833612777,152634.3,-91.12772,71.3294
10000.0,66170.91,-80.16816,71.3262
