Frequency,Impedance,Phase Angle,Temperature (Dry Bath)
10.0,23356070.0,-8.409477,67.2125
21.5,21345480.0,-33.4434,67.1976
46.4,10280020.0,-42.28755,67.2089
100.0,3707393.0,-13.96734,67.2168
215.4,142213.0,-99.19386,67.1896
464.2,1832936.0,-108.1857,67.1919
1000.0,1119795.0,-78.94946,67.1849
2154.4,521975.2,-89.09186,67.1981
4641.6,264070.6,-84.39841,67.1946
10000.0,125215.8,-84.63393,67.1869
