Frequency,Impedance,Phase Angle,Temperature (Dry Bath)
10.0,54458.33,-33.6342,67.1531
21.5,42047.48,-29.54411,67.1701
46.4,34096.39,-25.46901,67.1499
100.0,28653.57,-21.79846,67.1642
215.4,25749.16,-12.83632,67.1576
464.2,22461.26,-15.16123,67.1553
1000.0,20241.79,-13.1595,67.1537
2154.4,18582.04,-12.13477,67.163
4641.6,17219.31,-12.00132,67.1491
10000.0,15910.74,-14.40275,67.1581
