Frequency,Impedance,Phase Angle,Temperature (Dry Bath)
10.0,25424450.0,-11.11457,67.8901
21.5,31476990.0,-25.61609,67.8821
46.4,37193180.0,-48.59368,67.8824
100.0,6758418.0,-50.99452,67.9012
215.4,4576315.0,-63.94612,67.8608
464.2,2906046.0,-104.5178,67.8782
1000.0,1481779.0,-86.70573,67.8935
2154.4,623202.4,-93.60001,67.8863
4641.6,331375.8,-95.52871,67.8812
10000.0,148492.2,-96.39659,67.889
