Frequency,Impedance,Phase Angle,Temperature (Dry Bath)
10.0,4563201.0,-13.24311,65.6986
21.544346900318832,5432624.0,-12.52749,65.6975
46.41588833612777,4390101.0,-65.44636,65.7218
100.0,850962.6,-17.43902,65.7141
215.44346900318823,21106.69,119.5267,65.7217
464.15888336127773,905439.6,-26.04932,65.7157
1000.0,491057.8,-42.01554,65.7066
2154.4346900318824,442501.9,-70.95804,65.7087
4641.588833612777,127905.6,-71.66124,65.7008
10000.0,82076.39,-83.0161,65.7012
