Frequency,Impedance,Phase Angle,Temperature (Dry Bath)
10.0,4134964.0,-9.923815,71.1814
21.544346900318832,6184393.0,-38.68184,71.1777
46.41588833612777,5345770.0,-23.57993,71.1885
100.0,794762.4,119.0943,71.1779
215.44346900318823,1710092.0,-97.69065,71.1946
464.15888336127773,766763.0,-66.34142,71.1959
1000.0,350674.1,-97.30229,71.1925
2154.4346900318824,212935.8,-75.62519,71.2056
4641.588833612777,134989.7,-78.61069,71.1921
10000.0,75928.37,-85.23715,71.2095
