Frequency,Impedance,Phase Angle,Temperature (Dry Bath)
10.0,24261260.0,-9.226717,67.0931
21.5,23915390.0,-33.32647,67.0722
46.4,12797290.0,-66.82671,67.1014
100.0,4096032.0,-47.70224,67.0965
215.4,2648909.0,-71.16086,67.0836
464.2,1837775.0,-77.80988,67.0794
1000.0,860249.0,-81.48453,67.0712
2154.4,415703.7,-83.02476,67.0817
4641.6,204154.9,-81.39015,67.0632
10000.0,100049.7,-80.08336,67.0669
