Frequency,Impedance,Phase Angle,Temperature (Dry Bath)
10.0,18150240.0,-20.18977,68.0139
21.5,15264010.0,-10.12858,68.0139
46.4,23594170.0,-51.10845,68.0139
100.0,5931333.0,-20.32406,68.0139
215.4,5444677.0,-62.71596,68.0139
464.2,3600730.0,-67.78695,68.0139
1000.0,1407118.0,-75.98058,68.0139
2154.4,731302.6,-89.04785,68.0139
4641.6,338620.8,-92.4476,68.0139
10000.0,151478.2,-100.1803,68.0139
