Frequency,Impedance,Phase Angle,Temperature (Dry Bath)
10.0,110410.4,-4.268215,67.0298
21.5,108203.8,-3.504829,67.0261
46.4,106130.8,-3.312986,67.0188
100.0,105253.9,-3.470706,67.0165
215.4,103583.2,-5.167538,67.0254
464.2,102058.4,-6.271303,67.02
1000.0,98251.64,-8.545493,67.0049
2154.4,91973.21,-13.48029,67.0219
4641.6,84574.26,-23.60186,67.0224
10000.0,68206.97,-38.41325,67.0269
