Frequency,Impedance,Phase Angle,Temperature (Dry Bath)
10.0,5349115.0,15.24538,72.1463
21.544346900318832,8319112.0,14.15532,72.1392
46.41588833612777,6871697.0,-5.011404,72.1539
100.0,784875.1,-0.6978598,72.1415
215.44346900318823,1347026.0,24.96423,72.1499
464.15888336127773,821643.9,71.49384,72.1548
1000.0,1040271.0,-125.1422,72.1477
2154.4346900318824,391473.9,-76.46288,72.1469
4641.588833612777,293663.1,-74.90834,72.1497
10000.0,203494.4,-134.6746,72.1488
