Frequency,Impedance,Phase Angle,Temperature (Dry Bath)
10.0,37808480.0,-26.76731,68.2568
21.5,18244040.0,-33.77777,68.2568
46.4,11672110.0,-45.54918,68.2568
100.0,8737826.0,-2.200896,68.2568
215.4,5768457.0,-66.0325,68.2568
464.2,2421489.0,-79.77112,68.2568
1000.0,1382999.0,-81.0206,68.2568
2154.4,608049.4,-85.76671,68.2568
4641.6,319699.3,-93.08271,68.2568
10000.0,144124.8,-93.79154,68.2568
