Frequency,Impedance,Phase Angle,Temperature (Dry Bath)
10.0,174860.6,-11.79972,65.6928
21.544346900318832,158848.0,-11.75691,65.7073
46.41588833612777,146736.1,-12.02538,65.6962
100.0,137107.2,-0.1019225,65.6889
215.44346900318823,8825.577,45.29153,65.6892
464.15888336127773,101295.9,-6.333858,65.6805
1000.0,113210.5,-21.81751,65.6744
2154.4346900318824,90041.42,-21.46913,65.6799
4641.588833612777,69887.31,-39.6304,65.6766
10000.0,53692.35,-53.74508,65.6931
