Frequency,Impedance,Phase Angle,Temperature (Dry Bath)
10.0,25039190.0,-7.992276,67.9393
21.5,21610030.0,-41.10407,67.9367
46.4,27354170.0,-47.94733,67.9659
100.0,6836245.0,-50.35697,67.9412
215.4,6487990.0,-49.47537,67.9528
464.2,3502839.0,-87.58377,67.9608
1000.0,1468167.0,-83.12883,67.9692
2154.4,723275.5,-90.63961,67.9597
4641.6,325594.1,-95.13291,67.9532
10000.0,152820.5,-95.12951,67.9572
