Frequency,Impedance,Phase Angle,Temperature (Dry Bath)
10.0,171787.0,-12.41495,65.7628
21.544346900318832,159302.1,-11.42662,65.7672
46.41588833612777,144215.0,-9.420933,65.7732
100.0,149523.5,10.83939,65.7531
215.44346900318823,14086.36,48.51807,65.7568
464.15888336127773,107965.1,-5.476454,65.7575
1000.0,87265.61,-18.72073,65.756
2154.4346900318824,107524.9,-32.13404,65.7537
4641.588833612777,80520.48,-38.57277,65.7514
10000.0,50806.63,-57.55797,65.7554
