Frequency,Impedance,Phase Angle,Temperature (Dry Bath)
10.0,4188371.0,-25.05139,71.0902
21.544346900318832,8756065.0,-1.331261,71.0653
46.41588833612777,6532809.0,-13.27752,71.0826
100.0,872514.3,179.4693,71.0687
215.44346900318823,2954750.0,36.81986,71.046
464.15888336127773,1906390.0,6.850408,71.0577
1000.0,132068.3,-28.75572,71.0549
2154.4346900318824,636938.1,-82.50427,71.0782
4641.588833612777,163775.1,-78.92459,71.0576
10000.0,190435.9,-64.28419,71.0483
