Frequency,Impedance,Phase Angle,Temperature (Dry Bath)
10.0,33521620.0,-13.58513,67.0602
21.5,26752190.0,-36.12025,67.0404
46.4,22668730.0,-47.70532,67.0503
100.0,6292496.0,-43.69512,67.0654
215.4,7678714.0,-9.342189,67.0666
464.2,2561370.0,-99.81596,67.0562
1000.0,1092658.0,-83.22603,67.0275
2154.4,525659.1,-88.45418,67.0487
4641.6,261700.6,-89.08437,67.0448
10000.0,122212.3,-86.45664,67.058
