Frequency,Impedance,Phase Angle,Temperature (Dry Bath)
10.0,117154.4,-3.155907,67.1535
21.5,114864.9,-2.590145,67.1362
46.4,113227.4,-2.455383,67.1378
100.0,111007.3,-2.326558,67.1476
215.4,56449.96,21.97018,67.1568
464.2,108634.3,-6.223025,67.1442
1000.0,105314.6,-8.018427,67.1559
2154.4,100192.3,-13.97033,67.1244
4641.6,88313.9,-25.56191,67.1415
10000.0,70213.02,-41.85189,67.1253
