Frequency,Impedance,Phase Angle,Temperature (Dry Bath)
10.0,30734020.0,-28.48871,67.2874
21.5,21298000.0,-22.048,67.283
46.4,18277520.0,-55.20133,67.2701
100.0,2823311.0,14.55236,67.2686
215.4,4733724.0,-25.57629,67.2767
464.2,2659037.0,-92.39758,67.2612
1000.0,1108082.0,-80.94076,67.2846
2154.4,574606.0,-87.14422,67.2658
4641.6,271968.2,-84.95763,67.2822
10000.0,130296.8,-84.85394,67.259
