Frequency,Impedance,Phase Angle,Temperature (Dry Bath)
10.0,4335245.0,-8.69254,71.3321
21.544346900318832,5452737.0,-14.25175,71.3395
46.41588833612777,6332026.0,-32.32707,71.3551
100.0,397959.6,-23.78313,71.3351
215.44346900318823,2904688.0,163.6623,71.3468
464.15888336127773,786525.1,-142.5468,71.3385
1000.0,449430.9,-51.34519,71.3168
2154.4346900318824,264663.6,-70.93648,71.3435
4641.588833612777,145351.4,-109.9997,71.3462
10000.0,55553.57,-84.67134,71.3463
