Frequency,Impedance,Phase Angle,Temperature (Dry Bath)
10.0,1515308.0,-18.57949,67.1072
21.5,1349204.0,-15.57636,67.1159
46.4,1245048.0,-15.4891,67.1172
100.0,1136998.0,-11.53757,67.121
215.4,871384.5,-37.53447,67.1324
464.2,896836.7,-22.26015,67.1225
1000.0,702333.8,-44.86208,67.1129
2154.4,451029.5,-59.35422,67.1273
4641.6,238088.6,-75.39236,67.1304
10000.0,110684.8,-79.9048,67.136
