Frequency,Impedance,Phase Angle,Temperature (Dry Bath)
10.0,207596.1,-23.54846,67.492
21.5,174145.9,-20.54059,67.495
46.4,150466.3,-17.58281,67.4994
100.0,133343.7,-16.24714,67.498
215.4,85165.26,-42.82323,67.4915
464.2,111612.7,-14.257,67.4881
1000.0,101086.8,-15.15654,67.49
2154.4,90860.55,-19.46068,67.5124
4641.6,76901.74,-28.43525,67.4892
10000.0,59759.66,-39.48834,67.5016
