Frequency,Impedance,Phase Angle,Temperature (Dry Bath)
10.0,34850130.0,-17.28528,67.2942
21.5,25249710.0,-39.02337,67.3024
46.4,19964280.0,-43.84033,67.2862
100.0,7299878.0,11.57897,67.2961
215.4,2670312.0,-91.91353,67.2827
464.2,2196512.0,-74.85514,67.2967
1000.0,1083673.0,-80.98878,67.2924
2154.4,550436.5,-88.92793,67.2943
4641.6,249713.8,-86.78827,67.3218
10000.0,121751.0,-87.47614,67.3055
