Frequency,Impedance,Phase Angle,Temperature (Dry Bath)
10.0,180258.6,-22.27834,67.8024
21.5,151721.5,-19.2963,67.7895
46.4,132670.8,-17.05611,67.7886
100.0,117937.9,-15.4692,67.7841
215.4,107635.2,-13.99032,67.7738
464.2,97897.99,-12.15184,67.7825
1000.0,90852.44,-14.61322,67.7811
2154.4,82036.92,-18.68351,67.7878
4641.6,73875.68,-24.3904,67.7893
10000.0,59409.52,-38.56161,67.7939
