Frequency,Impedance,Phase Angle,Temperature (Dry Bath)
10.0,277805.3,-37.108,17.5903
21.5,209295.0,-34.21827,17.5947
46.4,162774.9,-30.86961,17.6076
100.0,126919.3,-27.1843,17.593
215.4,103256.0,-24.32414,17.6102
464.2,89322.64,-20.68103,17.608
1000.0,76815.21,-19.47989,17.6
2154.4,67868.51,-20.71942,17.5837
4641.6,58356.34,-22.89086,17.6074
10000.0,52594.36,-31.71085,17.5986
