Frequency,Impedance,Phase Angle,Temperature (Dry Bath)
10.0,28343840.0,-19.10197,67.1281
21.5,23111550.0,-46.35679,67.1224
46.4,14705110.0,-64.07138,67.1369
100.0,11187230.0,-78.42959,67.1309
215.4,591663.1,44.04522,67.1284
464.2,2298739.0,-67.60195,67.1077
1000.0,785132.9,-83.50243,67.1282
2154.4,469908.9,-83.5836,67.12
4641.6,205235.5,-80.73063,67.1349
10000.0,97270.19,-80.70523,67.1293
