Frequency,Impedance,Phase Angle,Temperature (Dry Bath)
10.0,5146944.0,12.29825,65.6625
21.544346900318832,4170163.0,11.92864,65.6588
46.41588833612777,5546319.0,5.287669,65.6728
100.0,418999.0,64.88847,65.6684
215.44346900318823,76469.77,83.29601,65.6602
464.15888336127773,603213.3,-7.894142,65.6642
1000.0,617102.3,7.35289,65.6592
2154.4346900318824,276030.4,-67.89488,65.6687
4641.588833612777,155486.5,-84.29634,65.6726
10000.0,67732.02,-90.37008,65.6747
