Frequency,Impedance,Phase Angle,Temperature (Dry Bath)
10.0,229015.0,-22.63511,67.5452
21.5,193381.7,-20.21499,67.5586
46.4,166822.8,-17.98731,67.5527
100.0,147707.1,-14.02933,67.5576
215.4,110847.6,-117.1245,67.5652
464.2,124222.7,-14.33845,67.5665
1000.0,112486.5,-17.86582,67.5475
2154.4,97033.8,-21.76193,67.5536
4641.6,81250.19,-30.58724,67.5601
10000.0,62250.27,-40.64569,67.5564
