Frequency,Impedance,Phase Angle,Temperature (Dry Bath)
10.0,1451581.0,-14.9455,67.9458
21.5,1296840.0,-14.15363,67.9527
46.4,1144896.0,-13.35794,67.9523
100.0,1053587.0,-11.56718,67.9527
215.4,924670.3,-17.68993,67.9516
464.2,895918.8,-19.91715,67.9512
1000.0,640540.7,-41.55889,67.9623
2154.4,468291.2,-55.44977,67.9293
4641.6,256563.5,-71.43731,67.9498
10000.0,141349.7,-88.08056,67.9468
