Frequency,Impedance,Phase Angle,Temperature (Dry Bath)
10.0,24105230.0,-4.895639,67.4693
21.5,24279760.0,-34.86349,67.4771
46.4,17220240.0,-49.67178,67.4769
100.0,2331661.0,93.95885,67.4642
215.4,130692.1,-50.6229,67.489
464.2,2905170.0,-90.76865,67.4826
1000.0,1113260.0,-84.88021,67.4811
2154.4,610767.3,-89.43838,67.4665
4641.6,253634.1,-86.82758,67.4688
10000.0,123155.9,-87.46206,67.4547
