Frequency,Impedance,Phase Angle,Temperature (Dry Bath)
10.0,81416.08,-37.0234,71.4045
21.544346900318832,61234.78,-32.55096,71.3938
46.41588833612777,46768.93,-28.64573,71.368
100.0,37478.66,-22.08016,71.387
215.44346900318823,40836.4,-129.2682,71.4102
464.15888336127773,26063.23,-17.71283,71.4108
1000.0,23971.5,-16.24548,71.3799
2154.4346900318824,21637.78,-14.79756,71.3761
4641.588833612777,19466.91,-17.32143,71.3606
10000.0,16344.94,-22.90454,71.3897
