Frequency,Impedance,Phase Angle,Temperature (Dry Bath)
10.0,32757990.0,-23.26914,67.991
21.5,21289260.0,-37.54036,67.9883
46.4,11138170.0,-56.67605,67.9964
100.0,5408298.0,-37.70923,67.9945
215.4,4058946.0,-74.90066,67.9928
464.2,1963890.0,-81.41342,67.9921
1000.0,907545.0,-83.50097,67.9935
2154.4,508883.6,-83.01991,67.9888
4641.6,263456.7,-82.60875,68.0111
10000.0,136745.7,-90.21772,67.9905
