Frequency,Impedance,Phase Angle,Temperature (Dry Bath)
10.0,4242452.0,-4.617313,71.0162
21.544346900318832,6170526.0,-10.48013,71.015
46.41588833612777,5366097.0,-38.26356,71.0133
100.0,1402293.0,-43.49208,71.0213
215.44346900318823,941088.2,167.428,71.0237
464.15888336127773,689602.1,-74.31256,71.0298
1000.0,489295.0,-84.40856,71.0218
2154.4346900318824,353500.5,-80.69036,71.0088
4641.588833612777,141281.5,-84.46805,71.0224
10000.0,68848.65,-88.74614,71.0304
