Frequency,Impedance,Phase Angle,Temperature (Dry Bath)
10.0,21284040.0,-11.19456,67.3791
21.5,28551010.0,-34.89712,67.3789
46.4,13847830.0,-60.87139,67.3666
100.0,3733109.0,-61.7177,67.3738
215.4,3155914.0,18.37213,67.3672
464.2,2156575.0,-88.02207,67.3705
1000.0,951615.3,-82.28855,67.3543
2154.4,436608.1,-80.75896,67.3569
4641.6,213492.9,-82.46653,67.3534
10000.0,105945.5,-80.22786,67.3583
