Frequency,Impedance,Phase Angle,Temperature (Dry Bath)
10.0,30554710.0,-12.62832,67.4354
21.5,18309000.0,-36.41827,67.4322
46.4,14012410.0,-59.46393,67.4195
100.0,4744803.0,-23.77234,67.4246
215.4,2716958.0,-74.19696,67.4191
464.2,1782516.0,-62.40853,67.419
1000.0,839434.7,-79.6704,67.4119
2154.4,408551.9,-81.53174,67.4212
4641.6,201126.2,-82.67694,67.4412
10000.0,102028.4,-81.43477,67.4451
