Frequency,Impedance,Phase Angle,Temperature (Dry Bath)
10.0,5496254.0,12.05709,71.3891
21.544346900318832,4347168.0,6.384329,71.393
46.41588833612777,6804792.0,-21.73615,71.3988
100.0,608469.3,-61.45412,71.4022
215.44346900318823,886036.0,19.17397,71.4018
464.15888336127773,659049.6,44.36251,71.426
1000.0,2354711.0,99.69779,71.4041
2154.4346900318824,714099.9,-22.12006,71.3989
4641.588833612777,236064.9,-105.7722,71.4117
10000.0,126133.2,-78.76021,71.3921
