Frequency,Impedance,Phase Angle,Temperature (Dry Bath)
10.0,39138020.0,-9.175948,67.1607
21.5,31258000.0,-23.65406,67.1648
46.4,17320060.0,-49.89708,67.1655
100.0,2029883.0,-20.47895,67.1508
215.4,2302450.0,-82.02147,67.1725
464.2,1904230.0,-89.35665,67.1574
1000.0,1426757.0,-87.65095,67.1577
2154.4,568086.4,-84.1415,67.1566
4641.6,263391.7,-86.63443,67.1593
10000.0,123891.7,-85.98441,67.1544
