Frequency,Impedance,Phase Angle,Temperature (Dry Bath)
10.0,1553939.0,-14.62103,68.0128
21.5,1379811.0,-13.95648,68.0077
46.4,1174960.0,-13.82248,68.0142
100.0,1083215.0,-18.23141,68.0149
215.4,1103741.0,-19.61426,68.0061
464.2,908543.8,-27.63283,68.0123
1000.0,794785.0,-37.03518,68.0125
2154.4,481214.9,-63.41065,68.0035
4641.6,304398.7,-71.23195,68.0274
10000.0,132776.7,-89.4656,68.0116
