Frequency,Impedance,Phase Angle,Temperature (Dry Bath)
10.0,40846.69,-14.14437,70.6891
21.544346900318832,37188.32,-12.10425,70.6853
46.41588833612777,34227.53,-11.03855,70.6884
100.0,32416.49,-10.20641,70.6837
215.44346900318823,29250.73,-10.87473,70.702
464.15888336127773,27694.3,-9.46966,70.6839
1000.0,25337.15,-11.80813,70.6883
2154.4346900318824,23206.5,-11.42195,70.6844
4641.588833612777,21648.65,-18.93853,70.6883
10000.0,19437.92,-24.42784,70.6838
