Frequency,Impedance,Phase Angle,Temperature (Dry Bath)
10.0,2362474.0,-11.44028,68.2085
21.5,2033114.0,-12.00155,68.2085
46.4,1856715.0,-12.74825,68.2085
100.0,1663450.0,-10.49531,68.2085
215.4,1773609.0,-28.27245,68.2085
464.2,1564674.0,-29.68253,68.2085
1000.0,884070.9,-44.90235,68.2085
2154.4,568454.6,-68.7198,68.2085
4641.6,298641.5,-73.06603,68.2085
10000.0,138268.3,-89.19204,68.2085
