Frequency,Impedance,Phase Angle,Temperature (Dry Bath)
10.0,1198118.0,-6.997653,72.0191
21.544346900318832,1048541.0,-9.360992,72.0257
46.41588833612777,986460.8,-7.35006,71.9968
100.0,449531.0,-34.66536,72.0022
215.44346900318823,172865.1,-22.37391,71.9938
464.15888336127773,448297.2,-43.59517,72.0162
1000.0,292311.4,-24.6085,72.0188
2154.4346900318824,251749.2,-66.82064,72.012
4641.588833612777,230966.0,-45.38462,72.0181
10000.0,146381.4,-53.01034,72.0102
