Frequency,Impedance,Phase Angle,Temperature (Dry Bath)
10.0,6099039.0,23.38244,71.4939
21.544346900318832,5664324.0,-1.637913,71.4819
46.41588833612777,7666269.0,-36.44665,71.4706
100.0,545051.7,-101.2072,71.475
215.44346900318823,932292.6,31.5747,71.4882
464.15888336127773,711552.8,-60.88596,71.4585
1000.0,549839.5,-101.0821,71.4618
2154.4346900318824,187796.8,-84.83864,71.457
4641.588833612777,164873.9,-103.7454,71.4571
10000.0,63048.89,-86.52868,71.4595
