Frequency,Impedance,Phase Angle,Temperature (Dry Bath)
10.0,17349.41,-12.641,71.5141
21.544346900318832,15798.8,-10.97864,71.5038
46.41588833612777,14547.04,-10.17576,71.493
100.0,13433.93,-10.28049,71.508
215.44346900318823,12589.65,-9.235895,71.4921
464.15888336127773,11851.82,-8.081109,71.5062
1000.0,10898.18,-7.216327,71.485
2154.4346900318824,10350.57,-6.773223,71.5083
4641.588833612777,9832.468,-6.856399,71.4975
10000.0,9263.28,-8.986631,71.481
