Frequency,Impedance,Phase Angle,Temperature (Dry Bath)
10.0,21892160.0,1.756678,68.2338
21.5,16124460.0,-37.60668,68.2338
46.4,16341020.0,-46.84558,68.2338
100.0,4201859.0,-32.04416,68.2338
215.4,4721558.0,-69.27393,68.2338
464.2,2456365.0,-78.03753,68.2338
1000.0,1201776.0,-76.64737,68.2338
2154.4,562427.0,-83.05088,68.2338
4641.6,292019.4,-92.44777,68.2338
10000.0,137541.7,-96.49637,68.2338
