Frequency,Impedance,Phase Angle,Temperature (Dry Bath)
10.0,114155.4,-3.194565,67.1034
21.5,112081.6,-2.628087,67.1205
46.4,110271.2,-2.446832,67.0917
100.0,107618.3,-2.750607,67.1146
215.4,108853.2,-3.057491,67.1127
464.2,106123.6,-4.830176,67.1079
1000.0,101579.7,-8.908526,67.0939
2154.4,97292.22,-13.47787,67.0977
4641.6,87997.04,-23.71409,67.1004
10000.0,69393.41,-41.11652,67.1098
