Frequency,Impedance,Phase Angle,Temperature (Dry Bath)
10.0,4592228.0,1.650587,66.1737
21.544346900318832,5284328.0,-2.218572,66.1827
46.41588833612777,4073202.0,-19.82718,66.1871
100.0,3091957.0,170.8876,66.1817
215.44346900318823,404403.6,-72.00762,66.2027
464.15888336127773,4005368.0,69.6241,66.192
1000.0,558589.9,-103.3951,66.1901
2154.4346900318824,186984.4,-85.20018,66.2034
4641.588833612777,173208.0,-93.95296,66.2311
10000.0,67266.9,-90.25322,66.2412
