Frequency,Impedance,Phase Angle,Temperature (Dry Bath)
10.0,19323960.0,-4.086929,68.2042
21.5,26956950.0,-25.07134,68.2042
46.4,26118490.0,-43.06816,68.2042
100.0,8121365.0,-49.22542,68.2042
215.4,5998955.0,-76.97341,68.2042
464.2,2482978.0,-73.18265,68.2042
1000.0,1330481.0,-81.4828,68.2042
2154.4,700245.3,-84.6035,68.2042
4641.6,318887.4,-89.68,68.2042
10000.0,159820.4,-97.17315,68.2042
