Frequency,Impedance,Phase Angle,Temperature (Dry Bath)
10.0,20253650.0,-14.39465,17.6031
21.5,22225310.0,-35.72849,17.6016
46.4,24686290.0,-51.46121,17.6054
100.0,7522954.0,7.946586,17.5918
215.4,3997184.0,-100.2797,17.609
464.2,2632719.0,-93.94459,17.5936
1000.0,1426913.0,-89.75249,17.5988
2154.4,681494.1,-84.25092,17.6204
4641.6,316580.2,-89.2357,17.5941
10000.0,140133.3,-98.37341,17.6125
