Frequency,Impedance,Phase Angle,Temperature (Dry Bath)
10.0,37945290.0,-18.66698,67.0723
21.5,28364050.0,-40.50259,67.0701
46.4,19838500.0,-49.31153,67.056
100.0,6813468.0,-15.98218,67.0568
215.4,3046351.0,-107.8116,67.0623
464.2,2133126.0,-102.4015,67.055
1000.0,1063987.0,-66.22643,67.0633
2154.4,501154.2,-89.8493,67.075
4641.6,261304.3,-86.75491,67.0698
10000.0,124995.0,-86.81273,67.0617
