Frequency,Impedance,Phase Angle,Temperature (Dry Bath)
10.0,25820600.0,-4.624525,67.8723
21.5,29415900.0,-19.0499,67.8822
46.4,29592100.0,-34.21275,67.8751
100.0,13251680.0,-100.9111,67.8753
215.4,4680206.0,-82.44262,67.8703
464.2,2899088.0,-74.77127,67.8829
1000.0,1576967.0,-80.3359,67.8654
2154.4,699362.3,-87.69929,67.877
4641.6,314771.2,-91.27923,67.8825
10000.0,146313.7,-95.58396,67.8874
