Frequency,Impedance,Phase Angle,Temperature (Dry Bath)
10.0,12134180.0,-2.092741,65.8554
21.544346900318832,9568031.0,-10.54364,65.8635
46.41588833612777,4724332.0,-33.37841,65.8543
100.0,458798.1,-21.5247,65.8573
215.44346900318823,24740.17,-118.6229,65.8647
464.15888336127773,566087.6,-56.24511,65.8395
1000.0,964480.4,-64.03464,65.8579
2154.4346900318824,315934.9,-89.98555,65.8548
4641.588833612777,121954.9,-86.21972,65.8437
10000.0,59254.47,-81.65244,65.8472
