Frequency,Impedance,Phase Angle,Temperature (Dry Bath)
10.0,1921364.0,-7.959501,70.5766
21.544346900318832,2178411.0,-15.80247,70.568
46.41588833612777,1951780.0,-11.13897,70.5708
100.0,565090.1,18.08001,70.5764
215.44346900318823,460296.1,-9.66357,70.5913
464.15888336127773,991804.0,-64.71368,70.5734
1000.0,252239.9,-24.26973,70.5912
2154.4346900318824,320978.7,-95.33041,70.5881
4641.588833612777,117786.4,-84.16383,70.5992
10000.0,54265.23,-89.52836,70.5979
