Frequency,Impedance,Phase Angle,Temperature (Dry Bath)
10.0,118059.0,-3.64692,67.3
21.5,115843.5,-3.278927,67.2912
46.4,113473.7,-2.984985,67.291
100.0,111918.9,-3.999481,67.272
215.4,111319.9,-5.476442,67.2807
464.2,109072.7,-6.345666,67.2912
1000.0,104548.3,-8.938173,67.2881
2154.4,99611.93,-13.64925,67.2981
4641.6,91780.0,-23.45652,67.2982
10000.0,73304.51,-39.54672,67.2719
