Frequency,Impedance,Phase Angle,Temperature (Dry Bath)
10.0,3021035.0,19.41655,66.6
21.544346900318832,5743026.0,-1.475537,66.6
46.41588833612777,5736338.0,6.361414,66.6
100.0,257340.9,29.92232,66.6
215.44346900318823,1614990.0,-25.8012,66.6
464.15888336127773,910117.4,-141.2797,66.6
1000.0,1880631.0,-109.0633,66.6
2154.4346900318824,807023.9,15.55634,66.6
4641.588833612777,399759.7,-125.5873,66.6
10000.0,1547582.0,-124.4803,66.6
