Frequency,Impedance,Phase Angle,Temperature (Dry Bath)
10.0,190431.2,-15.57084,72.251
21.544346900318832,166970.5,-14.7973,72.2528
46.41588833612777,147846.6,-14.29361,72.2476
100.0,146596.8,-10.02996,72.2385
215.44346900318823,122598.1,-11.42265,72.2525
464.15888336127773,116158.0,-8.369154,72.2482
1000.0,86931.95,-26.65288,72.2369
2154.4346900318824,67219.19,-12.46107,72.2412
4641.588833612777,70089.64,-18.47647,72.262
10000.0,64553.29,-29.41968,72.2567
