Frequency,Impedance,Phase Angle,Temperature (Dry Bath)
10.0,4084767.0,4.874533,71.1768
21.544346900318832,5840069.0,-33.74874,71.1638
46.41588833612777,5707047.0,-28.04821,71.163
100.0,1026481.0,-85.98272,71.1711
215.44346900318823,568555.2,-76.17143,71.1702
464.15888336127773,853322.2,-138.0328,71.1734
1000.0,638950.3,-119.0774,71.1636
2154.4346900318824,216644.7,-86.56549,71.1653
4641.588833612777,136117.1,-85.98715,71.1643
10000.0,62353.99,-88.93461,71.1742
