Frequency,Impedance,Phase Angle,Temperature (Dry Bath)
10.0,1549424.0,-14.41246,67.9686
21.5,1428511.0,-14.30341,67.9686
46.4,1242051.0,-13.25004,67.9686
100.0,1008204.0,-13.59871,67.9686
215.4,1047735.0,-15.64913,67.9686
464.2,859789.8,-29.29053,67.9686
1000.0,751928.7,-42.24425,67.9686
2154.4,515273.7,-58.36126,67.9686
4641.6,297648.7,-75.43239,67.9686
10000.0,138835.5,-89.05535,67.9686
