Frequency,Impedance,Phase Angle,Temperature (Dry Bath)
10.0,1487428.0,-15.88445,68.2085
21.5,1390723.0,-13.29808,68.2085
46.4,1311807.0,-13.53925,68.2085
100.0,1068691.0,-17.25645,68.2085
215.4,1055608.0,-14.33223,68.2085
464.2,869255.5,-30.10812,68.2085
1000.0,786177.6,-44.08143,68.2085
2154.4,523169.4,-60.17555,68.2085
4641.6,290346.9,-73.25179,68.2085
10000.0,135437.2,-90.16674,68.2085
