Frequency,Impedance,Phase Angle,Temperature (Dry Bath)
10.0,42088030.0,-27.86812,67.325
21.5,28703850.0,-29.60488,67.3075
46.4,16396030.0,-53.70052,67.3336
100.0,14454580.0,84.41892,67.3368
215.4,3364556.0,-87.42982,67.3057
464.2,1922918.0,-98.75264,67.3284
1000.0,997358.6,-77.93795,67.3141
2154.4,579189.2,-84.15252,67.3268
4641.6,267457.1,-83.75446,67.3318
10000.0,119479.7,-86.21211,67.3378
