Frequency,Impedance,Phase Angle,Temperature (Dry Bath)
10.0,48245560.0,-19.07418,67.8951
21.5,19768540.0,-45.63459,67.8937
46.4,13335750.0,-50.38762,67.9087
100.0,8013302.0,-61.71887,67.8984
215.4,8712736.0,-52.78903,67.8999
464.2,3636932.0,-93.13683,67.8892
1000.0,1154746.0,-78.57294,67.9041
2154.4,597004.6,-89.06156,67.8957
4641.6,262130.9,-92.02531,67.8785
10000.0,136189.2,-94.43917,67.8956
