Frequency,Impedance,Phase Angle,Temperature (Dry Bath)
10.0,5489196.0,-20.64282,65.8366
21.544346900318832,4613146.0,-28.19039,65.8525
46.41588833612777,5206888.0,-7.862136,65.8485
100.0,183182.4,5.139936,65.84
215.44346900318823,13992.17,-113.2937,65.8419
464.15888336127773,520880.1,-87.29753,65.8612
1000.0,563472.9,-35.90256,65.8563
2154.4346900318824,494374.5,-110.4568,65.854
4641.588833612777,180312.9,-101.213,65.8696
10000.0,73419.8,-87.38697,65.8711
