Frequency,Impedance,Phase Angle,Temperature (Dry Bath)
10.0,30729430.0,8.241357,67.9459
21.5,27433220.0,-12.14547,67.9748
46.4,27942120.0,-38.04373,67.9693
100.0,4663557.0,-70.33943,67.9566
215.4,4937581.0,-47.42684,67.9357
464.2,2403518.0,-84.77879,67.958
1000.0,1543580.0,-81.29303,67.9565
2154.4,734331.7,-86.78932,67.9622
4641.6,304948.8,-91.91361,67.971
10000.0,163607.3,-96.39673,67.9618
