Frequency,Impedance,Phase Angle,Temperature (Dry Bath)
10.0,4409537.0,-32.93378,71.3751
21.544346900318832,6497249.0,-28.92739,71.3821
46.41588833612777,4496439.0,-18.99031,71.3741
100.0,1612043.0,-138.9338,71.3682
215.44346900318823,1411914.0,-138.3056,71.3775
464.15888336127773,518420.5,-45.63153,71.3731
1000.0,2109986.0,8.380147,71.3656
2154.4346900318824,553042.0,-56.4766,71.3787
4641.588833612777,312578.8,-41.33688,71.3602
10000.0,104092.4,-91.17721,71.3579
