Frequency,Impedance,Phase Angle,Temperature (Dry Bath)
10.0,227171.0,-22.9741,67.1381
21.5,191944.5,-20.49354,67.1517
46.4,165994.4,-17.71671,67.1565
100.0,149652.6,-16.46268,67.1623
215.4,89138.02,-32.97268,67.1583
464.2,121724.4,-13.82928,67.1642
1000.0,109219.5,-17.04478,67.1552
2154.4,98211.28,-21.93893,67.1469
4641.6,80321.21,-30.43327,67.1695
10000.0,61040.27,-42.31801,67.161
