Frequency,Impedance,Phase Angle,Temperature (Dry Bath)
10.0,8495707.0,-6.413961,67.1
21.544346900318832,6811321.0,15.15696,67.1
46.41588833612777,4664480.0,-0.05239439,67.1
100.0,4518361.0,0.384908,67.1
215.44346900318823,3389956.0,-26.53026,67.1
464.15888336127773,4295833.0,-80.59868,67.1
1000.0,4773229.0,20.865,67.1
2154.4346900318824,24893570.0,130.012,67.1
4641.588833612777,4174436.0,-62.36449,67.1
10000.0,1879824.0,-91.732,67.1
