Frequency,Impedance,Phase Angle,Temperature (Dry Bath)
10.0,53868.75,-33.72147,67.1444
21.5,41613.92,-29.87157,67.1502
46.4,33620.48,-26.13365,67.1615
100.0,28035.04,-22.58348,67.1673
215.4,24294.46,-19.19694,67.1597
464.2,21633.47,-16.65096,67.1619
1000.0,19266.48,-14.12042,67.1456
2154.4,17656.23,-12.91589,67.1369
4641.6,16198.45,-13.09889,67.1439
10000.0,14924.47,-15.12264,67.1352
