Frequency,Impedance,Phase Angle,Temperature (Dry Bath)
10.0,116654.1,-16.13422,67.8739
21.5,103865.1,-13.96906,67.8784
46.4,94726.41,-12.48452,67.8895
100.0,84652.2,-10.62003,67.9011
215.4,81191.07,-9.782516,67.9007
464.2,75773.5,-10.66458,67.8882
1000.0,71537.57,-11.85859,67.8718
2154.4,64555.69,-14.69057,67.9214
4641.6,60558.75,-21.29251,67.8799
10000.0,51606.17,-32.05379,67.8903
