Frequency,Impedance,Phase Angle,Temperature (Dry Bath)
10.0,25296610.0,-26.27635,68.3059
21.5,20173800.0,-25.08067,68.3149
46.4,13080060.0,-48.02169,68.3069
100.0,4640952.0,-55.04659,68.3134
215.4,5125022.0,-34.16617,68.3118
464.2,2547154.0,-102.6321,68.3432
1000.0,1285115.0,-83.28199,68.3289
2154.4,644178.8,-89.79911,68.3315
4641.6,286537.3,-94.45571,68.3357
10000.0,161888.6,-89.52489,68.3324
