Frequency,Impedance,Phase Angle,Temperature (Dry Bath)
10.0,30735380.0,-15.50397,68.0007
21.5,31818990.0,-31.88118,67.9989
46.4,27111700.0,-49.02587,67.9899
100.0,8242979.0,-13.36383,68.0003
215.4,7166441.0,-83.67037,67.997
464.2,2881797.0,-75.71135,68.0087
1000.0,1297451.0,-79.46726,67.9909
2154.4,678851.8,-89.40322,67.9941
4641.6,339236.8,-91.80919,68.0043
10000.0,146326.5,-95.03449,68.001
