Frequency,Impedance,Phase Angle,Temperature (Dry Bath)
10.0,20456080.0,-8.338127,68.1103
21.5,17544490.0,-21.71806,68.1137
46.4,15568560.0,-51.11011,68.1257
100.0,7363214.0,-84.04222,68.0973
215.4,4671743.0,-83.0139,68.1044
464.2,2532599.0,-75.26513,68.1263
1000.0,1174356.0,-85.28432,68.1161
2154.4,670536.7,-83.87166,68.0977
4641.6,309974.6,-91.1484,68.1122
10000.0,136710.1,-95.48231,68.1229
