Frequency,Impedance,Phase Angle,Temperature (Dry Bath)
10.0,172941.7,-11.75854,65.8717
21.544346900318832,158982.5,-11.81111,65.8775
46.41588833612777,144030.1,-10.47327,65.8665
100.0,112777.6,-15.29161,65.8804
215.44346900318823,4592.581,-41.10397,65.865
464.15888336127773,102266.7,-13.09425,65.8609
1000.0,81383.77,-15.26431,65.8625
2154.4346900318824,97848.54,-27.5638,65.8782
4641.588833612777,81136.65,-46.66111,65.8776
10000.0,53250.03,-52.44443,65.8743
