Frequency,Impedance,Phase Angle,Temperature (Dry Bath)
10.0,52470.04,-34.05964,67.3211
21.5,40375.34,-30.16775,67.3083
46.4,32474.61,-26.34998,67.3098
100.0,27208.94,-22.82124,67.3153
215.4,23423.6,-18.99635,67.3051
464.2,20777.57,-16.25324,67.3248
1000.0,18537.62,-14.22094,67.3195
2154.4,16925.76,-13.0022,67.329
4641.6,15530.83,-12.80492,67.3185
10000.0,14264.61,-14.6049,67.3348
