Frequency,Impedance,Phase Angle,Temperature (Dry Bath)
10.0,4774633.0,-17.82654,71.0743
21.544346900318832,9476465.0,-23.24182,71.0703
46.41588833612777,5835976.0,-12.8319,71.0831
100.0,578922.4,-40.70167,71.0705
215.44346900318823,693811.4,-71.91887,71.0606
464.15888336127773,784467.2,-52.79801,71.0843
1000.0,411380.6,-86.21323,71.0735
2154.4346900318824,254754.8,-85.79545,71.0862
4641.588833612777,139832.8,-89.34721,71.0806
10000.0,66812.34,-90.63744,71.093
