Frequency,Impedance,Phase Angle,Temperature (Dry Bath)
10.0,238389.9,-22.88354,67.0708
21.5,201448.4,-20.30047,67.0864
46.4,174152.8,-17.76825,67.06
100.0,153668.7,-15.07598,67.0749
215.4,137715.9,-12.27806,67.074
464.2,126781.6,-15.79074,67.0684
1000.0,113515.4,-16.30034,67.0758
2154.4,100791.8,-22.10251,67.0723
4641.6,83194.59,-31.38065,67.0722
10000.0,62918.64,-42.38863,67.0643
