Frequency,Impedance,Phase Angle,Temperature (Dry Bath)
10.0,4062144.0,-2.700415,65.6946
21.544346900318832,5747273.0,-18.28394,65.6992
46.41588833612777,4277925.0,-19.14657,65.7106
100.0,242770.3,122.5733,65.7203
215.44346900318823,279544.4,57.22968,65.7179
464.15888336127773,1093163.0,-101.3523,65.7095
1000.0,638497.6,-65.39551,65.7045
2154.4346900318824,367896.4,-52.7283,65.7209
4641.588833612777,151365.4,-84.37753,65.7069
10000.0,70021.18,-90.11267,65.7146
