Frequency,Impedance,Phase Angle,Temperature (Dry Bath)
10.0,116900.5,-3.132995,67.1656
21.5,114609.6,-2.655176,67.1586
46.4,112858.3,-2.50847,67.168
100.0,109800.6,-3.599641,67.1707
215.4,107530.9,-2.788665,67.1697
464.2,106792.9,-4.749055,67.1635
1000.0,104517.4,-7.870858,67.1617
2154.4,101238.2,-14.59252,67.1723
4641.6,90284.73,-25.56449,67.1604
10000.0,69560.37,-41.55124,67.1619
