Frequency,Impedance,Phase Angle,Temperature (Dry Bath)
10.0,1534154.0,-16.25447,67.7024
21.5,1326984.0,-14.78533,67.713
46.4,1184836.0,-14.43202,67.6963
100.0,1155980.0,-15.48261,67.7066
215.4,1005600.0,-14.71159,67.702
464.2,918400.0,-28.89791,67.6858
1000.0,775226.2,-37.86961,67.6763
2154.4,493379.9,-58.31029,67.6744
4641.6,266274.6,-72.48981,67.6832
10000.0,140084.1,-86.94723,67.6617
