Frequency,Impedance,Phase Angle,Temperature (Dry Bath)
10.0,22485090.0,-20.93368,68.1853
21.5,20243080.0,-32.6454,68.2076
46.4,20301520.0,-47.49143,68.1889
100.0,4936288.0,-5.441659,68.1828
215.4,3551823.0,-66.91233,68.1894
464.2,2000063.0,-78.90725,68.1984
1000.0,1182707.0,-79.73577,68.1976
2154.4,670991.1,-93.06871,68.179
4641.6,309349.7,-91.57605,68.202
10000.0,141582.9,-94.14567,68.1799
