Frequency,Impedance,Phase Angle,Temperature (Dry Bath)
10.0,14508940.0,0.1740884,68.0742
21.5,20120400.0,-15.24902,68.0634
46.4,19605500.0,-47.57308,68.0702
100.0,3749525.0,-58.37159,68.0557
215.4,7359309.0,-67.12042,68.0823
464.2,2688611.0,-73.74782,68.0717
1000.0,1442129.0,-88.40989,68.0611
2154.4,707226.9,-84.92162,68.0598
4641.6,312597.5,-94.64893,68.0686
10000.0,139013.1,-94.9684,68.0678
