Frequency,Impedance,Phase Angle,Temperature (Dry Bath)
10.0,250792.9,-22.41955,66.5485
21.5,211614.5,-20.00574,66.5582
46.4,183320.1,-17.65424,66.5572
100.0,160286.4,-14.48062,66.5315
215.4,147356.9,41.09629,66.5544
464.2,131594.5,-15.35117,66.5531
1000.0,119237.4,-17.73722,66.541
2154.4,103927.3,-22.78675,66.5683
4641.6,84693.39,-31.78978,66.5431
10000.0,63127.53,-43.15419,66.5637
