Frequency,Impedance,Phase Angle,Temperature (Dry Bath)
10.0,1524220.0,-18.0279,67.1581
21.5,1341122.0,-16.82909,67.1476
46.4,1230353.0,-15.02472,67.1481
100.0,940973.6,-20.75414,67.1273
215.4,1043222.0,-4.871732,67.144
464.2,899713.6,-33.89135,67.1423
1000.0,713057.0,-40.89302,67.1346
2154.4,454794.9,-60.96062,67.1461
4641.6,219530.1,-74.46484,67.1418
10000.0,112960.7,-79.77615,67.1642
