Frequency,Impedance,Phase Angle,Temperature (Dry Bath)
10.0,18695910.0,-19.30984,68.0545
21.5,19232250.0,-12.24259,68.0493
46.4,21317410.0,-46.33423,68.0538
100.0,8517467.0,-91.76268,68.0468
215.4,6359494.0,-85.87942,68.0587
464.2,2772195.0,-88.34768,68.0545
1000.0,1600303.0,-80.11267,68.0406
2154.4,665176.1,-89.53782,68.0572
4641.6,311331.0,-92.80851,68.0639
10000.0,159526.2,-98.48339,68.0597
