Frequency,Impedance,Phase Angle,Temperature (Dry Bath)
10.0,340180.6,-22.08461,65.8422
21.544346900318832,289142.6,-22.32577,65.8562
46.41588833612777,229143.5,-20.91639,65.8487
100.0,179182.6,-37.62585,65.8546
215.44346900318823,202165.3,7.21577,65.8323
464.15888336127773,181978.9,-20.01967,65.8366
1000.0,146870.7,-27.0396,65.8436
2154.4346900318824,97173.79,-33.01505,65.8406
4641.588833612777,66591.1,-46.92545,65.8368
10000.0,48394.22,-54.67281,65.833
