Frequency,Impedance,Phase Angle,Temperature (Dry Bath)
10.0,1536583.0,-16.96844,67.9536
21.5,1392826.0,-15.73196,67.9451
46.4,1213171.0,-13.62908,67.9451
100.0,1014233.0,-5.281693,67.9425
215.4,1108581.0,-25.63209,67.93
464.2,909058.6,-25.88367,67.917
1000.0,647912.3,-38.85577,67.9321
2154.4,518804.3,-61.60194,67.9325
4641.6,259360.7,-72.95096,67.956
10000.0,133549.2,-90.9629,67.938
