Frequency,Impedance,Phase Angle,Temperature (Dry Bath)
10.0,29058170.0,8.136733,68.2085
21.5,18943890.0,-35.45636,68.2085
46.4,14115470.0,-46.86638,68.2085
100.0,5414517.0,-41.57518,68.2085
215.4,6596801.0,-70.58519,68.2085
464.2,2812796.0,-74.31714,68.2085
1000.0,1321718.0,-77.74998,68.2085
2154.4,675760.7,-91.93781,68.2085
4641.6,341885.5,-90.51057,68.2085
10000.0,164816.2,-92.32958,68.2085
