Frequency,Impedance,Phase Angle,Temperature (Dry Bath)
10.0,7448252.0,-18.71595,65.7642
21.544346900318832,4482941.0,-34.54044,65.7519
46.41588833612777,5365165.0,-3.223232,65.7496
100.0,320961.7,109.2383,65.7656
215.44346900318823,8827.823,-50.39052,65.7692
464.15888336127773,1185585.0,-41.36583,65.7513
1000.0,373752.0,-100.1836,65.7536
2154.4346900318824,244925.1,-91.99053,65.7529
4641.588833612777,169771.8,-91.51965,65.7478
10000.0,75254.47,-96.42454,65.7439
