Frequency,Impedance,Phase Angle,Temperature (Dry Bath)
10.0,174449.7,-12.52365,66.1575
21.544346900318832,158864.1,-12.19283,66.145
46.41588833612777,147359.6,-11.07053,66.165
100.0,99997.57,0.5786796,66.1515
215.44346900318823,137109.2,-4.407743,66.144
464.15888336127773,108196.4,-15.51858,66.1466
1000.0,123950.5,-6.248374,66.1417
2154.4346900318824,108571.7,-29.29528,66.1425
4641.588833612777,68606.56,-30.01624,66.1337
10000.0,49479.63,-55.29938,66.1396
