Frequency,Impedance,Phase Angle,Temperature (Dry Bath)
10.0,112089.1,-3.155425,67.0665
21.5,110003.9,-2.614511,67.0703
46.4,108329.7,-2.590272,67.0568
100.0,106856.5,-1.787396,67.0592
215.4,221158.0,12.68245,67.0566
464.2,103149.3,-5.181025,67.0496
1000.0,99813.67,-7.463492,67.0682
2154.4,95546.08,-13.65372,67.0634
4641.6,85692.3,-24.18214,67.0336
10000.0,68467.49,-41.3073,67.0503
