Frequency,Impedance,Phase Angle,Temperature (Dry Bath)
10.0,1501730.0,-18.80965,67.3075
21.5,1335105.0,-15.69498,67.3218
46.4,1209458.0,-14.98403,67.3084
100.0,1003554.0,-18.54069,67.3184
215.4,212772.1,97.98435,67.3094
464.2,881967.5,-28.71553,67.3135
1000.0,686855.4,-48.29214,67.3087
2154.4,470622.1,-57.83357,67.3104
4641.6,232464.4,-72.68225,67.3022
10000.0,115416.4,-78.90032,67.3003
