Frequency,Impedance,Phase Angle,Temperature (Dry Bath)
10.0,28994780.0,-28.99135,67.7766
21.5,30556140.0,-33.90131,67.7696
46.4,26563430.0,-47.53681,67.7647
100.0,4373032.0,-13.82062,67.7584
215.4,4923409.0,-77.79121,67.7654
464.2,2993674.0,-74.58892,67.7529
1000.0,1367889.0,-79.04144,67.7567
2154.4,589971.7,-86.96735,67.7576
4641.6,297306.2,-88.50091,67.7519
10000.0,141636.5,-92.59112,67.7494
