Frequency,Impedance,Phase Angle,Temperature (Dry Bath)
10.0,118078.8,-4.02162,67.2661
21.5,115357.4,-3.148556,67.2531
46.4,113460.5,-3.185451,67.2529
100.0,111446.7,-3.016019,67.2352
215.4,114471.6,-5.369391,67.23
464.2,108366.2,-5.41754,67.2171
1000.0,104537.2,-9.350538,67.236
2154.4,98977.19,-14.14433,67.2011
4641.6,91318.1,-23.59218,67.2233
10000.0,71782.18,-39.45741,67.244
