Frequency,Impedance,Phase Angle,Temperature (Dry Bath)
10.0,23060420.0,-22.0941,67.8684
21.5,25980150.0,-30.62229,67.8853
46.4,35390440.0,-50.61829,67.8859
100.0,7302437.0,-40.34203,67.8894
215.4,5152232.0,-76.83516,67.8918
464.2,2924827.0,-86.64617,67.8722
1000.0,1598289.0,-82.68211,67.8775
2154.4,676773.2,-100.0097,67.8775
4641.6,302300.4,-94.52213,67.8831
10000.0,151607.2,-95.90841,67.8893
