Frequency,Impedance,Phase Angle,Temperature (Dry Bath)
10.0,133401.6,-3.889325,67.3822
21.5,130545.8,-3.575822,67.3889
46.4,127243.3,-3.30053,67.3807
100.0,124121.3,-2.783832,67.3873
215.4,123746.0,-5.880239,67.3959
464.2,118799.6,-6.35007,67.3796
1000.0,114335.5,-10.2088,67.3841
2154.4,107908.3,-15.41854,67.3968
4641.6,96523.32,-27.79361,67.3877
10000.0,72551.61,-42.2178,67.3814
