Frequency,Impedance,Phase Angle,Temperature (Dry Bath)
10.0,233320.0,-22.55611,67.0383
21.5,197498.7,-20.12896,67.0389
46.4,171110.2,-17.58248,67.0372
100.0,146349.1,-15.79293,67.0453
215.4,142790.8,-11.91704,67.0296
464.2,125081.0,-13.70853,67.0397
1000.0,113165.5,-17.36382,67.035
2154.4,100951.5,-22.07602,67.0273
4641.6,83267.67,-30.84669,67.0288
10000.0,63254.83,-41.24255,67.0356
