Frequency,Impedance,Phase Angle,Temperature (Dry Bath)
10.0,106937.5,-14.75312,68.0325
21.5,96559.42,-12.83652,68.0185
46.4,88264.92,-11.42847,68.0032
100.0,79956.49,-9.847421,68.0223
215.4,75949.99,-10.14956,68.0245
464.2,72156.74,-9.703578,67.9962
1000.0,67942.53,-11.41656,68.0109
2154.4,61395.57,-14.98674,67.9885
4641.6,57593.42,-20.26349,68.0119
10000.0,50003.79,-32.27774,68.0194
