Frequency,Impedance,Phase Angle,Temperature (Dry Bath)
10.0,135156.7,-3.849688,67.1095
21.5,132158.3,-3.333651,67.1203
46.4,130477.2,-3.356816,67.1062
100.0,125420.8,-2.892007,67.0995
215.4,122283.1,-4.87828,67.1138
464.2,125533.0,-6.925763,67.1054
1000.0,117684.5,-9.941544,67.1
2154.4,109627.3,-16.67031,67.1162
4641.6,96782.33,-27.07285,67.1124
10000.0,75325.79,-43.16209,67.0982
