Frequency,Impedance,Phase Angle,Temperature (Dry Bath)
10.0,24054570.0,-22.57963,68.0527
21.5,40594210.0,-41.82823,68.0527
46.4,31282860.0,-44.93962,68.0527
100.0,9143642.0,-26.03267,68.0527
215.4,5423438.0,-99.67242,68.0527
464.2,2445106.0,-79.64331,68.0527
1000.0,1297785.0,-85.56744,68.0527
2154.4,687332.8,-87.0856,68.0527
4641.6,321298.7,-93.85262,68.0527
10000.0,138882.1,-96.87961,68.0527
