Frequency,Impedance,Phase Angle,Temperature (Dry Bath)
10.0,127580.4,-3.85126,67.2301
21.5,124832.9,-3.565216,67.2238
46.4,121819.7,-3.037145,67.2206
100.0,120943.1,-3.580915,67.2256
215.4,77173.18,13.79635,67.2392
464.2,113973.8,-6.266528,67.2413
1000.0,108781.2,-9.574825,67.2375
2154.4,102408.8,-15.73115,67.2519
4641.6,90484.7,-25.66571,67.2569
10000.0,70000.62,-40.73138,67.2532
