Frequency,Impedance,Phase Angle,Temperature (Dry Bath)
10.0,64001.04,-32.09948,67.0772
21.5,50131.15,-28.22416,67.089
46.4,41323.64,-24.47476,67.0828
100.0,35112.61,-20.67976,67.0924
215.4,30890.72,-17.64516,67.1009
464.2,27286.72,-15.15312,67.105
1000.0,24651.17,-13.05165,67.0922
2154.4,22538.4,-12.51808,67.0968
4641.6,20849.82,-13.21513,67.1057
10000.0,19232.95,-16.33516,67.107
