Frequency,Impedance,Phase Angle,Temperature (Dry Bath)
10.0,50711.88,-34.44302,67.1328
21.5,38767.59,-30.51954,67.1255
46.4,31157.19,-26.70435,67.1511
100.0,25946.0,-23.02687,67.1459
215.4,22390.5,-19.42225,67.1399
464.2,19832.82,-16.40234,67.1312
1000.0,17714.2,-14.14735,67.1556
2154.4,16212.07,-12.99164,67.1603
4641.6,14863.38,-12.60891,67.1388
10000.0,13725.81,-14.42286,67.1561
