Frequency,Impedance,Phase Angle,Temperature (Dry Bath)
10.0,24480030.0,-5.069994,67.4431
21.5,25896260.0,-47.47318,67.4494
46.4,10151840.0,-38.94544,67.4557
100.0,5811520.0,-66.2631,67.4531
215.4,671559.0,59.51002,67.4609
464.2,1922744.0,-79.05487,67.4779
1000.0,840074.5,-78.92965,67.4629
2154.4,445434.6,-82.75914,67.482
4641.6,226592.1,-82.20916,67.4797
10000.0,110593.8,-78.86051,67.4773
