Frequency,Impedance,Phase Angle,Temperature (Dry Bath)
10.0,18138460.0,-29.16537,68.1145
21.5,13771100.0,-38.42567,68.1266
46.4,14526660.0,-52.89211,68.1057
100.0,5271154.0,-57.03672,68.1249
215.4,4140897.0,-68.28557,68.117
464.2,2438038.0,-85.70906,68.1275
1000.0,1033577.0,-79.62058,68.1249
2154.4,540980.4,-86.11326,68.1216
4641.6,281547.6,-84.88358,68.1449
10000.0,130128.8,-91.63297,68.1292
