Frequency,Impedance,Phase Angle,Temperature (Dry Bath)
10.0,18524130.0,-12.89087,68.1276
21.5,16558080.0,-27.82879,68.1214
46.4,17575030.0,-39.91101,68.117
100.0,6573940.0,-46.80986,68.1278
215.4,6462486.0,-72.70721,68.114
464.2,2641319.0,-91.73228,68.1137
1000.0,1388475.0,-82.61603,68.1062
2154.4,701763.3,-84.37035,68.107
4641.6,296626.2,-92.09603,68.1208
10000.0,144257.9,-95.29681,68.1144
