Frequency,Impedance,Phase Angle,Temperature (Dry Bath)
10.0,55774.13,-33.13817,67.273
21.5,43055.44,-28.96813,67.2704
46.4,35224.09,-25.08193,67.2757
100.0,30063.11,-21.34075,67.2632
215.4,26054.58,-17.80958,67.2555
464.2,23411.65,-14.88732,67.2624
1000.0,21172.61,-12.82314,67.2688
2154.4,19456.78,-11.87789,67.2664
4641.6,18015.99,-11.84493,67.2789
10000.0,16722.92,-14.40724,67.261
