Frequency,Impedance,Phase Angle,Temperature (Dry Bath)
10.0,249062.4,-23.21407,67.338
21.5,208812.7,-20.93287,67.3409
46.4,179364.3,-18.56219,67.3441
100.0,159286.1,-16.0088,67.3361
215.4,145091.6,-14.79406,67.3482
464.2,128332.3,-16.19726,67.3491
1000.0,113262.6,-17.54446,67.3367
2154.4,100331.4,-22.87511,67.3532
4641.6,83447.71,-31.51625,67.3317
10000.0,63016.52,-42.24677,67.3443
