Frequency,Impedance,Phase Angle,Temperature (Dry Bath)
10.0,20785000.0,-15.64659,67.3221
21.5,29214090.0,-25.6857,67.3072
46.4,18071710.0,-48.42355,67.3114
100.0,5801065.0,-64.90631,67.321
215.4,2221927.0,-107.3755,67.3101
464.2,1806636.0,-95.88397,67.3257
1000.0,849840.5,-85.45916,67.3072
2154.4,510207.7,-84.82386,67.3024
4641.6,254271.1,-90.51406,67.3053
10000.0,127682.4,-84.14672,67.2827
