Frequency,Impedance,Phase Angle,Temperature (Dry Bath)
10.0,69855.27,-37.17527,67.9906
21.5,52763.14,-34.08239,67.9995
46.4,40760.37,-30.0188,67.9957
100.0,32564.36,-25.46156,67.9949
215.4,26915.33,-20.97656,67.995
464.2,23238.12,-18.13386,67.9843
1000.0,20425.54,-14.70365,67.9918
2154.4,18783.73,-13.0122,67.9865
4641.6,16752.68,-12.81922,67.974
10000.0,16037.41,-16.79585,67.9841
