Frequency,Impedance,Phase Angle,Temperature (Dry Bath)
10.0,1634332.0,-19.23706,67.2483
21.5,1458299.0,-17.18739,67.2423
46.4,1342721.0,-16.04043,67.2269
100.0,1137248.0,-21.4116,67.2417
215.4,1178492.0,-18.02835,67.2416
464.2,997333.0,-28.92567,67.2405
1000.0,751475.5,-42.89537,67.2425
2154.4,475506.4,-58.02453,67.2407
4641.6,250477.9,-72.2826,67.2381
10000.0,114263.8,-75.76106,67.2549
