Frequency,Impedance,Phase Angle,Temperature (Dry Bath)
10.0,20584470.0,-14.4966,68.1386
21.5,16815930.0,-20.19142,68.1406
46.4,26403850.0,-40.83473,68.1269
100.0,3583272.0,-23.77882,68.1354
215.4,3879236.0,-91.55468,68.1368
464.2,2020025.0,-56.9667,68.1428
1000.0,1487347.0,-83.36557,68.1541
2154.4,621303.3,-86.93991,68.1264
4641.6,315361.1,-93.70676,68.1316
10000.0,143389.8,-93.9402,68.1294
