Frequency,Impedance,Phase Angle,Temperature (Dry Bath)
10.0,2965457.0,1.938364,70.6075
21.544346900318832,6777761.0,-8.4023,70.5978
46.41588833612777,6813847.0,-10.161,70.6196
100.0,730769.8,35.64223,70.6116
215.44346900318823,806601.3,-57.94457,70.6151
464.15888336127773,1092965.0,-71.57893,70.6185
1000.0,305152.1,-118.2072,70.6059
2154.4346900318824,265577.5,-82.21742,70.6092
4641.588833612777,152731.5,-76.47718,70.6075
10000.0,67861.53,-92.56207,70.6051
