Frequency,Impedance,Phase Angle,Temperature (Dry Bath)
10.0,5610915.0,-16.55478,65.7137
21.544346900318832,4713004.0,-16.1229,65.6984
46.41588833612777,3613987.0,-30.66383,65.6872
100.0,1976256.0,42.87097,65.6829
215.44346900318823,562310.9,-116.5808,65.6977
464.15888336127773,684614.2,-20.47033,65.6915
1000.0,537134.9,-11.9616,65.7057
2154.4346900318824,203851.3,-90.23493,65.6975
4641.588833612777,126412.4,-76.06614,65.6875
10000.0,78085.14,-85.86037,65.6936
