Frequency,Impedance,Phase Angle,Temperature (Dry Bath)
10.0,21940000.0,-29.67158,67.128
21.5,25309300.0,-23.79848,67.1275
46.4,17631610.0,-53.69196,67.1138
100.0,4068170.0,-55.59994,67.117
215.4,101826.8,-19.11696,67.1256
464.2,3576400.0,-113.63,67.0985
1000.0,1255585.0,-77.26802,67.1188
2154.4,518673.4,-89.1805,67.1171
4641.6,253544.4,-85.66942,67.1161
10000.0,122880.0,-84.56511,67.1232
