Frequency,Impedance,Phase Angle,Temperature (Dry Bath)
10.0,108361.2,-14.99518,68.02
21.5,97918.49,-13.01568,68.0148
46.4,89334.35,-11.67928,68.0385
100.0,81682.23,-9.425722,68.0222
215.4,76148.35,-9.563548,68.0226
464.2,72845.78,-10.3429,68.0289
1000.0,67438.46,-11.2499,68.0253
2154.4,62205.64,-14.07036,68.0221
4641.6,57711.77,-21.57129,68.0136
10000.0,51683.9,-32.40727,68.0277
