Frequency,Impedance,Phase Angle,Temperature (Dry Bath)
10.0,223761.4,-23.19471,67.1505
21.5,188151.8,-20.33978,67.1453
46.4,162803.6,-17.32071,67.1468
100.0,146736.2,-13.90979,67.1382
215.4,137506.9,-12.42984,67.1292
464.2,119254.1,-14.85351,67.1457
1000.0,108267.1,-16.24404,67.1555
2154.4,96451.25,-22.16287,67.1602
4641.6,80292.75,-30.22243,67.1514
10000.0,61484.98,-41.39567,67.1344
