Frequency,Impedance,Phase Angle,Temperature (Dry Bath)
10.0,22860110.0,-17.28901,68.3
21.5,18629590.0,-32.80844,68.2822
46.4,24856500.0,-48.14297,68.2963
100.0,7119138.0,-19.15564,68.3186
215.4,7098074.0,-80.77295,68.2963
464.2,3368628.0,-86.0492,68.3056
1000.0,1431770.0,-87.21789,68.2833
2154.4,741783.1,-95.92296,68.3
4641.6,321783.4,-86.76584,68.2934
10000.0,150150.6,-98.48029,68.2837
