Frequency,Impedance,Phase Angle,Temperature (Dry Bath)
10.0,149115.6,-4.792564,67.9031
21.5,144476.8,-4.211702,67.9143
46.4,140990.7,-3.720608,67.9096
100.0,138504.4,-4.288097,67.8969
215.4,137183.9,-5.221821,67.8932
464.2,130621.9,-6.82217,67.8906
1000.0,124564.5,-10.14834,67.884
2154.4,120050.8,-15.65283,67.8787
4641.6,108783.7,-27.23701,67.8935
10000.0,87357.77,-49.9575,67.8751
