Frequency,Impedance,Phase Angle,Temperature (Dry Bath)
10.0,3521344.0,-2.213543,71.499
21.544346900318832,4250232.0,-0.2275257,71.4928
46.41588833612777,4980024.0,-13.22872,71.5129
100.0,1088704.0,-0.3096231,71.5099
215.44346900318823,705663.6,171.4051,71.4978
464.15888336127773,465833.2,-91.8233,71.4981
1000.0,620720.0,-48.61027,71.5138
2154.4346900318824,449596.4,-45.45607,71.4982
4641.588833612777,259026.9,-110.5742,71.4969
10000.0,117908.7,-99.14317,71.5098
