Frequency,Impedance,Phase Angle,Temperature (Dry Bath)
10.0,4765397.0,3.62082,72.1398
21.544346900318832,4082320.0,-11.22298,72.1575
46.41588833612777,3603780.0,-15.74839,72.1505
100.0,668645.9,88.0418,72.1524
215.44346900318823,294826.0,64.34529,72.1548
464.15888336127773,7665065.0,116.3532,72.1432
1000.0,435544.3,-121.6148,72.1533
2154.4346900318824,696086.4,97.19983,72.1543
4641.588833612777,561632.9,-152.768,72.1508
10000.0,120079.9,-85.80605,72.1373
