Frequency,Impedance,Phase Angle,Temperature (Dry Bath)
10.0,132691.9,-18.60155,67.9709
21.5,115747.2,-16.11178,67.9721
46.4,103891.0,-14.27254,67.9684
100.0,92190.62,-12.53806,67.9537
215.4,85963.8,-10.52745,67.9525
464.2,80899.18,-10.22045,67.9608
1000.0,74822.9,-12.41905,67.9654
2154.4,70632.29,-17.35555,67.9568
4641.6,63379.54,-23.25464,67.9649
10000.0,52913.48,-34.85181,67.9702
