Frequency,Impedance,Phase Angle,Temperature (Dry Bath)
10.0,168046.3,-21.83158,67.7201
21.5,142963.8,-18.82409,67.7204
46.4,126091.7,-16.23365,67.7147
100.0,111723.9,-14.97176,67.721
215.4,101829.7,-12.19541,67.704
464.2,95814.29,-12.78023,67.721
1000.0,85253.69,-14.1178,67.7047
2154.4,78574.92,-18.06838,67.7098
4641.6,66207.84,-24.54869,67.7209
10000.0,60122.69,-37.99897,67.7134
