Frequency,Impedance,Phase Angle,Temperature (Dry Bath)
10.0,2059776.0,-12.64004,68.146
21.5,2014161.0,-13.22857,68.1353
46.4,1859052.0,-12.67378,68.1278
100.0,1354321.0,-17.61095,68.1341
215.4,1314873.0,-25.41508,68.1298
464.2,1335743.0,-32.9267,68.1382
1000.0,973352.2,-48.21749,68.1338
2154.4,563280.5,-61.6099,68.1279
4641.6,299805.3,-77.31182,68.1338
10000.0,141598.1,-90.14707,68.1439
