Frequency,Impedance,Phase Angle,Temperature (Dry Bath)
10.0,4922251.0,7.716586,71.5076
21.544346900318832,6800653.0,-20.7527,71.4977
46.41588833612777,4406571.0,-27.28104,71.4928
100.0,266337.1,-27.88668,71.5021
215.44346900318823,495296.4,-45.95876,71.4884
464.15888336127773,718018.4,5.819026,71.5009
1000.0,617219.9,92.62478,71.4928
2154.4346900318824,293206.4,-37.66961,71.5003
4641.588833612777,109050.8,-79.53446,71.5079
10000.0,58843.15,-85.88187,71.5039
