Frequency,Impedance,Phase Angle,Temperature (Dry Bath)
10.0,31520240.0,-15.00996,67.4212
21.5,19749260.0,-29.37904,67.4052
46.4,16078480.0,-55.32627,67.4157
100.0,8268501.0,15.16365,67.4195
215.4,306064.4,-66.02196,67.4175
464.2,2235879.0,-112.185,67.4211
1000.0,1097159.0,-82.13247,67.4314
2154.4,604427.7,-88.87633,67.3997
4641.6,266269.5,-87.28198,67.393
10000.0,128103.1,-86.97509,67.4135
