Frequency,Impedance,Phase Angle,Temperature (Dry Bath)
10.0,1562762.0,-19.00624,67.0414
21.5,1401156.0,-17.38281,67.0332
46.4,1258473.0,-15.7454,67.0331
100.0,929800.3,-12.4769,67.024
215.4,841368.8,-34.27287,67.04
464.2,835564.4,-27.21736,67.0199
1000.0,650530.6,-49.30441,67.029
2154.4,410386.6,-59.38623,67.0306
4641.6,229491.1,-74.40387,67.0421
10000.0,110728.4,-78.72578,67.0475
