Frequency,Impedance,Phase Angle,Temperature (Dry Bath)
10.0,4906348.0,-3.648798,65.7912
21.544346900318832,7098259.0,-8.484878,65.7957
46.41588833612777,4627586.0,16.06098,65.7899
100.0,985577.7,33.57807,65.7936
215.44346900318823,15857.77,-104.0112,65.7737
464.15888336127773,1517104.0,-140.9938,65.7834
1000.0,1842121.0,-48.49018,65.7726
2154.4346900318824,302567.7,-69.00272,65.7638
4641.588833612777,136046.7,-88.93676,65.7971
10000.0,61139.22,-90.85289,65.7862
