Frequency,Impedance,Phase Angle,Temperature (Dry Bath)
10.0,30338860.0,-10.62091,67.2679
21.5,24513940.0,-20.93815,67.2584
46.4,14422230.0,-43.29874,67.2713
100.0,3041356.0,-54.46849,67.2546
215.4,110654.3,-94.63142,67.272
464.2,3275173.0,-124.5696,67.2624
1000.0,1405748.0,-83.9502,67.2648
2154.4,538206.1,-84.72394,67.2354
4641.6,266622.6,-87.20482,67.2676
10000.0,128120.9,-86.80201,67.2523
