Frequency,Impedance,Phase Angle,Temperature (Dry Bath)
10.0,51240.96,-34.47426,67.4105
21.5,39147.24,-30.53922,67.419
46.4,31397.52,-26.47851,67.4275
100.0,26370.52,-22.73243,67.4123
215.4,20872.83,-23.23242,67.4169
464.2,20193.73,-16.16453,67.4151
1000.0,18073.97,-13.77744,67.4069
2154.4,16572.21,-12.58414,67.4157
4641.6,15193.67,-12.27682,67.4174
10000.0,14060.08,-14.19538,67.4022
