Frequency,Impedance,Phase Angle,Temperature (Dry Bath)
10.0,1371853.0,-14.1618,68.1174
21.5,1289621.0,-13.23291,68.118
46.4,1276059.0,-13.55939,68.1152
100.0,1035169.0,-9.342361,68.1121
215.4,1018160.0,-17.97123,68.107
464.2,939980.2,-21.14909,68.1065
1000.0,848434.9,-40.30278,68.1118
2154.4,505264.3,-57.24076,68.1026
4641.6,285733.4,-76.40431,68.1121
10000.0,131094.5,-87.54583,68.1122
