Frequency,Impedance,Phase Angle,Temperature (Dry Bath)
10.0,23923760.0,-19.5277,68.2382
21.5,27873570.0,-10.98196,68.2512
46.4,29057240.0,-32.20999,68.2413
100.0,7440841.0,-27.11087,68.2521
215.4,6054707.0,-98.19554,68.2372
464.2,5198389.0,-81.64224,68.237
1000.0,1480178.0,-90.55564,68.2317
2154.4,682012.7,-85.58485,68.2362
4641.6,316312.3,-90.64795,68.2429
10000.0,145162.0,-93.01757,68.2345
