Frequency,Impedance,Phase Angle,Temperature (Dry Bath)
10.0,5711545.0,-14.27343,65.7754
21.544346900318832,5244150.0,-16.95429,65.7747
46.41588833612777,4838363.0,-14.0765,65.7705
100.0,767834.2,-66.89065,65.7626
215.44346900318823,17962.43,104.0169,65.7795
464.15888336127773,808258.3,-79.9413,65.7667
1000.0,541625.2,-44.97317,65.7744
2154.4346900318824,202777.0,-87.71635,65.7762
4641.588833612777,225157.5,-84.38768,65.7741
10000.0,73665.76,-83.51959,65.7869
