Frequency,Impedance,Phase Angle,Temperature (Dry Bath)
10.0,217238.9,-23.14966,67.2985
21.5,182633.4,-20.27435,67.3071
46.4,158521.5,-17.64947,67.2877
100.0,137297.8,-15.37763,67.2967
215.4,159130.9,-52.83425,67.2904
464.2,117549.2,-14.46105,67.2995
1000.0,104509.4,-15.70959,67.2952
2154.4,93647.77,-21.11087,67.2936
4641.6,80403.21,-29.87536,67.2972
10000.0,59766.11,-41.22889,67.3048
