Frequency,Impedance,Phase Angle,Temperature (Dry Bath)
10.0,39084190.0,-31.04991,67.2382
21.5,20512590.0,-61.02294,67.2354
46.4,26797080.0,-20.02429,67.2387
100.0,2945962.0,-13.23305,67.2395
215.4,667046.7,-58.01995,67.2465
464.2,1644080.0,-82.64331,67.2559
1000.0,844039.6,-84.55644,67.2573
2154.4,434943.0,-80.32432,67.2501
4641.6,217995.8,-79.37649,67.2615
10000.0,110429.0,-79.31545,67.2447
