Frequency,Impedance,Phase Angle,Temperature (Dry Bath)
10.0,20424860.0,-13.03875,67.9962
21.5,15424090.0,-18.77562,67.9962
46.4,17419920.0,-54.6865,67.9962
100.0,4606334.0,-34.47976,67.9962
215.4,6376884.0,-75.24509,67.9962
464.2,2542813.0,-82.519,67.9962
1000.0,1307747.0,-84.5814,67.9962
2154.4,687963.0,-84.38724,67.9962
4641.6,325888.6,-88.56599,67.9962
10000.0,151038.9,-99.57814,67.9962
