Frequency,Impedance,Phase Angle,Temperature (Dry Bath)
10.0,1008696.0,-1.037252,70.9161
21.544346900318832,922649.6,-12.8607,70.9359
46.41588833612777,909120.9,-7.445061,70.9164
100.0,504791.4,82.35917,70.9398
215.44346900318823,466676.4,64.71285,70.9272
464.15888336127773,284562.9,-94.359,70.9213
1000.0,411922.8,-163.5994,70.9348
2154.4346900318824,1751136.0,-104.7462,70.9362
4641.588833612777,445586.2,-51.41239,70.9279
10000.0,117880.5,-74.65089,70.9272
