Frequency,Impedance,Phase Angle,Temperature (Dry Bath)
10.0,2177685.0,-9.001005,68.3094
21.5,2060873.0,-11.4764,68.3094
46.4,2004453.0,-15.23486,68.3094
100.0,1802141.0,-28.46114,68.3094
215.4,1582811.0,-17.4861,68.3094
464.2,1299776.0,-39.08501,68.3094
1000.0,1031130.0,-43.85077,68.3094
2154.4,598253.7,-59.43391,68.3094
4641.6,321705.8,-78.42375,68.3094
10000.0,157460.3,-89.74885,68.3094
