Frequency,Impedance,Phase Angle,Temperature (Dry Bath)
10.0,108243.1,-3.082132,66.9652
21.5,106082.6,-2.66878,66.9775
46.4,104613.3,-2.56316,66.9818
100.0,103621.6,-3.05249,66.9838
215.4,101261.1,-5.081174,66.9856
464.2,100186.1,-4.459499,66.9888
1000.0,96961.58,-7.728804,66.9911
2154.4,92533.12,-13.36223,66.9619
4641.6,84140.08,-23.73114,66.9773
10000.0,66833.03,-39.65989,66.9767
