Frequency,Impedance,Phase Angle,Temperature (Dry Bath)
10.0,4229916.0,15.77953,71.4445
21.544346900318832,6006997.0,-2.148347,71.4371
46.41588833612777,3104156.0,-26.23484,71.4475
100.0,332875.7,8.359698,71.4486
215.44346900318823,1227303.0,-49.73119,71.4403
464.15888336127773,3236721.0,-95.40673,71.4422
1000.0,3210513.0,139.5365,71.4348
2154.4346900318824,206612.2,-98.68013,71.4422
4641.588833612777,142027.4,-89.88458,71.4449
10000.0,68178.49,-94.56176,71.4419
