Frequency,Impedance,Phase Angle,Temperature (Dry Bath)
10.0,134165.6,-3.977319,67.1559
21.5,131291.0,-3.547461,67.1507
46.4,128088.7,-3.148842,67.1582
100.0,126099.1,-3.280219,67.1444
215.4,126608.4,-3.107563,67.1406
464.2,123011.9,-6.624337,67.1534
1000.0,113685.0,-10.04736,67.1432
2154.4,110640.8,-16.36461,67.1543
4641.6,96853.73,-26.08867,67.1607
10000.0,73783.29,-43.64022,67.1548
