Frequency,Impedance,Phase Angle,Temperature (Dry Bath)
10.0,173333.1,-11.91272,65.7282
21.544346900318832,157203.6,-11.05654,65.7232
46.41588833612777,145074.5,-10.49394,65.7341
100.0,112088.4,-15.65378,65.7237
215.44346900318823,24538.66,-173.3566,65.7326
464.15888336127773,119171.0,-16.4955,65.7433
1000.0,105933.5,-26.29805,65.7621
2154.4346900318824,91208.13,-17.25684,65.7509
4641.588833612777,78594.13,-30.33971,65.7435
10000.0,50441.73,-54.17311,65.7444
