Frequency,Impedance,Phase Angle,Temperature (Dry Bath)
10.0,1630081.0,-19.54916,67.4613
21.5,1420901.0,-16.64489,67.4555
46.4,1315184.0,-15.67644,67.4557
100.0,1188928.0,-21.96837,67.4533
215.4,1113648.0,-7.049911,67.4585
464.2,945769.7,-22.28918,67.4487
1000.0,783179.7,-39.37681,67.4615
2154.4,457289.0,-55.73713,67.4466
4641.6,258876.0,-72.751,67.4627
10000.0,130463.0,-77.36584,67.446
