Frequency,Impedance,Phase Angle,Temperature (Dry Bath)
10.0,234689.3,-22.92432,67.0599
21.5,197602.0,-20.39771,67.0414
46.4,171114.2,-17.66143,67.0515
100.0,150054.3,-14.95833,67.0584
215.4,88507.47,0.5089971,67.0411
464.2,126939.7,-14.73628,67.0508
1000.0,113814.2,-17.15933,67.0513
2154.4,99486.63,-23.06247,67.045
4641.6,82802.67,-30.95195,67.0595
10000.0,61425.27,-43.15449,67.0478
