Frequency,Impedance,Phase Angle,Temperature (Dry Bath)
10.0,1521138.0,-18.67419,67.1041
21.5,1358536.0,-15.82076,67.1021
46.4,1223650.0,-15.34831,67.1101
100.0,953922.0,-18.262,67.1044
215.4,959323.8,-13.06027,67.1114
464.2,878083.2,-23.85681,67.1173
1000.0,628750.5,-48.29804,67.1079
2154.4,429459.2,-63.42235,67.112
4641.6,223733.1,-76.73612,67.1071
10000.0,110716.4,-78.6057,67.1082
