Frequency,Impedance,Phase Angle,Temperature (Dry Bath)
10.0,4563557.0,-11.14019,66.3853
21.544346900318832,3923982.0,-17.31452,66.3798
46.41588833612777,6835736.0,-6.676008,66.3821
100.0,6222486.0,-108.1394,66.387
215.44346900318823,1741198.0,-16.40364,66.4143
464.15888336127773,2777689.0,91.2102,66.3811
1000.0,8862094.0,2.335064,66.395
2154.4346900318824,2155477.0,-78.88306,66.397
4641.588833612777,4341723.0,-51.85377,66.383
10000.0,2726064.0,-44.55149,66.397
