Frequency,Impedance,Phase Angle,Temperature (Dry Bath)
10.0,5179384.0,-32.21615,71.4068
21.544346900318832,5061870.0,-21.64527,71.3918
46.41588833612777,5135355.0,-20.07524,71.3994
100.0,991010.8,115.5294,71.3968
215.44346900318823,1193648.0,-75.07966,71.3886
464.15888336127773,588749.9,-89.15342,71.3872
1000.0,506161.2,1.19803,71.3916
2154.4346900318824,223763.3,-87.6974,71.3897
4641.588833612777,155355.1,-99.99424,71.396
10000.0,73462.87,-81.30182,71.3927
