Frequency,Impedance,Phase Angle,Temperature (Dry Bath)
10.0,28994660.0,-14.67149,68.085
21.5,20262690.0,-37.4598,68.0807
46.4,26004860.0,-55.00255,68.0887
100.0,6570411.0,-27.85724,68.0931
215.4,4256795.0,-73.29737,68.0948
464.2,2083385.0,-73.55418,68.1074
1000.0,1301319.0,-78.61894,68.0901
2154.4,540888.7,-83.06001,68.0994
4641.6,274916.4,-84.07044,68.0994
10000.0,131891.5,-92.64072,68.0888
