Frequency,Impedance,Phase Angle,Temperature (Dry Bath)
10.0,22902990.0,-20.35277,68.1356
21.5,31017720.0,-44.24138,68.1422
46.4,22941740.0,-50.5383,68.1426
100.0,6143042.0,-64.22367,68.1509
215.4,7196458.0,-96.75545,68.1459
464.2,2985949.0,-85.84997,68.1662
1000.0,1278058.0,-82.22032,68.1422
2154.4,624780.5,-86.54634,68.1593
4641.6,290702.4,-92.14687,68.1561
10000.0,142843.1,-97.12563,68.1546
