Frequency,Impedance,Phase Angle,Temperature (Dry Bath)
10.0,17733640.0,0.3678042,67.992
21.5,24214960.0,-23.8559,68.0052
46.4,22547070.0,-46.66472,68.0023
100.0,7830019.0,-102.4156,67.9911
215.4,6355171.0,-103.0665,68.0234
464.2,4253949.0,-84.45637,68.01
1000.0,1426505.0,-90.96311,67.9937
2154.4,684050.0,-92.62356,67.9977
4641.6,307520.4,-92.05874,67.9903
10000.0,153720.4,-93.91339,67.9899
