Frequency,Impedance,Phase Angle,Temperature (Dry Bath)
10.0,611789.3,-2.512081,71.6704
21.544346900318832,639729.7,-6.742011,71.6706
46.41588833612777,566554.7,-4.84711,71.6754
100.0,379064.6,-40.05233,71.6738
215.44346900318823,730955.3,-33.10603,71.6795
464.15888336127773,986531.1,-21.77755,71.6679
1000.0,638134.3,-46.8074,71.6755
2154.4346900318824,245151.7,-65.00491,71.6696
4641.588833612777,197712.9,-68.3853,71.6714
10000.0,96028.52,-66.12699,71.6858
