Frequency,Impedance,Phase Angle,Temperature (Dry Bath)
10.0,110684.8,-15.2662,67.9743
21.5,98694.73,-13.2081,67.9618
46.4,90115.28,-11.7714,67.9845
100.0,82046.68,-11.35959,67.9804
215.4,76421.6,-9.251692,67.9751
464.2,73412.59,-8.724523,67.9848
1000.0,68709.16,-11.47764,67.9689
2154.4,64973.23,-15.69262,67.9823
4641.6,59599.7,-21.81395,67.9738
10000.0,51542.11,-31.29615,67.9738
