Frequency,Impedance,Phase Angle,Temperature (Dry Bath)
10.0,4524464.0,-16.45114,65.7725
21.544346900318832,3875239.0,7.449684,65.7902
46.41588833612777,4376109.0,-35.54423,65.771
100.0,1176417.0,-137.1844,65.7641
215.44346900318823,148522.1,-8.077816,65.7698
464.15888336127773,933400.3,-65.63865,65.7657
1000.0,910830.3,-47.06016,65.7741
2154.4346900318824,235664.3,-65.32949,65.7822
4641.588833612777,162433.9,-87.17056,65.7564
10000.0,64360.23,-86.17717,65.7809
