Frequency,Impedance,Phase Angle,Temperature (Dry Bath)
10.0,120976.2,-4.194707,67.0552
21.5,118332.5,-3.619294,67.0536
46.4,116720.7,-3.677274,67.0731
100.0,113186.0,-6.256879,67.0534
215.4,112554.4,-5.777789,67.0584
464.2,107688.8,-6.034468,67.0514
1000.0,107068.6,-9.533186,67.0497
2154.4,100627.8,-14.55251,67.0566
4641.6,90018.15,-24.33116,67.0504
10000.0,69995.82,-41.25277,67.0537
