Frequency,Impedance,Phase Angle,Temperature (Dry Bath)
10.0,4147516.0,-20.39984,65.8395
21.544346900318832,3539675.0,-20.9761,65.8437
46.41588833612777,4150338.0,-38.88167,65.8441
100.0,1243935.0,112.509,65.8443
215.44346900318823,6443.952,-129.593,65.808
464.15888336127773,921302.8,-131.8553,65.8296
1000.0,461367.6,-98.05097,65.8354
2154.4346900318824,399245.4,-51.27412,65.8275
4641.588833612777,103751.8,-84.38187,65.8231
10000.0,56086.82,-83.72556,65.832
