Frequency,Impedance,Phase Angle,Temperature (Dry Bath)
10.0,5022468.0,-5.102725,71.5108
21.544346900318832,3862535.0,-8.893346,71.5014
46.41588833612777,5492613.0,-14.08746,71.5092
100.0,1631711.0,-69.16671,71.5041
215.44346900318823,1004759.0,-99.83142,71.5021
464.15888336127773,832099.4,-92.17431,71.5019
1000.0,369862.1,-80.3349,71.496
2154.4346900318824,361297.4,-68.28911,71.5091
4641.588833612777,188658.3,-72.57543,71.519
10000.0,109398.1,-85.36787,71.5065
