Frequency,Impedance,Phase Angle,Temperature (Dry Bath)
10.0,117102.3,-3.143523,67.2889
21.5,114988.5,-2.588485,67.2893
46.4,113160.8,-2.486145,67.2941
100.0,108774.0,-3.561528,67.2854
215.4,109293.8,-2.739173,67.2937
464.2,107991.1,-5.420505,67.2845
1000.0,104707.6,-8.398761,67.2842
2154.4,99567.27,-14.20315,67.3048
4641.6,90935.54,-25.5117,67.3016
10000.0,69915.37,-42.26057,67.2892
