Frequency,Impedance,Phase Angle,Temperature (Dry Bath)
10.0,42039930.0,-10.01984,67.9587
21.5,42997950.0,-19.32357,67.9683
46.4,26243500.0,-49.59405,67.9558
100.0,6049952.0,-25.15716,67.958
215.4,5063118.0,-57.96664,67.9651
464.2,1794710.0,-80.27019,67.9741
1000.0,1303119.0,-81.40939,67.9613
2154.4,537703.1,-83.09128,67.9491
4641.6,320179.4,-94.26333,67.9566
10000.0,142402.9,-93.01795,67.9457
