Frequency,Impedance,Phase Angle,Temperature (Dry Bath)
10.0,1436587.0,-13.54526,68.3001
21.5,1256523.0,-13.54179,68.2969
46.4,1114112.0,-14.06755,68.2976
100.0,984726.1,-13.98827,68.3123
215.4,897865.1,-17.10281,68.2977
464.2,770811.6,-21.38508,68.2845
1000.0,688955.6,-33.11107,68.2807
2154.4,489680.7,-56.58909,68.3019
4641.6,254338.9,-72.17869,68.2889
10000.0,147933.2,-88.05303,68.289
