Frequency,Impedance,Phase Angle,Temperature (Dry Bath)
10.0,2403966.0,-12.66001,66.3289
21.544346900318832,1688338.0,-14.40894,66.3289
46.41588833612777,1541922.0,-18.55611,66.306
100.0,726347.4,-35.40934,66.3157
215.44346900318823,478753.5,72.20515,66.3356
464.15888336127773,844848.1,5.59923,66.3241
1000.0,574350.8,-58.65537,66.3476
2154.4346900318824,221509.3,-105.6575,66.325
4641.588833612777,124089.0,-88.297,66.3527
10000.0,73441.96,-85.75006,66.3262
