Frequency,Impedance,Phase Angle,Temperature (Dry Bath)
10.0,4064372.0,-15.02136,71.3238
21.544346900318832,3363516.0,-16.02172,71.3108
46.41588833612777,2930714.0,28.21664,71.317
100.0,443155.7,-89.87262,71.3312
215.44346900318823,31270.78,-121.5751,71.3046
464.15888336127773,910574.3,-73.96203,71.3125
1000.0,337626.4,-138.4,71.31
2154.4346900318824,444985.2,-115.8889,71.3208
4641.588833612777,128781.6,-82.39322,71.3083
10000.0,77116.36,-99.05133,71.3151
