Frequency,Impedance,Phase Angle,Temperature (Dry Bath)
10.0,105938.8,-3.12663,67.0357
21.5,104023.2,-2.614401,67.0249
46.4,102299.0,-2.568697,67.012
100.0,100455.7,-3.543096,67.016
215.4,99523.86,-2.622119,67.0327
464.2,98218.29,-6.298586,67.0291
1000.0,95527.35,-7.996365,67.0386
2154.4,90873.83,-12.80371,67.0399
4641.6,82997.8,-22.64169,67.0165
10000.0,66551.23,-39.63127,67.0241
