Frequency,Impedance,Phase Angle,Temperature (Dry Bath)
10.0,31909060.0,-31.75964,67.0489
21.5,27627230.0,-22.72671,67.0405
46.4,16245740.0,-50.56605,67.0528
100.0,2922325.0,-109.2717,67.0634
215.4,6246023.0,75.05203,67.0557
464.2,2185997.0,-89.96205,67.058
1000.0,975904.9,-83.80053,67.0592
2154.4,524915.4,-89.34634,67.0347
4641.6,254696.4,-84.97917,67.0361
10000.0,132187.6,-86.47585,67.0491
