Frequency,Impedance,Phase Angle,Temperature (Dry Bath)
10.0,131892.7,-4.066552,67.278
21.5,129117.7,-3.403213,67.2868
46.4,127522.8,-3.573289,67.2733
100.0,124342.2,-1.810855,67.2718
215.4,76025.48,3.212607,67.2557
464.2,120171.9,-8.055722,67.2732
1000.0,115280.2,-10.00025,67.2593
2154.4,110616.9,-15.17793,67.2594
4641.6,95190.62,-27.03676,67.2709
10000.0,73262.41,-43.77692,67.2718
