Frequency,Impedance,Phase Angle,Temperature (Dry Bath)
10.0,23550650.0,-0.5156703,67.7151
21.5,52006930.0,-38.94888,67.6939
46.4,31870020.0,-44.31682,67.6861
100.0,8209033.0,-64.77879,67.6949
215.4,3376636.0,-92.38062,67.6952
464.2,2396782.0,-79.53958,67.6797
1000.0,1369506.0,-80.0601,67.686
2154.4,670179.6,-91.14752,67.6829
4641.6,306823.0,-90.81067,67.6744
10000.0,141992.3,-93.99193,67.6782
