Frequency,Impedance,Phase Angle,Temperature (Dry Bath)
10.0,969090.1,-7.310206,71.1684
21.544346900318832,1016128.0,-11.30667,71.1769
46.41588833612777,864279.7,-7.040169,71.1864
100.0,334769.9,-46.88021,71.1918
215.44346900318823,616818.5,15.7161,71.1802
464.15888336127773,7976946.0,-159.1097,71.1688
1000.0,388451.9,-20.86355,71.1922
2154.4346900318824,276105.0,-25.26488,71.1765
4641.588833612777,185554.2,-73.19465,71.1846
10000.0,107776.1,-73.3953,71.1822
