Frequency,Impedance,Phase Angle,Temperature (Dry Bath)
10.0,15117150.0,-21.83285,68.2762
21.5,17642890.0,-30.03068,68.2754
46.4,16515480.0,-53.03465,68.2842
100.0,4625845.0,-33.44038,68.2823
215.4,8115112.0,-81.16634,68.2916
464.2,2922372.0,-80.91239,68.2891
1000.0,1171210.0,-78.21529,68.2909
2154.4,616745.3,-87.98039,68.2854
4641.6,273698.4,-94.25674,68.292
10000.0,131077.2,-93.95,68.2815
