Frequency,Impedance,Phase Angle,Temperature (Dry Bath)
10.0,79708.96,-29.09706,66.9635
21.5,64104.76,-25.78783,66.9586
46.4,53637.74,-22.19716,66.9578
100.0,46320.63,-19.23265,66.973
215.4,33664.37,3.956056,66.9848
464.2,37010.18,-13.88294,66.9684
1000.0,33253.28,-12.57334,66.9662
2154.4,31290.53,-12.20695,66.979
4641.6,28772.34,-14.01323,66.959
10000.0,26037.77,-18.98188,66.9743
