Frequency,Impedance,Phase Angle,Temperature (Dry Bath)
10.0,1374654.0,-14.64308,68.1413
21.5,1229343.0,-12.73569,68.1506
46.4,1071420.0,-13.03531,68.1374
100.0,899748.8,-11.17654,68.1452
215.4,980892.3,-13.19131,68.1312
464.2,837740.9,-30.35551,68.1562
1000.0,687138.5,-38.7429,68.1556
2154.4,423689.9,-53.34594,68.1537
4641.6,278563.8,-69.69741,68.1458
10000.0,156844.7,-84.46824,68.1658
