Frequency,Impedance,Phase Angle,Temperature (Dry Bath)
10.0,4731625.0,51.38722,71.5409
21.544346900318832,5190381.0,-8.975243,71.5489
46.41588833612777,4129131.0,-14.97266,71.5552
100.0,606626.3,45.43973,71.5685
215.44346900318823,1357935.0,-123.7427,71.5741
464.15888336127773,627443.9,-5.17569,71.5622
1000.0,428413.7,-103.0302,71.5802
2154.4346900318824,375182.7,-125.3724,71.5737
4641.588833612777,240350.7,-101.4122,71.5864
10000.0,117726.3,-91.52849,71.5695
