Frequency,Impedance,Phase Angle,Temperature (Dry Bath)
10.0,32221280.0,-12.5382,67.7453
21.5,45901520.0,-43.99181,67.7453
46.4,33914600.0,-44.34235,67.7394
100.0,4037622.0,-58.38529,67.7445
215.4,9704579.0,-118.5034,67.7373
464.2,4198912.0,-83.04795,67.7375
1000.0,1433459.0,-87.82813,67.7461
2154.4,673710.6,-84.76843,67.7509
4641.6,328481.2,-90.78552,67.7335
10000.0,144610.8,-99.69092,67.7297
