Frequency,Impedance,Phase Angle,Temperature (Dry Bath)
10.0,4560209.0,3.996386,71.2599
21.544346900318832,3507073.0,-15.7871,71.2573
46.41588833612777,4721103.0,-32.0326,71.2722
100.0,344112.8,-115.508,71.2559
215.44346900318823,187035.6,-153.3733,71.2585
464.15888336127773,637762.3,-123.3562,71.2494
1000.0,180373.1,-86.21467,71.2521
2154.4346900318824,341569.8,-88.21084,71.2632
4641.588833612777,118374.4,-92.06797,71.2604
10000.0,68488.99,-89.75353,71.255
