Frequency,Impedance,Phase Angle,Temperature (Dry Bath)
10.0,1576532.0,-18.11292,67.062
21.5,1396248.0,-16.86116,67.0745
46.4,1243885.0,-14.74961,67.0729
100.0,1031006.0,-25.42525,67.078
215.4,773654.6,-26.15575,67.0745
464.2,895588.9,-27.51068,67.0788
1000.0,750978.8,-44.33598,67.0811
2154.4,421446.6,-62.06024,67.0853
4641.6,224180.8,-71.65797,67.0789
10000.0,111792.0,-78.95212,67.0612
