Frequency,Impedance,Phase Angle,Temperature (Dry Bath)
10.0,1477810.0,-17.5641,67.2133
21.5,1308287.0,-15.71375,67.2133
46.4,1152319.0,-16.6838,67.2129
100.0,1067224.0,-17.48156,67.2248
215.4,369495.5,-22.74012,67.2198
464.2,953725.8,-27.09869,67.2314
1000.0,684292.6,-45.0454,67.225
2154.4,445874.9,-63.81332,67.2167
4641.6,225062.1,-70.04167,67.2106
10000.0,109536.9,-78.91058,67.2333
