Frequency,Impedance,Phase Angle,Temperature (Dry Bath)
10.0,7462664.0,-33.1776,71.3044
21.544346900318832,5508114.0,-16.06901,71.318
46.41588833612777,3700348.0,-43.55896,71.3293
100.0,3222067.0,-38.07113,71.3089
215.44346900318823,11255.5,-159.51,71.306
464.15888336127773,1636074.0,70.61058,71.3092
1000.0,493644.6,-113.2295,71.3015
2154.4346900318824,233772.4,-77.64132,71.3081
4641.588833612777,112655.4,-88.60146,71.3044
10000.0,58815.69,-92.63581,71.3138
