Frequency,Impedance,Phase Angle,Temperature (Dry Bath)
10.0,44148500.0,-34.8615,67.4631
21.5,24483080.0,-21.98448,67.4741
46.4,19536780.0,-54.09864,67.4599
100.0,6761569.0,-0.9293897,67.4657
215.4,2854864.0,-116.7504,67.4706
464.2,2220576.0,-83.58106,67.4682
1000.0,1025230.0,-84.76183,67.4619
2154.4,588336.4,-86.0253,67.4555
4641.6,287782.6,-87.10856,67.449
10000.0,130313.8,-86.13861,67.4622
