Frequency,Impedance,Phase Angle,Temperature (Dry Bath)
10.0,23481910.0,-35.17419,67.237
21.5,17758420.0,-31.73386,67.2361
46.4,28563850.0,-54.47859,67.2442
100.0,4786208.0,-64.1917,67.2179
215.4,604614.5,-88.46389,67.2355
464.2,1710472.0,-91.21399,67.2363
1000.0,891657.5,-81.65479,67.2408
2154.4,444631.1,-81.14012,67.2243
4641.6,215870.0,-79.0505,67.2184
10000.0,111152.1,-80.07332,67.2127
