Frequency,Impedance,Phase Angle,Temperature (Dry Bath)
10.0,5322595.0,1.409643,70.7701
21.544346900318832,9486677.0,-51.31087,70.7784
46.41588833612777,4994800.0,-30.22089,70.7766
100.0,372880.6,72.20405,70.7769
215.44346900318823,2967256.0,95.54434,70.7798
464.15888336127773,886372.2,-94.61736,70.774
1000.0,402929.3,-9.635558,70.7765
2154.4346900318824,199546.0,-86.12018,70.7765
4641.588833612777,148505.7,-89.60059,70.7598
10000.0,57684.09,-81.76158,70.7621
