Frequency,Impedance,Phase Angle,Temperature (Dry Bath)
10.0,1923940.0,-8.642546,67.9113
21.5,1818040.0,-8.299414,67.9083
46.4,1647628.0,-11.29608,67.912
100.0,1445815.0,-13.83605,67.9024
215.4,1287841.0,-19.37155,67.9204
464.2,1333386.0,-34.5711,67.9305
1000.0,823949.9,-44.78131,67.9088
2154.4,509373.2,-61.98766,67.9204
4641.6,275230.2,-73.37963,67.9247
10000.0,135215.8,-86.43757,67.9185
