Frequency,Impedance,Phase Angle,Temperature (Dry Bath)
10.0,1543798.0,-17.85665,67.1166
21.5,1362422.0,-15.71313,67.1097
46.4,1245700.0,-16.00863,67.1175
100.0,2178722.0,-1.615028,67.1136
215.4,2633809.0,59.66722,67.1071
464.2,836505.4,-21.33146,67.1211
1000.0,643647.0,-56.68298,67.0993
2154.4,465243.2,-64.41534,67.0968
4641.6,219249.9,-74.30049,67.1055
10000.0,111826.4,-79.30728,67.1074
