Frequency,Impedance,Phase Angle,Temperature (Dry Bath)
10.0,214166.1,-23.24723,67.366
21.5,180387.6,-20.36829,67.3496
46.4,156300.5,-17.5893,67.3371
100.0,136468.4,-15.17642,67.3577
215.4,96589.46,6.514839,67.34
464.2,116999.8,-13.90986,67.3462
1000.0,104015.1,-15.39225,67.3526
2154.4,93731.98,-19.88375,67.3635
4641.6,80645.37,-28.86824,67.3598
10000.0,61378.35,-40.56885,67.3617
