Frequency,Impedance,Phase Angle,Temperature (Dry Bath)
10.0,3201947.0,2.459798,71.2799
21.544346900318832,3543132.0,14.86013,71.2671
46.41588833612777,3744118.0,-7.807776,71.2728
100.0,1136762.0,-83.62617,71.2687
215.44346900318823,935907.3,-111.3282,71.2538
464.15888336127773,2033945.0,-130.2815,71.2555
1000.0,446392.1,-45.69733,71.2645
2154.4346900318824,292028.6,-61.03051,71.2487
4641.588833612777,286073.1,-73.04662,71.249
10000.0,132571.0,-81.06733,71.2673
