Frequency,Impedance,Phase Angle,Temperature (Dry Bath)
10.0,1455914.0,-17.0991,67.0784
21.5,1300004.0,-15.77924,67.0791
46.4,1185453.0,-15.13763,67.0821
100.0,859392.5,-11.95589,67.0854
215.4,954901.5,-17.70493,67.0802
464.2,796581.4,-27.71562,67.0901
1000.0,617721.4,-46.2295,67.0916
2154.4,441650.2,-60.05294,67.0933
4641.6,218123.4,-74.41988,67.0755
10000.0,110482.9,-78.79396,67.0735
