Frequency,Impedance,Phase Angle,Temperature (Dry Bath)
10.0,1517621.0,-14.84074,67.9162
21.5,1371210.0,-13.30695,67.911
46.4,1201168.0,-13.72105,67.9341
100.0,1092873.0,-10.81833,67.9167
215.4,1053080.0,-20.44932,67.9255
464.2,914903.1,-25.51447,67.9043
1000.0,739130.2,-38.11244,67.9313
2154.4,502228.5,-56.63437,67.9394
4641.6,279115.8,-74.10517,67.9189
10000.0,134769.5,-87.23926,67.926
