Frequency,Impedance,Phase Angle,Temperature (Dry Bath)
10.0,4090572.0,-2.538411,72.1257
21.544346900318832,4094849.0,-12.83076,72.1001
46.41588833612777,4536750.0,-2.525868,72.1222
100.0,902625.3,-11.15815,72.1358
215.44346900318823,353716.4,2.509905,72.1275
464.15888336127773,981272.1,-34.614,72.1366
1000.0,357555.6,-97.23822,72.1155
2154.4346900318824,283417.4,56.29455,72.0987
4641.588833612777,988948.1,-108.4554,72.1115
10000.0,141315.1,-63.92157,72.1074
