Frequency,Impedance,Phase Angle,Temperature (Dry Bath)
10.0,112707.2,-3.111395,67.1452
21.5,110670.0,-2.693083,67.1254
46.4,108656.5,-2.524368,67.1322
100.0,105014.3,-3.620886,67.1213
215.4,118947.1,42.17759,67.1249
464.2,102927.5,-5.478472,67.1269
1000.0,100476.1,-8.098472,67.1277
2154.4,97539.7,-13.85354,67.1378
4641.6,87012.93,-25.39626,67.1271
10000.0,68346.82,-40.08955,67.1359
