Frequency,Impedance,Phase Angle,Temperature (Dry Bath)
10.0,4536199.0,25.83224,71.2528
21.544346900318832,4624208.0,4.618812,71.2577
46.41588833612777,5629437.0,-17.05165,71.2447
100.0,500377.4,-54.04492,71.26
215.44346900318823,4592138.0,-40.27918,71.255
464.15888336127773,495582.9,-97.13318,71.2523
1000.0,1135540.0,-12.21532,71.2624
2154.4346900318824,259925.8,-91.42666,71.2542
4641.588833612777,135694.8,-90.02526,71.25
10000.0,55140.45,-87.74027,71.2477
