Frequency,Impedance,Phase Angle,Temperature (Dry Bath)
10.0,3180495.0,-9.733326,68.0335
21.5,3035419.0,-10.52181,68.0153
46.4,2944581.0,-11.91802,68.0111
100.0,1806105.0,-15.71388,68.0058
215.4,1963233.0,-26.59842,68.0146
464.2,1767172.0,-35.79212,68.0375
1000.0,990571.9,-60.1032,68.0166
2154.4,565439.9,-72.165,68.0257
4641.6,308603.0,-83.97757,68.0274
10000.0,148249.5,-92.90179,68.0249
