Frequency,Impedance,Phase Angle,Temperature (Dry Bath)
10.0,4899903.0,2.692116,70.974
21.544346900318832,5842344.0,-31.82476,70.9716
46.41588833612777,4834043.0,-20.02649,70.9636
100.0,465033.3,-0.9759767,70.987
215.44346900318823,379570.7,-21.01618,70.9749
464.15888336127773,526277.8,-80.90188,70.9713
1000.0,523704.1,-84.26703,70.9891
2154.4346900318824,247615.5,-78.18099,70.9855
4641.588833612777,120370.0,-92.35474,70.9822
10000.0,60642.69,-79.1711,70.9845
