Frequency,Impedance,Phase Angle,Temperature (Dry Bath)
10.0,1535633.0,-18.93877,67.1582
21.5,1383259.0,-16.41202,67.1716
46.4,1231986.0,-14.95373,67.1561
100.0,1034834.0,-7.876653,67.1636
215.4,393398.2,-90.25436,67.1612
464.2,909859.5,-28.17311,67.1581
1000.0,659063.3,-43.69293,67.1567
2154.4,457097.6,-59.26635,67.1712
4641.6,215265.2,-74.80208,67.1473
10000.0,111348.4,-79.23329,67.1599
