Frequency,Impedance,Phase Angle,Temperature (Dry Bath)
10.0,18075840.0,-27.05989,68.1421
21.5,18606770.0,-36.15653,68.1421
46.4,10971560.0,-52.25075,68.1421
100.0,3995889.0,-33.78476,68.1421
215.4,4441094.0,-91.74149,68.1421
464.2,2911811.0,-78.85127,68.1421
1000.0,1225212.0,-81.19907,68.1421
2154.4,628315.3,-87.67486,68.1421
4641.6,295580.1,-91.20906,68.1421
10000.0,142934.6,-93.98619,68.1421
