Frequency,Impedance,Phase Angle,Temperature (Dry Bath)
10.0,4765107.0,-5.201654,71.1467
21.544346900318832,5941297.0,11.55563,71.1443
46.41588833612777,5263010.0,-15.24476,71.1525
100.0,1074221.0,-160.6937,71.1584
215.44346900318823,249778.4,-56.72582,71.1535
464.15888336127773,619920.3,-145.7981,71.1651
1000.0,601130.4,-43.64589,71.1655
2154.4346900318824,355210.2,-28.21602,71.1523
4641.588833612777,194402.1,-80.77671,71.1651
10000.0,162591.9,-69.05619,71.1636
