Frequency,Impedance,Phase Angle,Temperature (Dry Bath)
10.0,28332430.0,-19.94723,67.2739
21.5,28090280.0,-23.74611,67.2896
46.4,14944110.0,-48.52497,67.2677
100.0,3113841.0,-55.6319,67.282
215.4,192151.0,153.0983,67.2699
464.2,2026191.0,-71.42683,67.2771
1000.0,1137272.0,-77.14235,67.2742
2154.4,547187.1,-81.7506,67.2949
4641.6,246668.1,-83.62406,67.2711
10000.0,124787.1,-83.92643,67.2683
