Frequency,Impedance,Phase Angle,Temperature (Dry Bath)
10.0,5322006.0,8.362844,65.8694
21.544346900318832,4439607.0,2.530003,65.874
46.41588833612777,3930221.0,-41.74589,65.8699
100.0,776956.7,43.69414,65.8721
215.44346900318823,6371.736,17.34701,65.8858
464.15888336127773,3631086.0,66.33657,65.877
1000.0,237446.3,-82.00777,65.8772
2154.4346900318824,838585.8,19.08369,65.8699
4641.588833612777,173769.4,-87.53703,65.8807
10000.0,73140.86,-87.94938,65.8688
