Frequency,Impedance,Phase Angle,Temperature (Dry Bath)
10.0,44485150.0,11.14762,67.8911
21.5,55969610.0,-14.93636,67.8897
46.4,22967640.0,-44.12384,67.9081
100.0,11322010.0,-39.82132,67.9015
215.4,4979773.0,-103.7056,67.8926
464.2,2518399.0,-78.44674,67.8866
1000.0,1530668.0,-82.36669,67.9
2154.4,688355.9,-88.81939,67.8955
4641.6,325206.4,-90.2725,67.896
10000.0,162670.2,-99.09172,67.8809
