Frequency,Impedance,Phase Angle,Temperature (Dry Bath)
10.0,21679690.0,-34.43956,68.1488
21.5,21817260.0,-34.86081,68.1627
46.4,10771760.0,-46.3643,68.1721
100.0,5237975.0,-64.51792,68.1621
215.4,5068685.0,-71.45843,68.1663
464.2,5037748.0,-85.56334,68.1689
1000.0,1343194.0,-92.78977,68.1647
2154.4,654038.1,-83.30181,68.1585
4641.6,287669.7,-93.2375,68.1615
10000.0,140357.6,-99.12383,68.1474
