Frequency,Impedance,Phase Angle,Temperature (Dry Bath)
10.0,40897900.0,-9.75025,67.3888
21.5,31911030.0,-25.28776,67.3851
46.4,14698750.0,-55.24159,67.3821
100.0,4583601.0,-67.22366,67.3973
215.4,185501.2,-144.7097,67.3984
464.2,2855685.0,-99.97331,67.3906
1000.0,1033229.0,-77.83734,67.3864
2154.4,426486.2,-84.23534,67.4094
4641.6,224710.0,-81.88163,67.4127
10000.0,108967.0,-81.05041,67.3999
