Frequency,Impedance,Phase Angle,Temperature (Dry Bath)
10.0,3965110.0,0.4646426,65.8134
21.544346900318832,5645305.0,-21.82891,65.8103
46.41588833612777,5180262.0,-17.79238,65.8251
100.0,609807.4,-12.40083,65.8239
215.44346900318823,295116.3,-124.6969,65.8274
464.15888336127773,641649.0,-16.10365,65.8214
1000.0,399653.6,-72.07044,65.828
2154.4346900318824,220319.7,-88.97125,65.83
4641.588833612777,215927.8,-92.87154,65.8231
10000.0,67982.93,-88.22285,65.8272
