Frequency,Impedance,Phase Angle,Temperature (Dry Bath)
10.0,145679.8,-5.127283,68.0193
21.5,140879.5,-4.20511,68.031
46.4,137217.0,-3.914338,68.0186
100.0,130934.4,-5.490619,68.0109
215.4,130821.1,-4.737887,68.0131
464.2,129564.4,-6.950833,68.0093
1000.0,122862.7,-8.7377,68.0322
2154.4,117301.9,-15.19176,68.0223
4641.6,106820.5,-27.40096,68.0046
10000.0,87618.63,-50.02075,68.0039
