Frequency,Impedance,Phase Angle,Temperature (Dry Bath)
10.0,582938.9,-4.748497,71.4314
21.544346900318832,587983.7,-3.803362,71.4298
46.41588833612777,572785.4,-6.526052,71.451
100.0,356815.0,6.827272,71.4461
215.44346900318823,542090.5,1.731608,71.4534
464.15888336127773,662266.0,26.10241,71.4466
1000.0,571871.6,-37.07623,71.4422
2154.4346900318824,489518.2,-34.72646,71.4428
4641.588833612777,182663.6,-67.94766,71.4546
10000.0,129844.5,-79.29259,71.4446
