Frequency,Impedance,Phase Angle,Temperature (Dry Bath)
10.0,933026.3,-26.37813,71.2869
21.544346900318832,750730.6,-30.33247,71.2832
46.41588833612777,603126.0,-24.87461,71.2805
100.0,575408.2,22.67101,71.2817
215.44346900318823,477781.2,-48.34405,71.2947
464.15888336127773,545450.8,-50.85824,71.2925
1000.0,213859.0,-54.34094,71.302
2154.4346900318824,204997.1,-60.57175,71.3001
4641.588833612777,105500.6,-66.63633,71.2783
10000.0,57398.63,-71.84089,71.2757
