Frequency,Impedance,Phase Angle,Temperature (Dry Bath)
10.0,3591038.0,-22.75065,70.9857
21.544346900318832,3658663.0,11.34205,70.9635
46.41588833612777,3212908.0,-15.61381,70.9738
100.0,930288.8,-62.88256,70.9609
215.44346900318823,2117212.0,-83.18207,70.9752
464.15888336127773,544580.3,-34.65539,70.9913
1000.0,418133.6,-47.3402,70.97
2154.4346900318824,202613.7,-77.30058,70.9612
4641.588833612777,109077.4,-88.48671,70.9724
10000.0,60523.4,-86.40655,70.9753
