Frequency,Impedance,Phase Angle,Temperature (Dry Bath)
10.0,159944.3,-21.29731,67.7647
21.5,138159.9,-17.99381,67.7756
46.4,121509.7,-15.78264,67.763
100.0,108657.6,-13.32758,67.7759
215.4,98333.05,-12.98005,67.7627
464.2,89877.32,-13.30196,67.7607
1000.0,83087.09,-14.23845,67.7858
2154.4,78007.77,-17.70425,67.7631
4641.6,67480.13,-25.91642,67.7788
10000.0,58951.48,-35.97618,67.7444
