Frequency,Impedance,Phase Angle,Temperature (Dry Bath)
10.0,161181.1,-15.59651,71.3089
21.544346900318832,143140.5,-13.82503,71.3109
46.41588833612777,131146.8,-12.80493,71.3146
100.0,125650.9,11.79919,71.3168
215.44346900318823,98430.12,-1.94982,71.3252
464.15888336127773,110192.8,-6.396351,71.3189
1000.0,83810.95,-13.40455,71.3139
2154.4346900318824,80843.2,-20.67879,71.3215
4641.588833612777,61385.98,-25.87557,71.3262
10000.0,57177.79,-36.47986,71.3141
