Frequency,Impedance,Phase Angle,Temperature (Dry Bath)
10.0,3826657.0,6.608844,70.4
21.544346900318832,5089060.0,6.106443,70.4
46.41588833612777,6286273.0,8.499965,70.4
100.0,3929904.0,6.5907,70.4
215.44346900318823,4398985.0,-7.391057,70.4
464.15888336127773,9497194.0,-94.35793,70.4
1000.0,3144672.0,-66.75227,70.4
2154.4346900318824,6252284.0,50.87686,70.4
4641.588833612777,4610953.0,-40.68011,70.4
10000.0,4090542.0,7.705721,70.4
