Frequency,Impedance,Phase Angle,Temperature (Dry Bath)
10.0,4044031.0,-14.09243,68.0471
21.5,3755090.0,-12.82856,68.0384
46.4,4276451.0,-16.80996,68.0405
100.0,4586097.0,-24.05169,68.0404
215.4,2278811.0,-30.70527,68.0456
464.2,2377985.0,-58.26413,68.0449
1000.0,1184179.0,-68.50052,68.0378
2154.4,612802.3,-80.59871,68.0372
4641.6,303109.7,-83.22472,68.0343
10000.0,141610.6,-94.1058,68.0439
