Frequency,Impedance,Phase Angle,Temperature (Dry Bath)
10.0,29155960.0,-25.567,67.4055
21.5,24133540.0,-24.66839,67.4258
46.4,15894010.0,-59.34898,67.3986
100.0,2359146.0,-31.77469,67.4126
215.4,233961.1,-27.22831,67.4127
464.2,4748269.0,-59.68767,67.4172
1000.0,1235663.0,-78.82266,67.4038
2154.4,576226.9,-92.13366,67.4189
4641.6,265376.6,-84.72335,67.4138
10000.0,131126.9,-86.0167,67.4069
