Frequency,Impedance,Phase Angle,Temperature (Dry Bath)
10.0,31244830.0,-3.877952,68.1201
21.5,30823160.0,-35.93533,68.1328
46.4,34754520.0,-47.16656,68.1448
100.0,9287779.0,-64.97639,68.134
215.4,4395657.0,-76.50173,68.14
464.2,2336411.0,-76.82139,68.1303
1000.0,1412588.0,-90.37996,68.1376
2154.4,722715.3,-90.65099,68.1253
4641.6,316709.5,-90.46688,68.131
10000.0,141672.9,-94.31092,68.1346
