Frequency,Impedance,Phase Angle,Temperature (Dry Bath)
10.0,283493.5,-20.33339,71.6905
21.544346900318832,241963.2,-21.35462,71.7032
46.41588833612777,202078.3,-21.448,71.7033
100.0,176653.1,-35.41861,71.7159
215.44346900318823,140222.3,-7.374853,71.7032
464.15888336127773,141962.2,-22.73622,71.7037
1000.0,89273.57,-27.23117,71.6929
2154.4346900318824,79439.08,-36.12993,71.7094
4641.588833612777,71355.73,-36.49708,71.7047
10000.0,59109.88,-25.68322,71.7087
