Frequency,Impedance,Phase Angle,Temperature (Dry Bath)
10.0,22981350.0,-15.40569,67.8905
21.5,22978030.0,-28.66216,67.8741
46.4,26720020.0,-50.82593,67.9
100.0,21427310.0,26.61565,67.9112
215.4,5692490.0,-86.22195,67.8923
464.2,3038660.0,-70.11079,67.8886
1000.0,1352002.0,-84.54945,67.893
2154.4,630711.2,-89.34969,67.8979
4641.6,351762.0,-92.94919,67.889
10000.0,143495.5,-97.45522,67.8895
