Frequency,Impedance,Phase Angle,Temperature (Dry Bath)
10.0,20914860.0,-11.82329,68.2258
21.5,15731230.0,-41.00283,68.2209
46.4,18039970.0,-43.12909,68.2276
100.0,3981989.0,-33.41158,68.2384
215.4,4570289.0,-59.94356,68.2203
464.2,2598487.0,-52.25443,68.2148
1000.0,1720880.0,-82.92662,68.2227
2154.4,641442.3,-82.81345,68.2203
4641.6,294583.4,-86.05894,68.219
10000.0,148136.1,-95.82052,68.2067
