Frequency,Impedance,Phase Angle,Temperature (Dry Bath)
10.0,3655505.0,-13.31527,65.6447
21.544346900318832,9577942.0,-18.96561,65.6481
46.41588833612777,3330262.0,-11.33042,65.6487
100.0,492617.9,57.34126,65.64
215.44346900318823,22310.97,-19.83246,65.6563
464.15888336127773,941012.3,-134.5351,65.6309
1000.0,479936.3,-92.40543,65.6328
2154.4346900318824,291865.1,-104.6506,65.669
4641.588833612777,275848.0,-93.92926,65.6691
10000.0,83836.23,-82.21943,65.6534
