Frequency,Impedance,Phase Angle,Temperature (Dry Bath)
10.0,3760536.0,-16.46984,70.965
21.544346900318832,3601779.0,-28.09553,70.9727
46.41588833612777,4319742.0,-15.41278,70.9677
100.0,630004.4,129.671,70.9689
215.44346900318823,1358687.0,72.36094,70.979
464.15888336127773,1023861.0,176.3604,70.981
1000.0,489089.7,-103.6733,70.9945
2154.4346900318824,270845.2,-88.76961,71.01
4641.588833612777,138164.6,-89.6514,71.0152
10000.0,66097.26,-86.03274,70.9964
