Frequency,Impedance,Phase Angle,Temperature (Dry Bath)
10.0,30967550.0,-15.89285,67.2929
21.5,22137110.0,-21.17366,67.3037
46.4,19275380.0,-50.01638,67.292
100.0,3475614.0,-36.22264,67.3016
215.4,5608007.0,148.8714,67.2927
464.2,2149363.0,-101.4303,67.2984
1000.0,1136513.0,-90.14699,67.319
2154.4,601771.9,-84.96868,67.3197
4641.6,278185.4,-86.22989,67.3012
10000.0,132412.2,-85.97186,67.3088
