Frequency,Impedance,Phase Angle,Temperature (Dry Bath)
10.0,4326345.0,-2.582892,67.0506
21.5,4370751.0,-5.354422,67.0618
46.4,4144666.0,-11.38416,67.0592
100.0,2965930.0,-17.21613,67.0645
215.4,3583282.0,-68.65662,67.0519
464.2,1794365.0,-61.95848,67.0528
1000.0,1020290.0,-74.52171,67.0631
2154.4,574638.7,-83.30332,67.0632
4641.6,270802.2,-84.68304,67.069
10000.0,123534.9,-84.53504,67.0555
