Frequency,Impedance,Phase Angle,Temperature (Dry Bath)
10.0,110929.5,-2.997082,67.2397
21.5,108747.6,-2.62386,67.2409
46.4,106742.3,-2.524504,67.2586
100.0,104165.2,-3.572088,67.23
215.4,109386.4,-7.669926,67.2358
464.2,103700.9,-4.551657,67.205
1000.0,98856.58,-8.401473,67.2334
2154.4,96654.35,-13.87433,67.2122
4641.6,84899.28,-23.28708,67.2394
10000.0,68331.46,-38.85776,67.2382
