Frequency,Impedance,Phase Angle,Temperature (Dry Bath)
10.0,2505603.0,14.99058,67.242
21.5,7399286.0,-13.83296,67.2557
46.4,6024553.0,-23.24561,67.2495
100.0,2824074.0,-27.18948,67.2391
215.4,291400.7,18.40041,67.2516
464.2,1879374.0,-57.83572,67.2536
1000.0,1294973.0,-74.69672,67.2474
2154.4,573740.7,-82.33858,67.2552
4641.6,277939.8,-84.32438,67.2329
10000.0,124784.3,-85.69096,67.2513
