Frequency,Impedance,Phase Angle,Temperature (Dry Bath)
10.0,229269.5,-5.700405,70.7925
21.544346900318832,207299.7,-5.043885,70.8087
46.41588833612777,205688.1,-4.198765,70.8119
100.0,163972.1,-11.67737,70.8073
215.44346900318823,151814.3,-21.99478,70.8185
464.15888336127773,212032.7,1.592289,70.8055
1000.0,161819.7,-19.7864,70.8082
2154.4346900318824,138430.2,-25.23488,70.8181
4641.588833612777,92478.98,-42.05687,70.8363
10000.0,58248.93,-73.04925,70.8105
