Frequency,Impedance,Phase Angle,Temperature (Dry Bath)
10.0,1413605.0,-15.42019,68.0989
21.5,1285709.0,-13.86575,68.0964
46.4,1123217.0,-12.84507,68.1014
100.0,991051.0,-22.4051,68.1066
215.4,967427.5,-18.27901,68.1076
464.2,766092.7,-15.9281,68.1051
1000.0,650497.9,-34.47746,68.0987
2154.4,486129.7,-51.91299,68.0962
4641.6,270454.0,-71.97984,68.1076
10000.0,132583.1,-91.55282,68.1079
