Frequency,Impedance,Phase Angle,Temperature (Dry Bath)
10.0,3335346.0,-1.909673,67.0124
21.5,3155331.0,-2.845331,66.9874
46.4,3624540.0,-8.421481,66.9985
100.0,3096602.0,17.66495,67.0165
215.4,69185.68,60.25607,67.003
464.2,1488970.0,-54.30798,67.0049
1000.0,1103407.0,-75.0095,66.9876
2154.4,487630.4,-76.85403,67.0056
4641.6,258064.6,-83.00293,67.005
10000.0,127137.6,-83.39079,66.9923
