Frequency,Impedance,Phase Angle,Temperature (Dry Bath)
10.0,115483.9,-16.0198,68.0822
21.5,102909.5,-13.78658,68.0769
46.4,93924.44,-12.22929,68.0891
100.0,85723.8,-11.2594,68.0871
215.4,82132.84,-10.27396,68.0981
464.2,76395.45,-10.17217,68.0823
1000.0,71158.59,-12.05643,68.0901
2154.4,65931.81,-14.6447,68.0732
4641.6,60719.16,-21.87584,68.0956
10000.0,51104.78,-35.1475,68.083
