Frequency,Impedance,Phase Angle,Temperature (Dry Bath)
10.0,8013753.0,28.74802,66.6
21.544346900318832,4752366.0,28.15564,66.6
46.41588833612777,4523221.0,7.230259,66.6
100.0,319517.9,6.399193,66.6
215.44346900318823,1275999.0,-121.6215,66.6
464.15888336127773,1346803.0,-8.568188,66.6
1000.0,960228.9,-5.811309,66.6
2154.4346900318824,380124.5,-49.28492,66.6
4641.588833612777,413754.0,-121.2208,66.6
10000.0,340705.3,-69.41311,66.6
