Frequency,Impedance,Phase Angle,Temperature (Dry Bath)
10.0,21382310.0,-21.42938,67.2983
21.5,20849000.0,-41.33589,67.2971
46.4,13754330.0,-62.4331,67.293
100.0,4924409.0,-59.02869,67.2967
215.4,262769.0,158.1248,67.3058
464.2,1916709.0,-79.59,67.2959
1000.0,831600.1,-83.95901,67.2954
2154.4,414882.9,-83.45915,67.3022
4641.6,192912.9,-83.22952,67.303
10000.0,97635.69,-79.80478,67.2807
