Frequency,Impedance,Phase Angle,Temperature (Dry Bath)
10.0,151122.0,-4.87176,67.7871
21.5,147041.6,-4.142494,67.7697
46.4,143310.3,-3.735761,67.7916
100.0,136217.8,-4.964525,67.7792
215.4,137061.1,-4.187136,67.7543
464.2,130316.0,-6.680326,67.784
1000.0,128801.0,-10.82249,67.7784
2154.4,124068.7,-16.50762,67.794
4641.6,108944.3,-26.37077,67.772
10000.0,88662.04,-51.25077,67.7707
