Frequency,Impedance,Phase Angle,Temperature (Dry Bath)
10.0,1596087.0,-14.55944,68.0658
21.5,1454550.0,-14.23706,68.0658
46.4,1249067.0,-13.20438,68.0658
100.0,1070981.0,-17.21,68.0658
215.4,1100544.0,-13.65458,68.0658
464.2,860109.4,-26.39083,68.0658
1000.0,803341.0,-37.43091,68.0658
2154.4,487612.0,-58.0043,68.0658
4641.6,294053.5,-72.7199,68.0658
10000.0,138828.1,-87.74687,68.0658
