Frequency,Impedance,Phase Angle,Temperature (Dry Bath)
10.0,456558.9,-26.51832,65.7776
21.544346900318832,354163.1,-25.42315,65.7882
46.41588833612777,292661.7,-23.09169,65.7762
100.0,220391.7,-36.18667,65.7726
215.44346900318823,16710.69,-159.4171,65.7711
464.15888336127773,179170.2,-31.75255,65.7633
1000.0,166336.4,-24.2771,65.772
2154.4346900318824,99605.44,-40.67108,65.7762
4641.588833612777,86995.05,-47.54055,65.7691
10000.0,67290.04,-66.88877,65.7718
