Frequency,Impedance,Phase Angle,Temperature (Dry Bath)
10.0,5724157.0,-0.8193883,71.4752
21.544346900318832,4507830.0,-26.10293,71.482
46.41588833612777,4912960.0,-16.33781,71.4759
100.0,1592664.0,-83.91907,71.4867
215.44346900318823,1518087.0,0.4765038,71.4875
464.15888336127773,383064.7,-93.38057,71.4863
1000.0,595882.8,-45.5883,71.4889
2154.4346900318824,1107499.0,73.51617,71.4811
4641.588833612777,313971.3,-83.74747,71.4662
10000.0,120051.0,-84.71749,71.4872
