Frequency,Impedance,Phase Angle,Temperature (Dry Bath)
10.0,782314.3,-14.92246,72.1904
21.544346900318832,755074.1,-12.01306,72.1796
46.41588833612777,696089.3,-8.103968,72.1811
100.0,194983.9,-3.386071,72.1717
215.44346900318823,384250.1,-79.73875,72.1795
464.15888336127773,239806.3,55.32877,72.1901
1000.0,718183.2,-58.32847,72.1735
2154.4346900318824,152306.2,-41.37634,72.1823
4641.588833612777,199382.4,-43.17036,72.188
10000.0,168747.2,-60.23402,72.1823
