Frequency,Impedance,Phase Angle,Temperature (Dry Bath)
10.0,33173290.0,-14.87143,67.2563
21.5,17018750.0,-37.39158,67.2622
46.4,9369781.0,-66.07387,67.2589
100.0,2639475.0,-109.7332,67.2653
215.4,954521.8,60.4225,67.2576
464.2,1939473.0,-92.90928,67.2653
1000.0,1127746.0,-90.90001,67.2647
2154.4,521825.7,-84.49756,67.2625
4641.6,247161.2,-83.80638,67.2737
10000.0,120988.0,-85.96511,67.2522
