Frequency,Impedance,Phase Angle,Temperature (Dry Bath)
10.0,31788140.0,-41.2596,67.2973
21.5,22685560.0,-33.51231,67.2828
46.4,14872250.0,-88.9517,67.2972
100.0,29426890.0,-86.94004,67.2944
215.4,190859.6,-81.83064,67.3047
464.2,1780534.0,-80.16044,67.3124
1000.0,837435.8,-79.78706,67.2994
2154.4,410813.7,-82.9861,67.3074
4641.6,199517.7,-84.03399,67.3023
10000.0,97925.97,-80.38709,67.309
