Frequency,Impedance,Phase Angle,Temperature (Dry Bath)
10.0,2828223.0,11.08487,66.2365
21.544346900318832,2087704.0,-16.53334,66.2557
46.41588833612777,1894572.0,-29.28295,66.2347
100.0,723843.2,53.64668,66.2194
215.44346900318823,239087.7,-8.112711,66.2441
464.15888336127773,1329935.0,171.256,66.2412
1000.0,1072244.0,137.1043,66.2284
2154.4346900318824,195436.5,-65.56466,66.2357
4641.588833612777,127077.2,-88.14841,66.233
10000.0,67543.31,-77.9171,66.2306
