Frequency,Impedance,Phase Angle,Temperature (Dry Bath)
10.0,874951.9,-6.704423,71.2305
21.544346900318832,858054.9,-5.451454,71.2406
46.41588833612777,884265.3,-8.264321,71.2327
100.0,3742760.0,-127.1626,71.2356
215.44346900318823,727470.0,-10.63688,71.2493
464.15888336127773,362922.4,13.36246,71.2359
1000.0,299247.7,-45.948,71.2216
2154.4346900318824,268069.6,-103.9861,71.2217
4641.588833612777,175269.3,-101.7216,71.221
10000.0,135638.2,-86.01976,71.2171
