Frequency,Impedance,Phase Angle,Temperature (Dry Bath)
10.0,29116720.0,-25.17259,67.0436
21.5,34600680.0,-19.49587,67.0381
46.4,19742140.0,-49.61479,67.0342
100.0,12124330.0,10.68894,67.0223
215.4,7311279.0,-155.3163,67.0264
464.2,2867052.0,-80.36758,67.029
1000.0,1188996.0,-69.57536,67.0311
2154.4,563823.0,-86.61785,67.0505
4641.6,254110.9,-86.62935,67.0298
10000.0,122388.5,-86.68088,67.0327
