Frequency,Impedance,Phase Angle,Temperature (Dry Bath)
10.0,7010326.0,12.18018,66.3506
21.544346900318832,9010625.0,2.598744,66.3658
46.41588833612777,6432930.0,-3.618575,66.3123
100.0,4393388.0,-70.22676,66.3387
215.44346900318823,4265933.0,-6.407247,66.3189
464.15888336127773,2227265.0,-18.976,66.3426
1000.0,8545543.0,170.994,66.3299
2154.4346900318824,4252452.0,-15.80016,66.3456
4641.588833612777,5388884.0,-49.62253,66.325
10000.0,2679968.0,2.315539,66.3673
