Frequency,Impedance,Phase Angle,Temperature (Dry Bath)
10.0,23930400.0,8.167653,68.2042
21.5,38067330.0,-22.24668,68.2042
46.4,31049750.0,-48.11423,68.2042
100.0,7034907.0,-31.34832,68.2042
215.4,21750060.0,-73.7105,68.2042
464.2,2917042.0,-73.6647,68.2042
1000.0,1575605.0,-77.94643,68.2042
2154.4,733112.0,-88.42302,68.2042
4641.6,323814.5,-90.5371,68.2042
10000.0,164913.5,-97.92274,68.2042
