Frequency,Impedance,Phase Angle,Temperature (Dry Bath)
10.0,51580.14,-34.20371,67.1322
21.5,39523.6,-30.29815,67.1485
46.4,31783.51,-26.45609,67.1598
100.0,26454.64,-22.64745,67.1509
215.4,22374.21,-27.15674,67.1469
464.2,20317.3,-16.2165,67.1552
1000.0,18109.06,-14.23266,67.1375
2154.4,16548.54,-12.87613,67.1529
4641.6,15235.73,-12.78663,67.1367
10000.0,14004.7,-14.46243,67.1455
