Frequency,Impedance,Phase Angle,Temperature (Dry Bath)
10.0,36278340.0,-28.9977,67.0698
21.5,22096180.0,-46.73302,67.0763
46.4,14488430.0,-57.7638,67.0657
100.0,3430676.0,-72.51787,67.0499
215.4,3038751.0,-111.1335,67.0537
464.2,1878542.0,-61.21143,67.0775
1000.0,927758.7,-81.36578,67.0737
2154.4,402976.4,-81.33958,67.0704
4641.6,194936.2,-81.41783,67.0638
10000.0,99398.36,-80.21363,67.0602
