Frequency,Impedance,Phase Angle,Temperature (Dry Bath)
10.0,22027120.0,-4.828869,68.0618
21.5,15496220.0,-31.72469,68.0834
46.4,22771570.0,-46.1487,68.0876
100.0,9241736.0,-9.536001,68.1016
215.4,5607694.0,-79.85299,68.0812
464.2,4051236.0,-99.19948,68.1064
1000.0,1422695.0,-82.70674,68.0881
2154.4,682269.9,-82.46966,68.0989
4641.6,319452.1,-87.79072,68.0897
10000.0,143915.3,-97.13409,68.093
