Frequency,Impedance,Phase Angle,Temperature (Dry Bath)
10.0,4639282.0,-14.82446,71.175
21.544346900318832,6945396.0,-12.64539,71.1742
46.41588833612777,6101652.0,-17.71758,71.1704
100.0,4537351.0,-92.18282,71.1641
215.44346900318823,956199.0,105.021,71.1694
464.15888336127773,459232.5,26.77848,71.1612
1000.0,417799.9,19.96366,71.173
2154.4346900318824,595694.5,-83.46768,71.1626
4641.588833612777,263958.9,-72.77627,71.1641
10000.0,126382.9,-95.95657,71.171
