Frequency,Impedance,Phase Angle,Temperature (Dry Bath)
10.0,1414924.0,-15.06507,68.1472
21.5,1264084.0,-13.29457,68.1437
46.4,1126800.0,-13.24435,68.123
100.0,959903.4,-13.18507,68.1257
215.4,963418.0,-18.0772,68.1508
464.2,810780.2,-23.54693,68.1248
1000.0,701488.3,-35.79855,68.1385
2154.4,464887.9,-52.61395,68.1187
4641.6,275191.6,-68.60354,68.1378
10000.0,138695.4,-86.99395,68.1341
