Frequency,Impedance,Phase Angle,Temperature (Dry Bath)
10.0,180116.5,-22.22467,68.136
21.5,152957.7,-19.19226,68.1316
46.4,133788.2,-17.13667,68.1283
100.0,115646.5,-13.46509,68.1124
215.4,110120.9,-14.18411,68.1147
464.2,97463.03,-13.31888,68.1078
1000.0,90420.36,-14.84962,68.1193
2154.4,82368.71,-17.35196,68.1213
4641.6,70716.02,-25.29843,68.109
10000.0,59507.56,-38.54294,68.1214
