Frequency,Impedance,Phase Angle,Temperature (Dry Bath)
10.0,207808.1,-23.64688,67.1369
21.5,173985.3,-20.55938,67.1362
46.4,150512.0,-17.8254,67.1553
100.0,131452.3,-14.22116,67.1341
215.4,137139.0,-2.451858,67.1303
464.2,110386.0,-12.82902,67.1494
1000.0,99918.43,-15.14595,67.1405
2154.4,90797.09,-20.01872,67.1265
4641.6,75856.95,-28.33212,67.1493
10000.0,59220.31,-39.82333,67.1295
