Frequency,Impedance,Phase Angle,Temperature (Dry Bath)
10.0,4480776.0,8.906586,71.3177
21.544346900318832,3431303.0,-7.746638,71.3216
46.41588833612777,5608297.0,-2.675987,71.3178
100.0,491640.7,-37.14077,71.316
215.44346900318823,1994722.0,167.3829,71.3282
464.15888336127773,573552.9,-110.4171,71.3082
1000.0,669548.6,-64.21949,71.3049
2154.4346900318824,272385.7,-67.49974,71.3147
4641.588833612777,124647.5,-73.54951,71.3176
10000.0,68016.38,-93.7251,71.2984
