Frequency,Impedance,Phase Angle,Temperature (Dry Bath)
10.0,233563.0,-23.22228,67.0017
21.5,197095.9,-20.30125,67.0014
46.4,170753.4,-17.77909,66.9874
100.0,150082.6,-17.82169,66.9972
215.4,103061.7,-49.33286,66.996
464.2,127914.4,-15.19736,66.9801
1000.0,111682.9,-17.26939,66.9874
2154.4,98608.12,-22.19621,66.9779
4641.6,82742.77,-31.09537,66.969
10000.0,61413.75,-42.97068,67.0024
