Frequency,Impedance,Phase Angle,Temperature (Dry Bath)
10.0,22442440.0,-29.0952,67.5013
21.5,20238520.0,-34.35438,67.5031
46.4,8478512.0,-60.01183,67.5032
100.0,3408708.0,-108.599,67.4936
215.4,802336.5,100.3057,67.5073
464.2,1855436.0,-94.71594,67.515
1000.0,766105.6,-79.47666,67.4992
2154.4,411209.8,-83.40156,67.5053
4641.6,211572.9,-82.09107,67.5091
10000.0,98883.64,-80.06951,67.5108
