Frequency,Impedance,Phase Angle,Temperature (Dry Bath)
10.0,27872210.0,-11.69481,67.29
21.5,22748060.0,-52.7523,67.267
46.4,25190090.0,-29.04199,67.2656
100.0,3846796.0,-54.62585,67.2866
215.4,477949.8,-4.116204,67.2785
464.2,1882821.0,-78.6884,67.2905
1000.0,826585.0,-79.03894,67.2817
2154.4,417156.5,-82.97395,67.2871
4641.6,208313.1,-83.57809,67.2816
10000.0,100652.2,-80.47901,67.2715
