Frequency,Impedance,Phase Angle,Temperature (Dry Bath)
10.0,46866120.0,-4.58828,68.2011
21.5,38047220.0,-36.12547,68.2069
46.4,25969400.0,-58.50907,68.1769
100.0,8760087.0,-65.49019,68.1902
215.4,3514617.0,-77.74135,68.212
464.2,2864585.0,-79.27488,68.1939
1000.0,1145721.0,-79.20664,68.2058
2154.4,646609.0,-85.1389,68.1989
4641.6,300531.7,-85.84669,68.1867
10000.0,129668.4,-91.09103,68.1834
