Frequency,Impedance,Phase Angle,Temperature (Dry Bath)
10.0,3709098.0,-31.81662,71.254
21.544346900318832,4666159.0,-2.765649,71.2561
46.41588833612777,4333633.0,-0.2859158,71.2522
100.0,843149.2,-119.0273,71.2474
215.44346900318823,1551539.0,-134.2306,71.2648
464.15888336127773,761190.2,46.21577,71.2486
1000.0,493477.1,132.343,71.2506
2154.4346900318824,851971.3,-92.21227,71.277
4641.588833612777,234160.4,-95.04871,71.2833
10000.0,134284.2,-93.00538,71.2815
