Frequency,Impedance,Phase Angle,Temperature (Dry Bath)
10.0,25229910.0,-24.05859,67.2157
21.5,22719560.0,-30.56458,67.2336
46.4,13380620.0,-62.27047,67.2544
100.0,4294801.0,-47.67088,67.2346
215.4,4513050.0,-127.0142,67.2307
464.2,1948695.0,-80.42659,67.224
1000.0,802395.5,-77.55414,67.2384
2154.4,438862.9,-83.46775,67.228
4641.6,208984.0,-78.42255,67.2295
10000.0,111860.8,-78.8344,67.247
