Frequency,Impedance,Phase Angle,Temperature (Dry Bath)
10.0,3628415.0,2.24374,71.877
21.544346900318832,4326559.0,6.191947,71.8789
46.41588833612777,8419836.0,3.014491,71.866
100.0,606032.8,-76.81653,71.8648
215.44346900318823,497926.0,-163.4469,71.8775
464.15888336127773,436493.4,-134.3011,71.8839
1000.0,168651.8,-96.69696,71.8721
2154.4346900318824,354084.0,-59.68395,71.8745
4641.588833612777,325197.6,-77.92246,71.8747
10000.0,126052.2,-89.523,71.8724
