Frequency,Impedance,Phase Angle,Temperature (Dry Bath)
10.0,28721140.0,-20.35793,68.0213
21.5,37395910.0,-21.93691,68.0193
46.4,30983370.0,-38.16023,68.0241
100.0,5307296.0,-31.37568,68.0192
215.4,4641799.0,-59.22991,68.0106
464.2,2235696.0,-69.30233,68.0167
1000.0,1601942.0,-85.22631,68.0169
2154.4,644547.1,-87.28987,68.0346
4641.6,301901.4,-93.57586,68.0445
10000.0,137328.5,-98.64487,68.0316
