Frequency,Impedance,Phase Angle,Temperature (Dry Bath)
10.0,26149780.0,-22.10009,17.6042
21.5,24783670.0,-17.0102,17.6063
46.4,18980350.0,-56.14789,17.6001
100.0,4467934.0,-38.98425,17.6066
215.4,3497210.0,-66.91643,17.6084
464.2,3194095.0,-77.10099,17.6141
1000.0,1193007.0,-84.47912,17.597
2154.4,579801.1,-85.23534,17.5954
4641.6,301380.4,-81.99706,17.6086
10000.0,145379.2,-94.83645,17.6049
