Frequency,Impedance,Phase Angle,Temperature (Dry Bath)
10.0,120002.9,-4.207523,67.1824
21.5,117447.9,-3.637301,67.2005
46.4,114937.4,-3.28912,67.1814
100.0,113074.3,-4.748301,67.1739
215.4,113010.0,-4.140553,67.1693
464.2,111808.7,-6.248389,67.1981
1000.0,106916.8,-9.94026,67.1749
2154.4,100331.5,-14.83345,67.1866
4641.6,88662.84,-25.77476,67.1827
10000.0,70179.76,-41.05797,67.1959
