Frequency,Impedance,Phase Angle,Temperature (Dry Bath)
10.0,28029230.0,-16.58676,67.4164
21.5,24518600.0,-24.3415,67.4349
46.4,11388720.0,-46.1403,67.4131
100.0,31201630.0,-38.00896,67.4125
215.4,101109.9,92.43969,67.4088
464.2,2946092.0,-85.56184,67.4176
1000.0,1351098.0,-76.61589,67.4038
2154.4,618416.8,-89.90364,67.4123
4641.6,246907.7,-85.15787,67.4184
10000.0,124144.8,-84.9473,67.409
