Frequency,Impedance,Phase Angle,Temperature (Dry Bath)
10.0,1669821.0,-20.29725,67.4049
21.5,1487244.0,-17.37806,67.416
46.4,1342282.0,-16.97764,67.4143
100.0,1014296.0,-16.07425,67.3936
215.4,2815932.0,41.37838,67.4011
464.2,982667.0,-17.37204,67.4079
1000.0,751456.0,-45.85945,67.3977
2154.4,488388.1,-60.43467,67.4078
4641.6,245206.6,-73.07103,67.3956
10000.0,126174.1,-78.95059,67.4142
