Frequency,Impedance,Phase Angle,Temperature (Dry Bath)
10.0,32295220.0,-9.713177,67.0917
21.5,25840670.0,-24.33361,67.0993
46.4,18973340.0,-56.39797,67.0831
100.0,10321390.0,114.1796,67.087
215.4,6482576.0,-102.1016,67.0793
464.2,2153047.0,-67.7093,67.1063
1000.0,1134897.0,-92.83412,67.1046
2154.4,541279.0,-82.73809,67.0963
4641.6,264019.6,-88.74315,67.0967
10000.0,122859.7,-86.90666,67.0936
