Frequency,Impedance,Phase Angle,Temperature (Dry Bath)
10.0,172754.9,-11.73691,65.8238
21.544346900318832,156072.7,-10.88572,65.8173
46.41588833612777,144206.4,-10.11978,65.8225
100.0,129493.0,-21.11559,65.8331
215.44346900318823,161524.2,-19.29208,65.833
464.15888336127773,108536.0,-19.453,65.8252
1000.0,106091.0,-10.26663,65.8392
2154.4346900318824,83277.0,-16.86714,65.8273
4641.588833612777,74871.79,-31.96595,65.8405
10000.0,54625.29,-55.10543,65.8285
