Frequency,Impedance,Phase Angle,Temperature (Dry Bath)
10.0,26495970.0,-10.35092,17.6033
21.5,24193610.0,-36.35177,17.6127
46.4,21544790.0,-54.63425,17.6104
100.0,3404052.0,-65.44342,17.6049
215.4,4230176.0,-63.46524,17.6238
464.2,1892091.0,-77.14639,17.6024
1000.0,1061823.0,-78.68,17.5924
2154.4,583502.2,-87.15244,17.6094
4641.6,270268.0,-88.78036,17.5999
10000.0,136130.4,-96.61846,17.6028
