Frequency,Impedance,Phase Angle,Temperature (Dry Bath)
10.0,30977480.0,-19.23954,67.0732
21.5,24204060.0,-44.1798,67.0741
46.4,17168930.0,-55.08929,67.0789
100.0,4417035.0,-63.05825,67.0634
215.4,7655677.0,-161.416,67.0847
464.2,2216910.0,-65.31241,67.077
1000.0,1178040.0,-87.27991,67.0837
2154.4,528484.3,-90.83889,67.0779
4641.6,255627.7,-87.33046,67.0674
10000.0,124197.6,-82.70437,67.0736
