Frequency,Impedance,Phase Angle,Temperature (Dry Bath)
10.0,146910.8,-4.908386,67.9651
21.5,142447.9,-4.195499,67.9521
46.4,138872.7,-3.742178,67.9711
100.0,132856.2,-3.831596,67.9643
215.4,135345.7,-4.350769,67.9583
464.2,129645.6,-6.526545,67.9535
1000.0,127228.2,-9.554334,67.9582
2154.4,119881.5,-17.12856,67.9597
4641.6,106761.6,-26.95581,67.9604
10000.0,83313.73,-49.50565,67.9541
