Frequency,Impedance,Phase Angle,Temperature (Dry Bath)
10.0,15397190.0,-10.93757,67.9971
21.5,20733320.0,-21.10157,67.9872
46.4,22025030.0,-60.22725,67.9957
100.0,4173980.0,-10.13127,67.9955
215.4,5985870.0,-71.66411,67.9977
464.2,2410014.0,-69.89526,67.9894
1000.0,1262470.0,-78.41795,68.0081
2154.4,623971.7,-82.83555,67.997
4641.6,289672.3,-82.97393,67.9971
10000.0,150783.3,-94.89325,68.0045
