Frequency,Impedance,Phase Angle,Temperature (Dry Bath)
10.0,33267110.0,-38.71322,67.2974
21.5,36020620.0,-18.05066,67.2899
46.4,18278190.0,-51.42791,67.2851
100.0,6170216.0,-101.0061,67.2861
215.4,5026678.0,-59.2017,67.2912
464.2,1644069.0,-90.36178,67.2847
1000.0,921352.1,-63.62053,67.2771
2154.4,615579.3,-89.50218,67.292
4641.6,274121.1,-86.28155,67.2653
10000.0,135845.8,-85.041,67.2658
