Frequency,Impedance,Phase Angle,Temperature (Dry Bath)
10.0,30846130.0,-14.21417,67.289
21.5,22027030.0,-46.11319,67.2985
46.4,15848310.0,-50.11399,67.2832
100.0,2995078.0,-75.24778,67.3106
215.4,2376904.0,81.52723,67.2985
464.2,2235688.0,-86.72824,67.2914
1000.0,1132481.0,-86.40133,67.2923
2154.4,535499.4,-84.65434,67.2865
4641.6,262117.7,-82.62559,67.2854
10000.0,130868.4,-84.89913,67.295
