Frequency,Impedance,Phase Angle,Temperature (Dry Bath)
10.0,3821804.0,1.97691,71.2233
21.544346900318832,5861737.0,0.293989,71.232
46.41588833612777,4698681.0,-20.30478,71.2276
100.0,402365.3,-57.36817,71.225
215.44346900318823,962278.1,27.14422,71.222
464.15888336127773,767666.6,-42.58992,71.2368
1000.0,339451.0,-52.77406,71.2388
2154.4346900318824,220354.2,-90.27955,71.2346
4641.588833612777,153593.4,-92.15163,71.2208
10000.0,63947.7,-85.03144,71.2365
