Frequency,Impedance,Phase Angle,Temperature (Dry Bath)
10.0,2178320.0,-10.07568,71.3496
21.544346900318832,2642837.0,-4.436141,71.3401
46.41588833612777,1814414.0,-17.87813,71.3522
100.0,242105.0,17.29174,71.3592
215.44346900318823,332041.5,-23.92269,71.3487
464.15888336127773,1383475.0,154.8247,71.3673
1000.0,533651.7,-104.7518,71.3594
2154.4346900318824,444877.2,-42.7161,71.353
4641.588833612777,131403.2,-74.89387,71.3655
10000.0,69253.37,-79.27182,71.3583
