Frequency,Impedance,Phase Angle,Temperature (Dry Bath)
10.0,7870112.0,-23.50347,65.6943
21.544346900318832,3726171.0,5.752856,65.6792
46.41588833612777,6139727.0,-34.7228,65.6785
100.0,1410399.0,-62.07501,65.6914
215.44346900318823,14849.59,54.89863,65.7066
464.15888336127773,342742.5,-106.1729,65.7079
1000.0,395659.0,-59.73237,65.6819
2154.4346900318824,365924.1,-87.08506,65.6924
4641.588833612777,262725.7,-79.47906,65.6962
10000.0,67434.83,-80.19913,65.6938
