Frequency,Impedance,Phase Angle,Temperature (Dry Bath)
10.0,5801809.0,-10.11634,67.9104
21.5,6034683.0,-12.8742,67.9093
46.4,7981947.0,-22.32583,67.9142
100.0,3067820.0,-38.36437,67.8944
215.4,3824588.0,-24.01106,67.8968
464.2,2138250.0,-69.7328,67.8951
1000.0,1151651.0,-78.53097,67.9105
2154.4,600293.9,-80.77377,67.9293
4641.6,291013.0,-88.98796,67.9127
10000.0,135550.5,-90.56053,67.9005
