Frequency,Impedance,Phase Angle,Temperature (Dry Bath)
10.0,148311.7,-4.836814,67.894
21.5,142979.3,-4.009567,67.8958
46.4,140154.2,-3.76199,67.9
100.0,136797.8,-5.04907,67.8987
215.4,135650.7,-3.771071,67.9043
464.2,131354.1,-5.381427,67.8986
1000.0,129180.0,-10.20819,67.9086
2154.4,120598.2,-16.1669,67.9058
4641.6,107180.0,-29.54122,67.8924
10000.0,86570.25,-49.72094,67.9186
