Frequency,Impedance,Phase Angle,Temperature (Dry Bath)
10.0,55058620.0,-14.00302,68.1376
21.5,30942120.0,-35.22938,68.1266
46.4,12760270.0,-52.13469,68.1406
100.0,6275097.0,-17.28444,68.1222
215.4,4339820.0,-68.00631,68.1382
464.2,2771550.0,-81.03961,68.1391
1000.0,1207088.0,-88.08376,68.1293
2154.4,601798.4,-80.27741,68.148
4641.6,277560.3,-89.15239,68.1196
10000.0,136491.7,-95.07887,68.1437
