Frequency,Impedance,Phase Angle,Temperature (Dry Bath)
10.0,1408747.0,-15.77467,67.9907
21.5,1245906.0,-14.08905,68.0007
46.4,1092105.0,-13.45082,67.9995
100.0,940191.9,-12.3001,67.9961
215.4,890048.6,-12.93116,67.99
464.2,1050668.0,-28.39016,67.9932
1000.0,664037.9,-33.3696,68.0143
2154.4,486552.9,-55.4744,68.0116
4641.6,263106.4,-71.18227,68.0073
10000.0,128767.7,-89.76783,68.0065
