Frequency,Impedance,Phase Angle,Temperature (Dry Bath)
10.0,17900580.0,-24.1987,67.9687
21.5,19249660.0,-26.74276,67.9687
46.4,16881340.0,-51.41403,67.9687
100.0,6321557.0,-42.3898,67.9687
215.4,8890239.0,-113.4279,67.9687
464.2,2826300.0,-71.67994,67.9687
1000.0,1322783.0,-89.12827,67.9687
2154.4,737869.4,-91.17855,67.9687
4641.6,303489.4,-87.3636,67.9687
10000.0,138673.4,-96.2024,67.9687
