Frequency,Impedance,Phase Angle,Temperature (Dry Bath)
10.0,26686160.0,-14.86379,68.2653
21.5,16346510.0,-3.514824,68.2617
46.4,21577970.0,-56.26311,68.2586
100.0,11379020.0,-28.4187,68.262
215.4,5389998.0,-74.46888,68.2595
464.2,2449863.0,-72.67208,68.2717
1000.0,1245592.0,-86.84704,68.2517
2154.4,586135.9,-86.03718,68.2485
4641.6,270176.9,-89.09234,68.2605
10000.0,128506.9,-93.43415,68.2675
