Frequency,Impedance,Phase Angle,Temperature (Dry Bath)
10.0,16901490.0,-16.23578,68.0692
21.5,25043680.0,-23.46402,68.0692
46.4,20942390.0,-51.26221,68.0692
100.0,8341544.0,-46.97276,68.0692
215.4,5170656.0,-84.47956,68.0692
464.2,2703115.0,-81.79137,68.0692
1000.0,1510600.0,-87.42987,68.0692
2154.4,683223.9,-87.32196,68.0692
4641.6,319720.3,-93.49257,68.0692
10000.0,147149.6,-99.02975,68.0692
