Frequency,Impedance,Phase Angle,Temperature (Dry Bath)
10.0,26621260.0,-24.15341,67.195
21.5,28354390.0,-17.55221,67.1958
46.4,22843910.0,-47.63037,67.2059
100.0,4583008.0,-35.34505,67.1998
215.4,7163133.0,-54.96803,67.173
464.2,2507233.0,-97.45777,67.1945
1000.0,1000392.0,-91.54091,67.1838
2154.4,640731.4,-92.751,67.1889
4641.6,282566.7,-85.50047,67.1888
10000.0,128344.0,-85.91146,67.2114
