Frequency,Impedance,Phase Angle,Temperature (Dry Bath)
10.0,482249.5,-28.35273,65.7556
21.544346900318832,378609.8,-26.97552,65.7539
46.41588833612777,297855.4,-25.98182,65.7469
100.0,174022.5,-11.58752,65.7562
215.44346900318823,12325.67,-114.6743,65.7611
464.15888336127773,164217.7,-33.6303,65.7654
1000.0,119237.8,-31.43926,65.7541
2154.4346900318824,111628.1,-43.1227,65.7453
4641.588833612777,78776.0,-47.36986,65.7566
10000.0,53154.75,-63.43491,65.7509
