Frequency,Impedance,Phase Angle,Temperature (Dry Bath)
10.0,7746404.0,-7.183521,67.2927
21.5,6995844.0,-8.734586,67.2926
46.4,6696181.0,-21.40643,67.2881
100.0,5989808.0,-36.27854,67.2786
215.4,202860.4,128.2313,67.2854
464.2,2035338.0,-52.30473,67.3046
1000.0,1258973.0,-63.30585,67.2979
2154.4,549846.3,-85.45196,67.3052
4641.6,263820.0,-83.39755,67.2974
10000.0,121571.0,-84.15544,67.306
