Frequency,Impedance,Phase Angle,Temperature (Dry Bath)
10.0,4635585.0,0.6716191,65.6789
21.544346900318832,3640575.0,7.477533,65.66
46.41588833612777,4898052.0,3.879278,65.6426
100.0,822164.2,-137.6085,65.6459
215.44346900318823,19909.63,158.5051,65.6782
464.15888336127773,743704.3,-40.6442,65.6843
1000.0,388488.0,-121.0472,65.6783
2154.4346900318824,389144.1,-95.71623,65.6871
4641.588833612777,145062.8,-85.03899,65.6662
10000.0,78234.31,-98.13006,65.6719
