Frequency,Impedance,Phase Angle,Temperature (Dry Bath)
10.0,8766487.0,23.36937,71.4377
21.544346900318832,4700820.0,-10.33617,71.4225
46.41588833612777,4443382.0,-1.341544,71.4252
100.0,248865.0,127.8308,71.4273
215.44346900318823,1397804.0,33.05618,71.4244
464.15888336127773,3834001.0,20.86311,71.4185
1000.0,285798.8,73.93232,71.4249
2154.4346900318824,222599.8,-76.79666,71.4321
4641.588833612777,117848.1,-75.60481,71.4274
10000.0,60500.86,-92.26091,71.4454
