Frequency,Impedance,Phase Angle,Temperature (Dry Bath)
10.0,135464.0,-19.37868,67.9492
21.5,118512.0,-16.51396,67.9606
46.4,105950.7,-14.54292,67.958
100.0,95568.05,-14.4043,67.9543
215.4,87846.06,-11.54703,67.939
464.2,82819.8,-12.5192,67.9651
1000.0,76676.19,-11.98697,67.9563
2154.4,71149.05,-15.88826,67.9688
4641.6,63729.54,-23.6981,67.9586
10000.0,54176.51,-35.35733,67.9497
