Frequency,Impedance,Phase Angle,Temperature (Dry Bath)
10.0,24380510.0,-19.23249,68.1238
21.5,25740930.0,-33.62097,68.1366
46.4,25308480.0,-47.61398,68.1557
100.0,8394978.0,-42.91287,68.1394
215.4,4922189.0,-91.66417,68.1514
464.2,2836831.0,-83.28346,68.1398
1000.0,1376965.0,-80.96688,68.1537
2154.4,623407.8,-87.62252,68.1391
4641.6,309612.0,-96.22051,68.1426
10000.0,150072.3,-94.46695,68.1431
