Frequency,Impedance,Phase Angle,Temperature (Dry Bath)
10.0,18725530.0,-36.81442,68.1803
21.5,27698520.0,-35.22988,68.1913
46.4,23772960.0,-50.50089,68.1807
100.0,6163755.0,-56.37079,68.1725
215.4,3128190.0,-103.2622,68.1832
464.2,2044403.0,-70.57536,68.166
1000.0,962638.1,-86.40278,68.1619
2154.4,509824.7,-80.67863,68.1768
4641.6,253385.3,-87.378,68.1761
10000.0,143141.5,-88.87796,68.1882
