Frequency,Impedance,Phase Angle,Temperature (Dry Bath)
10.0,116264.8,-3.13523,67.3643
21.5,113919.5,-2.583954,67.3586
46.4,112057.6,-2.474739,67.3536
100.0,107715.9,-2.519891,67.3541
215.4,109986.1,-1.624244,67.3552
464.2,106450.8,-4.517859,67.3617
1000.0,103024.0,-7.92332,67.3662
2154.4,100311.5,-14.05256,67.3569
4641.6,88771.69,-25.24776,67.366
10000.0,69919.11,-41.84934,67.3632
