Frequency,Impedance,Phase Angle,Temperature (Dry Bath)
10.0,154119.3,-13.43496,71.0726
21.544346900318832,139193.6,-12.99443,71.0713
46.41588833612777,124562.0,-11.9155,71.0655
100.0,84939.84,0.2635641,71.0578
215.44346900318823,97673.94,-12.04579,71.0719
464.15888336127773,76842.99,-19.05516,71.0605
1000.0,86091.12,-19.29582,71.0644
2154.4346900318824,78024.36,-24.70138,71.0772
4641.588833612777,64105.26,-34.38918,71.0688
10000.0,47422.98,-56.33907,71.0673
