Frequency,Impedance,Phase Angle,Temperature (Dry Bath)
10.0,5313747.0,-2.156786,65.7983
21.544346900318832,5386606.0,-28.68693,65.7812
46.41588833612777,4571379.0,-26.55781,65.804
100.0,504316.3,-147.1122,65.7944
215.44346900318823,9836.729,-102.8461,65.8032
464.15888336127773,683702.8,-50.15229,65.7983
1000.0,284903.0,-119.2616,65.805
2154.4346900318824,248694.3,-74.79499,65.8034
4641.588833612777,128660.7,-83.03956,65.8103
10000.0,59015.94,-83.43917,65.7961
