Frequency,Impedance,Phase Angle,Temperature (Dry Bath)
10.0,1466328.0,-18.14121,67.4157
21.5,1295556.0,-15.36687,67.4151
46.4,1192199.0,-14.96552,67.4105
100.0,902680.7,-17.48661,67.4092
215.4,229887.9,-13.33038,67.4015
464.2,949247.7,-22.86784,67.43
1000.0,690360.1,-46.28605,67.4072
2154.4,449315.4,-60.76586,67.4172
4641.6,218765.7,-69.74811,67.4242
10000.0,111721.7,-79.17404,67.4111
