Frequency,Impedance,Phase Angle,Temperature (Dry Bath)
10.0,38588.97,-14.34085,70.6599
21.544346900318832,35071.35,-12.42976,70.6689
46.41588833612777,32280.39,-11.1917,70.6859
100.0,29817.89,-8.345216,70.6909
215.44346900318823,27135.15,-11.35537,70.697
464.15888336127773,25870.93,-9.65332,70.6774
1000.0,25011.5,-8.925202,70.6874
2154.4346900318824,23138.64,-13.22011,70.6874
4641.588833612777,20477.12,-17.72554,70.6841
10000.0,18954.13,-24.71786,70.6818
