Frequency,Impedance,Phase Angle,Temperature (Dry Bath)
10.0,21315470.0,-5.440675,67.9363
21.5,25356060.0,-36.31942,67.9339
46.4,30833090.0,-40.98189,67.9319
100.0,11344430.0,-64.08401,67.9403
215.4,4269564.0,-81.08456,67.9338
464.2,2134052.0,-82.85925,67.9261
1000.0,1354833.0,-80.93564,67.9241
2154.4,626445.5,-85.37783,67.9342
4641.6,299088.6,-94.86119,67.9354
10000.0,123795.1,-97.61895,67.9309
