Frequency,Impedance,Phase Angle,Temperature (Dry Bath)
10.0,21207350.0,-17.91239,67.5012
21.5,19756900.0,-41.76367,67.5061
46.4,12819550.0,-75.11078,67.5032
100.0,3246749.0,62.0379,67.5009
215.4,150725.5,-8.722478,67.506
464.2,1502338.0,-89.82379,67.5151
1000.0,850600.7,-83.96484,67.4821
2154.4,445193.1,-83.44266,67.4977
4641.6,218529.3,-80.68119,67.5018
10000.0,108503.2,-79.69974,67.497
