Frequency,Impedance,Phase Angle,Temperature (Dry Bath)
10.0,5583081.0,-6.773538,65.817
21.544346900318832,5357328.0,-21.43546,65.8284
46.41588833612777,4623738.0,-27.83332,65.8359
100.0,348597.5,-148.0876,65.839
215.44346900318823,856054.5,-87.53886,65.8152
464.15888336127773,973069.7,-63.5507,65.8164
1000.0,225619.3,-48.56417,65.817
2154.4346900318824,711070.1,-46.18707,65.8215
4641.588833612777,109567.0,-84.88426,65.8076
10000.0,63728.92,-84.58483,65.8271
