Frequency,Impedance,Phase Angle,Temperature (Dry Bath)
10.0,23492530.0,-21.80513,68.0835
21.5,25863990.0,-22.93738,68.0822
46.4,33511990.0,-47.91487,68.0767
100.0,4285434.0,-16.77058,68.0795
215.4,3886093.0,-68.65164,68.0625
464.2,3920541.0,-54.16311,68.0736
1000.0,1467018.0,-82.68762,68.073
2154.4,651555.8,-91.19093,68.0835
4641.6,299424.3,-90.08831,68.0625
10000.0,143963.3,-101.5883,68.0748
