Frequency,Impedance,Phase Angle,Temperature (Dry Bath)
10.0,1477031.0,-14.94762,68.1264
21.5,1310528.0,-12.69898,68.1358
46.4,1135577.0,-12.95225,68.1358
100.0,1006046.0,-28.37572,68.1402
215.4,970583.5,-18.49815,68.1228
464.2,896961.5,-21.81326,68.1426
1000.0,743552.3,-37.50673,68.1413
2154.4,463828.1,-53.12235,68.1303
4641.6,280189.8,-73.73472,68.1486
10000.0,130332.9,-90.471,68.1414
