Frequency,Impedance,Phase Angle,Temperature (Dry Bath)
10.0,116539.7,-16.41398,67.992
21.5,104291.3,-14.3482,67.9828
46.4,94641.78,-12.7829,67.9863
100.0,88087.98,-12.0757,67.99
215.4,80763.68,-10.58404,67.9826
464.2,75351.63,-10.35531,67.9819
1000.0,70213.68,-12.92432,67.9932
2154.4,66561.37,-14.81788,67.9827
4641.6,60436.15,-20.46762,67.9759
10000.0,52213.68,-32.16167,67.9707
