Frequency,Impedance,Phase Angle,Temperature (Dry Bath)
10.0,167663.3,-12.01401,65.6471
21.544346900318832,157291.5,-11.33963,65.6673
46.41588833612777,143523.5,-10.3141,65.6762
100.0,118517.2,11.10092,65.6804
215.44346900318823,14790.64,21.06205,65.679
464.15888336127773,114436.8,-2.422917,65.6866
1000.0,112904.9,-13.25178,65.681
2154.4346900318824,88289.13,-25.17204,65.6761
4641.588833612777,92223.65,-33.11051,65.6968
10000.0,53473.16,-61.03888,65.6753
