Frequency,Impedance,Phase Angle,Temperature (Dry Bath)
10.0,29619380.0,-3.07143,67.4691
21.5,25007050.0,-30.78451,67.4846
46.4,17951090.0,-52.80295,67.4707
100.0,4191060.0,-37.07402,67.4753
215.4,107255.3,-70.11465,67.4749
464.2,2168938.0,-93.51631,67.4575
1000.0,868394.5,-91.54422,67.484
2154.4,562068.2,-84.88589,67.4878
4641.6,262118.2,-84.97804,67.478
10000.0,128726.7,-85.57534,67.4758
