Frequency,Impedance,Phase Angle,Temperature (Dry Bath)
10.0,116675.9,-3.068804,67.1314
21.5,114311.1,-2.6321,67.1454
46.4,112683.9,-2.442562,67.1221
100.0,109717.7,-2.643373,67.132
215.4,112407.7,-2.550643,67.1341
464.2,108001.0,-6.516374,67.122
1000.0,100378.0,-7.942953,67.1397
2154.4,100591.2,-14.31569,67.1436
4641.6,89281.29,-25.02222,67.132
10000.0,71679.73,-42.08214,67.1477
