Frequency,Impedance,Phase Angle,Temperature (Dry Bath)
10.0,121130.5,-3.289755,67.4585
21.5,119363.5,-3.056422,67.4582
46.4,117687.7,-3.041455,67.4608
100.0,116567.6,-2.225022,67.4596
215.4,114830.5,-5.077018,67.45
464.2,111747.5,-5.656556,67.4575
1000.0,108493.3,-7.223989,67.4522
2154.4,102928.6,-14.15344,67.4597
4641.6,92508.98,-23.31621,67.4636
10000.0,73811.12,-40.00593,67.467
