Frequency,Impedance,Phase Angle,Temperature (Dry Bath)
10.0,112158.1,-3.106589,67.3275
21.5,110144.6,-2.60773,67.3262
46.4,108337.1,-2.450219,67.3301
100.0,106049.6,-2.575453,67.3201
215.4,107706.6,-3.892598,67.3409
464.2,103852.6,-4.926164,67.3468
1000.0,101169.2,-7.569907,67.34
2154.4,96643.16,-14.34617,67.3306
4641.6,86171.73,-23.36402,67.3457
10000.0,69538.6,-40.34019,67.3517
