Frequency,Impedance,Phase Angle,Temperature (Dry Bath)
10.0,37081.5,-15.97453,70.833
21.544346900318832,32850.2,-14.65712,70.847
46.41588833612777,29210.44,-13.38458,70.8161
100.0,26359.5,-13.60109,70.831
215.44346900318823,24700.8,-11.0478,70.8164
464.15888336127773,21885.07,-8.775212,70.8355
1000.0,20094.03,-9.533589,70.8262
2154.4346900318824,18673.81,-12.82082,70.8266
4641.588833612777,17431.02,-14.46398,70.8331
10000.0,15465.67,-25.04151,70.8234
