Frequency,Impedance,Phase Angle,Temperature (Dry Bath)
10.0,4793383.0,-0.8215537,71.3365
21.544346900318832,6928747.0,4.596565,71.3256
46.41588833612777,5238624.0,-38.52071,71.3232
100.0,1023182.0,-45.82372,71.3437
215.44346900318823,513817.9,79.46836,71.3362
464.15888336127773,863918.6,-94.38554,71.3361
1000.0,224220.6,-52.96762,71.3221
2154.4346900318824,217179.5,-58.43234,71.3354
4641.588833612777,120816.2,-88.36156,71.3345
10000.0,66132.93,-81.87885,71.3221
