Frequency,Impedance,Phase Angle,Temperature (Dry Bath)
10.0,354591.6,-26.08458,65.6944
21.544346900318832,285136.6,-23.55418,65.6832
46.41588833612777,236057.1,-20.39186,65.6779
100.0,153771.6,-124.6931,65.6804
215.44346900318823,163436.8,-40.19112,65.6968
464.15888336127773,159957.8,-19.67229,65.6749
1000.0,116027.6,-18.28439,65.6979
2154.4346900318824,100048.0,-44.04806,65.6943
4641.588833612777,77566.19,-42.48914,65.6942
10000.0,49611.55,-58.76616,65.6935
