Frequency,Impedance,Phase Angle,Temperature (Dry Bath)
10.0,5488615.0,5.670288,71.1865
21.544346900318832,5494829.0,-38.63019,71.1894
46.41588833612777,5057062.0,-32.66124,71.1898
100.0,616310.0,-63.89767,71.1777
215.44346900318823,894350.0,-51.69222,71.1899
464.15888336127773,737493.4,-111.3092,71.2039
1000.0,366728.5,-75.6385,71.1954
2154.4346900318824,227697.0,-84.90557,71.1949
4641.588833612777,128976.0,-70.23606,71.1921
10000.0,62392.95,-84.94013,71.1802
