Frequency,Impedance,Phase Angle,Temperature (Dry Bath)
10.0,50855.71,-34.38507,67.1609
21.5,38968.42,-30.57075,67.1611
46.4,31249.3,-26.65716,67.1356
100.0,26028.6,-22.88695,67.1658
215.4,22666.59,-20.13632,67.1437
464.2,19866.97,-16.58403,67.1406
1000.0,17771.02,-14.25913,67.129
2154.4,16269.47,-12.83157,67.1363
4641.6,14903.8,-12.69877,67.1526
10000.0,13756.5,-14.3088,67.1323
