Frequency,Impedance,Phase Angle,Temperature (Dry Bath)
10.0,3814414.0,16.39261,71.123
21.544346900318832,4476587.0,-2.825245,71.1283
46.41588833612777,3900293.0,-6.240132,71.1234
100.0,3744713.0,2.691375,71.1272
215.44346900318823,603912.5,77.16041,71.122
464.15888336127773,512524.9,-16.75424,71.1193
1000.0,443598.4,-72.3385,71.1247
2154.4346900318824,258409.0,-72.59948,71.1139
4641.588833612777,100822.1,-75.31279,71.1222
10000.0,65666.41,-88.43733,71.1225
