Frequency,Impedance,Phase Angle,Temperature (Dry Bath)
10.0,152049.3,-4.717423,67.7659
21.5,147616.8,-3.957078,67.7634
46.4,144390.8,-3.687923,67.7569
100.0,135861.6,-4.741378,67.7551
215.4,136801.7,-4.22519,67.7586
464.2,133630.0,-4.127972,67.7528
1000.0,129814.4,-11.96101,67.7488
2154.4,121155.2,-17.82315,67.7542
4641.6,108669.6,-29.53264,67.7662
10000.0,92215.1,-48.18932,67.754
