Frequency,Impedance,Phase Angle,Temperature (Dry Bath)
10.0,4537234.0,-2.941809,71.2966
21.544346900318832,9997398.0,0.1287187,71.3023
46.41588833612777,4673121.0,-7.186518,71.3102
100.0,2823266.0,-50.49678,71.3078
215.44346900318823,1045906.0,-124.3514,71.2975
464.15888336127773,240522.2,-79.29103,71.2921
1000.0,670582.3,-76.87516,71.3244
2154.4346900318824,214215.7,-97.80098,71.3045
4641.588833612777,125172.5,-86.64754,71.3118
10000.0,75353.51,-88.72808,71.3013
