Frequency,Impedance,Phase Angle,Temperature (Dry Bath)
10.0,17867240.0,-4.814053,67.9026
21.5,23598090.0,-33.35059,67.9214
46.4,22187990.0,-44.62656,67.9389
100.0,13601320.0,-15.08332,67.9242
215.4,5030318.0,-59.44992,67.9246
464.2,1957457.0,-96.30309,67.9383
1000.0,1229987.0,-83.33698,67.9184
2154.4,663031.9,-83.64372,67.9374
4641.6,261609.1,-91.82841,67.9323
10000.0,129746.3,-92.57986,67.9339
