Frequency,Impedance,Phase Angle,Temperature (Dry Bath)
10.0,254364.2,-22.49764,67.1698
21.5,209950.4,-21.59434,67.1813
46.4,185170.4,-19.40877,67.1732
100.0,162201.2,-15.86062,67.1867
215.4,143728.8,-12.53966,67.1853
464.2,127630.3,-16.70821,67.1963
1000.0,111953.4,-19.13147,67.1806
2154.4,99971.54,-24.48207,67.1919
4641.6,80951.01,-31.78912,67.1989
10000.0,62027.34,-42.7715,67.1963
