Frequency,Impedance,Phase Angle,Temperature (Dry Bath)
10.0,4947880.0,-8.526297,66.6
21.544346900318832,3886128.0,-0.9605002,66.6
46.41588833612777,6767210.0,-27.18946,66.6
100.0,358526.3,-4.66307,66.6
215.44346900318823,1257447.0,171.1079,66.6
464.15888336127773,1023818.0,-25.85743,66.6
1000.0,1717143.0,-6.011248,66.6
2154.4346900318824,2062892.0,-27.09003,66.6
4641.588833612777,805011.4,149.3096,66.6
10000.0,1320550.0,18.99379,66.6
