Frequency,Impedance,Phase Angle,Temperature (Dry Bath)
10.0,25777200.0,-31.39734,67.7153
21.5,23661410.0,-27.52701,67.7257
46.4,13610210.0,-56.69007,67.7196
100.0,5080264.0,-69.27094,67.7122
215.4,4719030.0,-91.32025,67.7254
464.2,2236960.0,-72.91707,67.7127
1000.0,1181850.0,-72.65766,67.7145
2154.4,551298.1,-89.71021,67.7053
4641.6,263028.8,-90.92898,67.7154
10000.0,120746.0,-94.5092,67.7187
