Frequency,Impedance,Phase Angle,Temperature (Dry Bath)
10.0,26238740.0,-38.23423,68.1439
21.5,17252720.0,-46.40476,68.1439
46.4,17409450.0,-58.367,68.1439
100.0,6818684.0,-63.77211,68.1439
215.4,5574262.0,-65.58939,68.1439
464.2,3003687.0,-80.43173,68.1439
1000.0,1180754.0,-87.95693,68.1439
2154.4,604155.2,-88.60036,68.1439
4641.6,287640.3,-93.3968,68.1439
10000.0,130511.2,-93.15606,68.1439
