Frequency,Impedance,Phase Angle,Temperature (Dry Bath)
10.0,117561.8,-3.16126,67.099
21.5,115478.6,-2.609215,67.0958
46.4,113348.6,-2.499647,67.0963
100.0,111380.3,-2.079163,67.0814
215.4,109917.4,-3.014388,67.0793
464.2,109177.3,-4.525201,67.0876
1000.0,104323.8,-9.009922,67.0925
2154.4,100258.0,-14.65246,67.086
4641.6,90005.52,-24.83532,67.0888
10000.0,71531.1,-41.89548,67.0826
