Frequency,Impedance,Phase Angle,Temperature (Dry Bath)
10.0,48633620.0,-2.934397,67.1593
21.5,23762320.0,-38.19284,67.163
46.4,19318240.0,-53.70292,67.1813
100.0,41183030.0,161.3861,67.168
215.4,1776367.0,-62.02972,67.1972
464.2,4460258.0,-79.69066,67.1751
1000.0,1107209.0,-84.24241,67.1975
2154.4,586791.7,-81.60768,67.2149
4641.6,252720.9,-84.23406,67.2001
10000.0,133593.6,-83.68253,67.2202
