Frequency,Impedance,Phase Angle,Temperature (Dry Bath)
10.0,23349900.0,-14.11027,68.0032
21.5,19587430.0,-31.05136,68.0037
46.4,14351740.0,-47.64841,67.9961
100.0,21150910.0,-66.97014,67.9893
215.4,4018697.0,-61.76905,68.0045
464.2,2887844.0,-75.10603,67.9965
1000.0,1133025.0,-78.5857,68.0083
2154.4,640193.8,-89.94558,68.0117
4641.6,304580.7,-88.45155,67.9988
10000.0,146894.0,-96.81053,68.014
