Frequency,Impedance,Phase Angle,Temperature (Dry Bath)
10.0,117264.3,-3.170851,67.1588
21.5,114990.2,-2.540518,67.1482
46.4,113470.7,-2.637712,67.1615
100.0,111779.4,-2.773643,67.1408
215.4,117205.7,-3.339407,67.1445
464.2,108098.0,-6.406913,67.1521
1000.0,102825.7,-9.12964,67.1385
2154.4,101130.0,-14.90624,67.1452
4641.6,89574.99,-25.13132,67.1375
10000.0,70011.3,-42.51576,67.1572
