Frequency,Impedance,Phase Angle,Temperature (Dry Bath)
10.0,30038320.0,-9.203646,67.3174
21.5,22665440.0,-40.75344,67.328
46.4,13052700.0,-61.20204,67.3195
100.0,9612863.0,101.7542,67.331
215.4,13590750.0,157.0849,67.3108
464.2,1764054.0,-75.44763,67.3332
1000.0,996465.9,-87.90415,67.3225
2154.4,439493.9,-86.16608,67.3286
4641.6,224218.4,-82.37063,67.324
10000.0,105379.3,-81.15531,67.3252
