Frequency,Impedance,Phase Angle,Temperature (Dry Bath)
10.0,28878800.0,-13.32423,67.4451
21.5,26062540.0,-30.01457,67.4498
46.4,22581740.0,-54.91123,67.4511
100.0,8633451.0,-134.3392,67.4448
215.4,1481556.0,-57.80924,67.4405
464.2,2314985.0,-92.35192,67.449
1000.0,1453813.0,-82.26399,67.4471
2154.4,639679.8,-83.06912,67.4497
4641.6,274434.4,-83.66903,67.4515
10000.0,130392.6,-87.6675,67.4551
