Frequency,Impedance,Phase Angle,Temperature (Dry Bath)
10.0,39494210.0,-15.71759,68.3331
21.5,21417050.0,-27.29151,68.3267
46.4,16421690.0,-52.85521,68.3446
100.0,16649850.0,-52.24731,68.3476
215.4,4031599.0,-64.80769,68.3519
464.2,2764931.0,-93.04847,68.3516
1000.0,1500171.0,-88.87168,68.3427
2154.4,681303.2,-89.85723,68.3209
4641.6,315385.2,-98.40403,68.3333
10000.0,170819.2,-92.40166,68.3478
