Frequency,Impedance,Phase Angle,Temperature (Dry Bath)
10.0,24035830.0,-27.04404,67.4345
21.5,20749140.0,-29.41549,67.4417
46.4,12660810.0,-58.31771,67.4349
100.0,2333267.0,-98.4717,67.4368
215.4,3112452.0,-58.785,67.439
464.2,1596203.0,-80.63178,67.4544
1000.0,966424.7,-81.98901,67.4294
2154.4,448208.5,-83.87443,67.4506
4641.6,210159.4,-82.65315,67.4549
10000.0,106373.0,-80.73123,67.4516
