Frequency,Impedance,Phase Angle,Temperature (Dry Bath)
10.0,110607.8,-18.77812,67.2925
21.5,99743.97,-14.73548,67.3072
46.4,80914.8,-12.8211,67.2928
100.0,90195.46,-9.951347,67.3158
215.4,187323.2,-59.26915,67.3031
464.2,1004509.0,-15.73299,67.3137
1000.0,831742.7,-46.50166,67.3009
2154.4,532165.9,-80.33325,67.3102
4641.6,256934.5,-74.74865,67.3077
10000.0,124888.0,-81.88911,67.3344
