Frequency,Impedance,Phase Angle,Temperature (Dry Bath)
10.0,32856060.0,-8.266117,67.4423
21.5,30814940.0,-25.89597,67.429
46.4,15775730.0,-49.26918,67.4484
100.0,4617254.0,-133.2896,67.4337
215.4,4083905.0,-87.47758,67.4401
464.2,2956860.0,-72.3479,67.4396
1000.0,1023997.0,-90.93209,67.443
2154.4,678463.0,-91.8491,67.4408
4641.6,282871.2,-85.93612,67.4363
10000.0,128561.5,-87.67222,67.4316
