Frequency,Impedance,Phase Angle,Temperature (Dry Bath)
10.0,5901604.0,1.229063,71.2155
21.544346900318832,6846252.0,3.09642,71.2097
46.41588833612777,4774801.0,-33.37229,71.2034
100.0,242937.3,-154.1914,71.1988
215.44346900318823,1052680.0,-135.333,71.2091
464.15888336127773,460410.3,-29.01396,71.1965
1000.0,570514.6,-55.56025,71.2038
2154.4346900318824,338352.3,-35.2064,71.1948
4641.588833612777,102980.4,-75.57794,71.1884
10000.0,61842.54,-78.98852,71.1748
