Frequency,Impedance,Phase Angle,Temperature (Dry Bath)
10.0,1930903.0,-11.35585,68.0955
21.5,1869242.0,-11.15501,68.1114
46.4,1713028.0,-12.79966,68.102
100.0,1154077.0,-21.53147,68.1073
215.4,1276201.0,-18.3232,68.1208
464.2,1248840.0,-28.37503,68.1135
1000.0,875490.6,-43.65041,68.1065
2154.4,589697.9,-62.48946,68.1256
4641.6,314447.5,-80.00226,68.1286
10000.0,137876.0,-85.33316,68.118
