Frequency,Impedance,Phase Angle,Temperature (Dry Bath)
10.0,21346110.0,1.217388,67.536
21.5,21951510.0,-52.8564,67.5288
46.4,16282330.0,-55.57449,67.5246
100.0,9681738.0,134.9343,67.5244
215.4,1480119.0,-97.46535,67.5262
464.2,2074554.0,-68.11925,67.53
1000.0,1080063.0,-77.65958,67.5367
2154.4,517351.8,-83.2722,67.5423
4641.6,262857.2,-81.48539,67.524
10000.0,126090.4,-83.16073,67.5327
