Frequency,Impedance,Phase Angle,Temperature (Dry Bath)
10.0,17742010.0,-10.17979,68.1812
21.5,24024960.0,-26.47165,68.1854
46.4,16141280.0,-53.2685,68.1798
100.0,8705341.0,-45.58983,68.1994
215.4,4835026.0,-92.06831,68.1974
464.2,4842814.0,-98.18899,68.1931
1000.0,1296318.0,-85.43582,68.1852
2154.4,530393.0,-87.87446,68.1928
4641.6,286346.2,-88.50345,68.1883
10000.0,142772.4,-94.13329,68.1813
