Frequency,Impedance,Phase Angle,Temperature (Dry Bath)
10.0,1397589.0,-14.72489,67.8883
21.5,1215185.0,-14.31881,67.8834
46.4,1124116.0,-13.44911,67.8714
100.0,971453.4,-16.87154,67.8936
215.4,1057049.0,-15.70421,67.8981
464.2,844670.1,-24.63385,67.9044
1000.0,725752.4,-38.53274,67.9
2154.4,453543.0,-53.41464,67.9067
4641.6,239910.6,-75.86536,67.8944
10000.0,131556.3,-82.90552,67.8957
