Frequency,Impedance,Phase Angle,Temperature (Dry Bath)
10.0,6828761.0,-12.14411,71.0011
21.544346900318832,9711030.0,10.08552,70.9881
46.41588833612777,3870464.0,-22.74899,70.9964
100.0,571104.6,-40.23002,71.0036
215.44346900318823,921992.6,-21.01093,70.9754
464.15888336127773,413253.2,-95.09208,71.004
1000.0,361296.2,-81.83846,70.9805
2154.4346900318824,411395.7,-71.65785,71.0015
4641.588833612777,130863.1,-91.80164,70.9988
10000.0,68250.59,-82.40802,71.0213
