Frequency,Impedance,Phase Angle,Temperature (Dry Bath)
10.0,172700.4,-11.21379,65.8026
21.544346900318832,157989.0,-10.45596,65.8176
46.41588833612777,143106.4,-10.203,65.808
100.0,104935.8,-10.05491,65.8113
215.44346900318823,125100.5,-19.63971,65.8241
464.15888336127773,110789.3,-12.61276,65.8075
1000.0,114568.5,-18.04212,65.8151
2154.4346900318824,91722.01,-23.43267,65.8204
4641.588833612777,69419.53,-36.90589,65.8055
10000.0,54322.2,-46.67243,65.8191
