Frequency,Impedance,Phase Angle,Temperature (Dry Bath)
10.0,117520.3,-3.701266,67.1809
21.5,115425.4,-3.146713,67.2221
46.4,113886.5,-3.352285,67.2125
100.0,111362.6,-3.943142,67.2243
215.4,109718.8,-4.692935,67.1999
464.2,110210.9,-6.34498,67.206
1000.0,105836.0,-6.797307,67.2158
2154.4,101604.5,-14.58355,67.2275
4641.6,89074.5,-23.91644,67.2231
10000.0,72718.43,-40.93955,67.2579
