Frequency,Impedance,Phase Angle,Temperature (Dry Bath)
10.0,8142913.0,-18.37933,65.6678
21.544346900318832,5135459.0,6.462867,65.6397
46.41588833612777,5040700.0,-27.3552,65.6695
100.0,288282.9,5.323076,65.651
215.44346900318823,8898.697,83.21717,65.6549
464.15888336127773,583073.5,-62.14971,65.6602
1000.0,451778.5,-72.41863,65.6572
2154.4346900318824,264545.4,-105.2411,65.6533
4641.588833612777,127622.6,-73.5612,65.6484
10000.0,67512.41,-85.98638,65.6549
