Frequency,Impedance,Phase Angle,Temperature (Dry Bath)
10.0,1620315.0,-20.31198,67.0873
21.5,1423302.0,-17.15455,67.0791
46.4,1284340.0,-15.46332,67.0871
100.0,1207512.0,-23.08729,67.0805
215.4,107568.8,171.3617,67.0871
464.2,876851.5,-20.39974,67.083
1000.0,543407.7,-59.12263,67.0744
2154.4,427980.5,-63.8338,67.0697
4641.6,222386.3,-70.91836,67.0714
10000.0,108687.4,-79.2582,67.0885
