Frequency,Impedance,Phase Angle,Temperature (Dry Bath)
10.0,1492825.0,-19.18218,67.3544
21.5,1329119.0,-16.0065,67.3472
46.4,1236437.0,-15.07366,67.352
100.0,1181514.0,-1.393024,67.3436
215.4,1095922.0,-29.63585,67.3355
464.2,837821.3,-30.76546,67.3675
1000.0,700594.2,-47.66783,67.3525
2154.4,474249.7,-61.97374,67.3656
4641.6,218341.0,-73.69223,67.3343
10000.0,109631.8,-80.13651,67.3527
