Frequency,Impedance,Phase Angle,Temperature (Dry Bath)
10.0,1530103.0,-14.0712,68.1167
21.5,1413036.0,-13.75421,68.13
46.4,1223868.0,-14.12517,68.1329
100.0,1085789.0,-16.23204,68.1154
215.4,1031470.0,-19.46851,68.1188
464.2,865527.7,-26.79614,68.1233
1000.0,737565.1,-41.97723,68.1085
2154.4,464361.2,-64.97599,68.1109
4641.6,267249.3,-76.603,68.1389
10000.0,134240.3,-84.83382,68.1268
