Frequency,Impedance,Phase Angle,Temperature (Dry Bath)
10.0,4834319.0,5.984127,65.7443
21.544346900318832,5805816.0,14.03641,65.7612
46.41588833612777,3107850.0,-1.09273,65.757
100.0,988627.1,102.5493,65.7556
215.44346900318823,25198.74,-17.57099,65.7512
464.15888336127773,646183.8,-8.566992,65.737
1000.0,364726.5,-61.29938,65.7423
2154.4346900318824,376680.9,-71.88537,65.7623
4641.588833612777,160793.1,-86.64324,65.7375
10000.0,73818.85,-88.78868,65.7551
