Frequency,Impedance,Phase Angle,Temperature (Dry Bath)
10.0,505389.5,-4.601464,71.3853
21.544346900318832,478302.9,-2.403009,71.3958
46.41588833612777,463519.1,-2.687355,71.3981
100.0,401542.6,0.9244088,71.3911
215.44346900318823,501488.7,19.5936,71.3806
464.15888336127773,590828.9,-10.77566,71.3772
1000.0,436837.5,-57.0109,71.3926
2154.4346900318824,270213.4,-54.09225,71.3858
4641.588833612777,147192.3,-60.38123,71.3806
10000.0,102962.1,-69.18592,71.3769
