Frequency,Impedance,Phase Angle,Temperature (Dry Bath)
10.0,190062.6,-22.91513,67.8883
21.5,161821.7,-19.64291,67.8908
46.4,140216.0,-17.1622,67.9011
100.0,121931.0,-14.92893,67.8934
215.4,113223.3,-14.43206,67.8765
464.2,101964.9,-13.32026,67.8792
1000.0,94007.92,-14.18229,67.8849
2154.4,83166.43,-18.69127,67.887
4641.6,75744.39,-27.08558,67.9007
10000.0,63459.58,-40.86908,67.8906
