Frequency,Impedance,Phase Angle,Temperature (Dry Bath)
10.0,6716822.0,-20.78115,71.2596
21.544346900318832,5245292.0,-30.29125,71.2667
46.41588833612777,4845882.0,4.934089,71.2681
100.0,334102.8,-140.8614,71.273
215.44346900318823,13266.71,131.6394,71.2524
464.15888336127773,937010.1,35.99149,71.2565
1000.0,428841.7,-89.00985,71.2362
2154.4346900318824,241394.0,-86.90184,71.2734
4641.588833612777,158735.6,-85.61522,71.2593
10000.0,61920.55,-87.84387,71.2649
