Frequency,Impedance,Phase Angle,Temperature (Dry Bath)
10.0,21141920.0,-21.79683,68.0594
21.5,36977860.0,-28.6506,68.0563
46.4,34839500.0,-54.25565,68.0389
100.0,6479443.0,-47.39884,68.0367
215.4,10013810.0,-52.15737,68.0593
464.2,2641673.0,-66.34861,68.0487
1000.0,1306486.0,-77.29581,68.0438
2154.4,770391.7,-88.16728,68.0421
4641.6,357183.0,-92.00635,68.0367
10000.0,158527.6,-97.55181,68.0173
