Frequency,Impedance,Phase Angle,Temperature (Dry Bath)
10.0,178558.1,-12.28696,71.296
21.544346900318832,163937.5,-11.61838,71.2874
46.41588833612777,147670.6,-11.93993,71.2834
100.0,135957.8,-16.16188,71.2734
215.44346900318823,14614.56,-3.102255,71.2698
464.15888336127773,111373.8,-2.193182,71.2892
1000.0,98061.82,-16.64601,71.2946
2154.4346900318824,85109.47,-29.54526,71.267
4641.588833612777,74262.64,-41.13974,71.2796
10000.0,46686.03,-58.58259,71.2782
