Frequency,Impedance,Phase Angle,Temperature (Dry Bath)
10.0,3408285.0,-19.42841,70.9833
21.544346900318832,2910140.0,-27.35098,70.9833
46.41588833612777,2570568.0,-36.57976,70.9829
100.0,1131511.0,53.39093,70.998
215.44346900318823,948870.9,-71.83642,70.9818
464.15888336127773,695629.6,-91.77507,70.9856
1000.0,555252.8,-97.66498,70.9667
2154.4346900318824,348149.0,-43.58175,70.9904
4641.588833612777,128003.9,-95.14623,70.9855
10000.0,64815.64,-82.09626,70.9875
