Frequency,Impedance,Phase Angle,Temperature (Dry Bath)
10.0,26717230.0,-18.8185,67.0536
21.5,17434240.0,-35.24129,67.0456
46.4,11121350.0,-64.93557,67.0354
100.0,7109262.0,-134.4897,67.0396
215.4,2612439.0,-63.83501,67.067
464.2,1927063.0,-73.56816,67.0547
1000.0,839092.1,-87.11432,67.0565
2154.4,423092.6,-80.45489,67.07
4641.6,200881.0,-81.30736,67.0417
10000.0,101473.1,-81.21298,67.065
