Frequency,Impedance,Phase Angle,Temperature (Dry Bath)
10.0,179020.6,-12.71518,71.385
21.544346900318832,159971.1,-11.19685,71.4012
46.41588833612777,147286.2,-11.86858,71.4058
100.0,154874.1,-12.77288,71.3983
215.44346900318823,141092.4,-3.123446,71.3918
464.15888336127773,106903.3,-17.17411,71.3822
1000.0,131497.4,-7.00688,71.4103
2154.4346900318824,90242.25,-33.27307,71.3895
4641.588833612777,69927.08,-31.04566,71.3988
10000.0,52651.45,-52.31596,71.3964
