Frequency,Impedance,Phase Angle,Temperature (Dry Bath)
10.0,27560510.0,-24.32557,67.0506
21.5,28376500.0,-39.20465,67.0785
46.4,15120250.0,-63.45214,67.0842
100.0,12255850.0,-52.6941,67.0605
215.4,2060505.0,-72.56785,67.0809
464.2,2501797.0,-88.77653,67.0701
1000.0,748521.3,-72.58613,67.0729
2154.4,410267.2,-84.78394,67.0733
4641.6,206173.1,-83.43157,67.0569
10000.0,101518.1,-79.89729,67.0547
