Frequency,Impedance,Phase Angle,Temperature (Dry Bath)
10.0,176255.3,-12.76012,71.3132
21.544346900318832,157389.4,-12.58125,71.3126
46.41588833612777,143021.6,-12.17332,71.3203
100.0,138868.0,6.694786,71.3198
215.44346900318823,139242.7,-7.0727,71.3203
464.15888336127773,117593.5,-17.82671,71.2973
1000.0,105566.4,-18.72803,71.319
2154.4346900318824,94146.95,-14.8552,71.3216
4641.588833612777,69889.16,-41.30751,71.2993
10000.0,51414.31,-57.20516,71.323
