Frequency,Impedance,Phase Angle,Temperature (Dry Bath)
10.0,67364.32,-13.89834,71.9868
21.544346900318832,60567.18,-12.94607,71.9916
46.41588833612777,54508.13,-11.73908,71.9794
100.0,44402.89,-11.035,71.9792
215.44346900318823,40692.54,-5.127246,71.9827
464.15888336127773,43953.39,-6.271809,71.9805
1000.0,42231.74,-5.20159,71.9778
2154.4346900318824,37634.6,-8.343381,71.9704
4641.588833612777,35332.82,-11.84419,71.9774
10000.0,36037.47,-15.4536,71.9814
