Frequency,Impedance,Phase Angle,Temperature (Dry Bath)
10.0,174873.7,-12.69175,71.312
21.544346900318832,158364.5,-11.93564,71.3163
46.41588833612777,147672.1,-9.867868,71.2958
100.0,125625.0,-19.35817,71.3087
215.44346900318823,25592.6,23.90559,71.3269
464.15888336127773,106402.1,-6.637421,71.3105
1000.0,109088.3,-19.86558,71.3099
2154.4346900318824,81826.13,-14.29999,71.3151
4641.588833612777,82760.46,-44.0264,71.3148
10000.0,48631.19,-59.75591,71.3224
