Frequency,Impedance,Phase Angle,Temperature (Dry Bath)
10.0,1604861.0,-18.98645,67.0382
21.5,1401481.0,-16.95001,67.0253
46.4,1254178.0,-16.03956,67.0428
100.0,1168629.0,-7.046346,67.0379
215.4,838374.7,-20.79291,67.0304
464.2,1050491.0,-32.48822,67.0432
1000.0,660628.1,-49.94267,67.0364
2154.4,390395.8,-64.57439,67.042
4641.6,218515.2,-76.29035,67.0492
10000.0,112351.1,-79.30495,67.0499
