Frequency,Impedance,Phase Angle,Temperature (Dry Bath)
10.0,17790280.0,-10.31004,67.9519
21.5,17800970.0,-35.24777,67.9519
46.4,16090070.0,-53.02081,67.9519
100.0,4299862.0,-21.87324,67.9519
215.4,4035228.0,-59.25432,67.9519
464.2,2298204.0,-78.41436,67.9519
1000.0,1293274.0,-79.25616,67.9519
2154.4,578269.0,-80.3128,67.9519
4641.6,247396.7,-94.04925,67.9519
10000.0,129619.8,-96.21143,67.9519
