Frequency,Impedance,Phase Angle,Temperature (Dry Bath)
10.0,25435880.0,-20.83862,68.0477
21.5,33684390.0,-34.88755,68.0537
46.4,30465910.0,-46.79304,68.0657
100.0,4596129.0,-32.68635,68.0571
215.4,4385979.0,-73.6343,68.0658
464.2,2297703.0,-99.34104,68.0638
1000.0,1221973.0,-87.74657,68.0502
2154.4,631449.9,-87.94862,68.0631
4641.6,280828.4,-91.28675,68.0498
10000.0,132224.0,-95.26506,68.0354
