Frequency,Impedance,Phase Angle,Temperature (Dry Bath)
10.0,177744.6,-11.95669,66.242
21.544346900318832,160051.3,-11.08582,66.2391
46.41588833612777,146503.1,-10.82846,66.2379
100.0,93422.53,-12.19365,66.24
215.44346900318823,119503.2,-14.66018,66.2564
464.15888336127773,91664.31,-5.699338,66.2438
1000.0,74895.87,-6.648292,66.2475
2154.4346900318824,88308.86,-19.84821,66.2412
4641.588833612777,73366.58,-41.04438,66.2433
10000.0,52768.65,-48.9253,66.2481
