Frequency,Impedance,Phase Angle,Temperature (Dry Bath)
10.0,17150710.0,-19.67353,68.2338
21.5,18875780.0,-49.39273,68.2338
46.4,18619900.0,-39.19482,68.2338
100.0,7643893.0,-27.59759,68.2338
215.4,6952811.0,-86.45665,68.2338
464.2,3080211.0,-102.6493,68.2338
1000.0,1358356.0,-85.60304,68.2338
2154.4,644702.3,-89.75638,68.2338
4641.6,316770.5,-83.45793,68.2338
10000.0,146274.3,-97.01138,68.2338
