Frequency,Impedance,Phase Angle,Temperature (Dry Bath)
10.0,1607800.0,-13.71301,68.0523
21.5,1496541.0,-13.28235,68.0523
46.4,1339804.0,-13.48332,68.0523
100.0,1081463.0,-16.4206,68.0523
215.4,1144568.0,-12.25549,68.0523
464.2,1181533.0,-19.07677,68.0523
1000.0,748523.6,-39.1463,68.0523
2154.4,524274.7,-55.08047,68.0523
4641.6,304704.7,-75.40673,68.0523
10000.0,134066.0,-83.83251,68.0523
