Frequency,Impedance,Phase Angle,Temperature (Dry Bath)
10.0,31732960.0,-9.427959,67.1162
21.5,33166530.0,-25.81838,67.1168
46.4,17317890.0,-57.06452,67.1081
100.0,7943120.0,-126.8439,67.0979
215.4,4336357.0,-86.65881,67.1034
464.2,2435067.0,-80.32433,67.1081
1000.0,1040232.0,-78.27603,67.1035
2154.4,534920.9,-90.08496,67.0986
4641.6,260595.7,-88.16753,67.0988
10000.0,124398.2,-87.02765,67.114
