Frequency,Impedance,Phase Angle,Temperature (Dry Bath)
10.0,23051080.0,-24.84903,68.0804
21.5,33778400.0,-36.50953,68.0618
46.4,33344060.0,-45.16308,68.0818
100.0,18023430.0,-56.64439,68.0495
215.4,5432037.0,-91.0895,68.0735
464.2,3729726.0,-69.77514,68.0521
1000.0,1510966.0,-90.72268,68.0785
2154.4,712488.2,-86.67276,68.0594
4641.6,321138.9,-96.15569,68.0877
10000.0,161791.4,-91.14001,68.0798
