Frequency,Impedance,Phase Angle,Temperature (Dry Bath)
10.0,1336446.0,-16.54276,67.9777
21.5,1188614.0,-12.82909,67.9468
46.4,1071339.0,-13.59461,67.943
100.0,884435.4,-18.33229,67.9483
215.4,868996.3,-6.737105,67.9639
464.2,891726.7,-21.50212,67.9655
1000.0,716072.6,-36.0402,67.9657
2154.4,447617.7,-52.01782,67.948
4641.6,273735.0,-72.09845,67.9586
10000.0,144260.5,-92.20642,67.9611
