Frequency,Impedance,Phase Angle,Temperature (Dry Bath)
10.0,22640530.0,-18.87131,68.1627
21.5,15341720.0,-24.94967,68.1724
46.4,21094520.0,-61.14582,68.1694
100.0,6275189.0,-32.1915,68.1885
215.4,5850399.0,-99.65778,68.1791
464.2,3489430.0,-79.27667,68.1953
1000.0,1165393.0,-86.7541,68.1831
2154.4,562001.1,-92.89855,68.1775
4641.6,279312.9,-89.85853,68.1771
10000.0,132915.5,-92.0571,68.152
