Frequency,Impedance,Phase Angle,Temperature (Dry Bath)
10.0,150911.2,-4.865128,67.9758
21.5,146345.8,-4.042729,67.9895
46.4,143152.2,-3.641683,67.9693
100.0,138152.3,-2.957536,67.9739
215.4,138703.1,-5.628574,67.9763
464.2,132403.5,-5.154613,67.9806
1000.0,129161.6,-9.109567,67.975
2154.4,119171.8,-16.13265,67.9828
4641.6,112687.2,-29.61795,67.9736
10000.0,88549.81,-48.99757,67.9876
