Frequency,Impedance,Phase Angle,Temperature (Dry Bath)
10.0,174662.3,-12.85324,65.7789
21.544346900318832,157739.7,-11.03329,65.7713
46.41588833612777,145226.3,-11.43999,65.7824
100.0,113907.5,-19.98468,65.7693
215.44346900318823,13979.36,37.52492,65.7746
464.15888336127773,124826.9,-23.03439,65.7769
1000.0,100231.9,-14.73412,65.7804
2154.4346900318824,91356.84,-24.83791,65.7716
4641.588833612777,73980.67,-36.76084,65.7797
10000.0,51336.99,-53.53805,65.7811
