Frequency,Impedance,Phase Angle,Temperature (Dry Bath)
10.0,17784540.0,0.040292,17.613
21.5,17557910.0,-39.66863,17.6069
46.4,18785460.0,-58.9827,17.5989
100.0,4070783.0,-47.57452,17.594
215.4,4089022.0,-69.16527,17.612
464.2,2197280.0,-80.29254,17.6054
1000.0,1104701.0,-80.82929,17.6175
2154.4,553030.1,-79.90669,17.6124
4641.6,317135.5,-83.68597,17.6033
10000.0,161557.5,-93.81554,17.6126
