Frequency,Impedance,Phase Angle,Temperature (Dry Bath)
10.0,29726.81,-12.93321,29.379
21.544346900318832,26903.37,-11.71705,28.8963
46.41588833612777,24541.66,-10.83931,28.959
100.0,22111.69,-10.08825,28.9891
215.44346900318823,21256.95,-8.859091,28.8874
464.15888336127773,18938.58,-11.60724,28.982
1000.0,17681.63,-8.358977,28.867
2154.4346900318824,17280.37,-7.276479,29.0699
4641.588833612777,16145.8,-8.008362,28.6936
10000.0,15214.27,-10.80884,28.8916
