Frequency,Impedance,Phase Angle,Temperature (Dry Bath)
10.0,7553066.0,-12.61473,71.1507
21.544346900318832,4626985.0,5.921434,71.1484
46.41588833612777,4740857.0,-33.64697,71.1512
100.0,479139.1,32.36839,71.1519
215.44346900318823,989551.0,-146.1586,71.1475
464.15888336127773,947060.2,-40.78059,71.1491
1000.0,454259.2,-26.3722,71.1389
2154.4346900318824,215685.5,-72.79445,71.1456
4641.588833612777,94522.14,-81.99596,71.1416
10000.0,48808.35,-78.32278,71.1645
