Frequency,Impedance,Phase Angle,Temperature (Dry Bath)
10.0,22930380.0,-27.26956,67.9073
21.5,27257620.0,-48.7921,67.9122
46.4,23244140.0,-39.88124,67.8958
100.0,6957547.0,-46.41607,67.8782
215.4,4538498.0,-106.5797,67.8901
464.2,2408523.0,-82.15911,67.9
1000.0,1207895.0,-86.94716,67.9272
2154.4,666794.8,-85.9321,67.9244
4641.6,295531.8,-88.67222,67.9223
10000.0,145519.8,-97.32138,67.9074
