Frequency,Impedance,Phase Angle,Temperature (Dry Bath)
10.0,117960.1,-16.29373,67.8151
21.5,105244.5,-14.25516,67.8238
46.4,95336.91,-12.55088,67.811
100.0,84776.95,-10.63917,67.8158
215.4,81522.67,-11.02515,67.7982
464.2,75839.41,-10.08381,67.8115
1000.0,71686.64,-11.65961,67.836
2154.4,65725.73,-15.68022,67.8109
4641.6,59912.75,-21.30395,67.8126
10000.0,54284.97,-32.73412,67.8143
