Frequency,Impedance,Phase Angle,Temperature (Dry Bath)
10.0,27788220.0,-27.09073,67.6594
21.5,35562640.0,-25.8439,67.6711
46.4,25638720.0,-48.35965,67.6829
100.0,7466061.0,-1.214203,67.6849
215.4,6849432.0,-37.66779,67.6814
464.2,2574074.0,-74.74894,67.7118
1000.0,1116074.0,-83.96771,67.6906
2154.4,588748.7,-89.43062,67.7081
4641.6,291803.0,-95.13579,67.7004
10000.0,131730.3,-96.29163,67.6851
