Frequency,Impedance,Phase Angle,Temperature (Dry Bath)
10.0,28778210.0,-36.10951,68.2512
21.5,23827960.0,-32.19937,68.2634
46.4,25995670.0,-54.66277,68.255
100.0,2873144.0,-61.94458,68.257
215.4,4749173.0,-51.99936,68.2564
464.2,3374110.0,-75.30769,68.2542
1000.0,1258189.0,-82.18109,68.2594
2154.4,646747.1,-83.52652,68.2613
4641.6,280449.3,-94.15538,68.2634
10000.0,145145.2,-100.0746,68.2593
