Frequency,Impedance,Phase Angle,Temperature (Dry Bath)
10.0,32359840.0,0.8729687,67.9991
21.5,21823880.0,-33.32181,67.9843
46.4,15191050.0,-47.8644,67.9885
100.0,6293013.0,1.507073,67.9908
215.4,14420850.0,-117.091,67.9834
464.2,1961084.0,-84.79245,67.9983
1000.0,1172496.0,-87.34216,67.9852
2154.4,630592.5,-91.99548,68.0099
4641.6,276479.8,-90.32818,67.9996
10000.0,136950.3,-96.75557,68.0048
