Frequency,Impedance,Phase Angle,Temperature (Dry Bath)
10.0,20523710.0,-2.348534,68.013
21.5,20430710.0,-58.29179,67.9968
46.4,11967360.0,-52.91728,68.0056
100.0,8182459.0,-31.54153,68.0043
215.4,3541427.0,-69.20202,68.0097
464.2,2423369.0,-77.00124,68.0006
1000.0,1247723.0,-80.92165,68.0134
2154.4,578043.6,-86.93978,67.9984
4641.6,282056.8,-86.89011,68.0033
10000.0,124008.3,-99.27386,67.9961
