Frequency,Impedance,Phase Angle,Temperature (Dry Bath)
10.0,1364268.0,-15.66735,68.0193
21.5,1217058.0,-12.88034,68.0004
46.4,1075185.0,-13.20565,68.0127
100.0,919090.4,-13.40672,68.0258
215.4,1023728.0,-17.90335,68.0368
464.2,769139.6,-23.03265,68.0247
1000.0,741451.6,-33.0137,68.0104
2154.4,481305.9,-51.22605,68.0178
4641.6,261079.5,-73.96685,68.026
10000.0,143134.0,-86.75382,68.0307
