Frequency,Impedance,Phase Angle,Temperature (Dry Bath)
10.0,28321440.0,-12.75958,68.0885
21.5,32207840.0,-21.89294,68.0724
46.4,29824040.0,-44.63924,68.0671
100.0,4257690.0,-17.31452,68.0973
215.4,3699166.0,-81.20086,68.0806
464.2,2520451.0,-85.42646,68.0707
1000.0,1246568.0,-88.36671,68.0624
2154.4,676381.8,-82.65603,68.0759
4641.6,281256.6,-86.30105,68.0953
10000.0,146892.0,-95.79496,68.08
