Frequency,Impedance,Phase Angle,Temperature (Dry Bath)
10.0,208874.5,-23.45489,67.3853
21.5,175432.4,-20.46628,67.3894
46.4,151220.6,-17.65045,67.3887
100.0,138084.6,-14.68902,67.3917
215.4,122523.2,-14.16683,67.3785
464.2,110528.3,-13.15084,67.3779
1000.0,100582.1,-15.88887,67.3917
2154.4,90726.5,-20.52735,67.3939
4641.6,78374.23,-28.11144,67.3945
10000.0,59976.71,-40.95724,67.3834
