Frequency,Impedance,Phase Angle,Temperature (Dry Bath)
10.0,24858520.0,-22.66017,67.2621
21.5,25432500.0,-43.51026,67.2633
46.4,13733010.0,-58.4384,67.2693
100.0,7534382.0,-4.799622,67.265
215.4,3921164.0,-72.33886,67.2748
464.2,1541697.0,-82.67017,67.25
1000.0,919695.1,-78.67684,67.2546
2154.4,410064.5,-82.47791,67.2632
4641.6,199772.8,-83.50452,67.2743
10000.0,98239.19,-80.65033,67.2496
