Frequency,Impedance,Phase Angle,Temperature (Dry Bath)
10.0,1489845.0,-17.40057,67.3467
21.5,1332089.0,-15.62609,67.3426
46.4,1221224.0,-15.428,67.3537
100.0,1146154.0,-17.00074,67.3364
215.4,277794.7,-84.48407,67.3502
464.2,825641.9,-39.94064,67.3502
1000.0,670447.7,-45.79083,67.3554
2154.4,433485.2,-64.17028,67.3548
4641.6,228449.0,-69.85616,67.3448
10000.0,116816.3,-78.33839,67.342
