Frequency,Impedance,Phase Angle,Temperature (Dry Bath)
10.0,9458770.0,-3.152464,71.2224
21.544346900318832,4944440.0,-29.27389,71.218
46.41588833612777,4929683.0,-26.29919,71.2217
100.0,177352.7,-7.107249,71.215
215.44346900318823,731326.9,-125.3779,71.2322
464.15888336127773,637411.8,-16.15443,71.226
1000.0,524728.2,-119.6202,71.2229
2154.4346900318824,230352.0,-97.17299,71.207
4641.588833612777,124128.1,-52.64874,71.2158
10000.0,60204.76,-76.58907,71.2325
