Frequency,Impedance,Phase Angle,Temperature (Dry Bath)
10.0,4672966.0,-7.999154,65.7024
21.544346900318832,7656016.0,9.401178,65.6977
46.41588833612777,4517491.0,-43.35737,65.7012
100.0,3262193.0,-113.1399,65.7115
215.44346900318823,5390.353,-83.40497,65.695
464.15888336127773,702384.4,-61.4451,65.6934
1000.0,583649.7,-129.3245,65.693
2154.4346900318824,277440.9,-100.5043,65.6956
4641.588833612777,127665.7,-78.11057,65.6966
10000.0,68183.85,-86.57542,65.6934
