Frequency,Impedance,Phase Angle,Temperature (Dry Bath)
10.0,48441600.0,-12.35496,66.985
21.5,27899190.0,-17.9814,66.9968
46.4,18852570.0,-41.07931,66.998
100.0,2624910.0,-37.14137,66.9862
215.4,3561036.0,-33.41289,67.0078
464.2,2458545.0,-91.2175,66.9776
1000.0,1213762.0,-77.3854,66.9731
2154.4,563189.6,-88.58894,66.9876
4641.6,248007.8,-87.09095,66.9762
10000.0,119643.2,-89.11489,66.9977
