Frequency,Impedance,Phase Angle,Temperature (Dry Bath)
10.0,29411880.0,-18.69503,67.2823
21.5,21914580.0,-41.62636,67.2741
46.4,20760210.0,-52.85751,67.2799
100.0,8841107.0,-137.7566,67.263
215.4,3543198.0,-127.2578,67.2836
464.2,2167246.0,-96.00745,67.2812
1000.0,1146705.0,-83.21802,67.2834
2154.4,482585.3,-88.20744,67.283
4641.6,243250.5,-84.81679,67.2976
10000.0,122044.7,-84.24756,67.2744
