Frequency,Impedance,Phase Angle,Temperature (Dry Bath)
10.0,368899.1,-24.64646,65.7083
21.544346900318832,290768.7,-21.78609,65.7054
46.41588833612777,238196.1,-22.90057,65.7198
100.0,204879.9,-36.11657,65.7092
215.44346900318823,7241.745,126.3157,65.7092
464.15888336127773,155947.5,-20.97929,65.7116
1000.0,145592.4,-29.29314,65.7002
2154.4346900318824,97005.02,-32.61179,65.7025
4641.588833612777,69849.04,-46.66389,65.7029
10000.0,50514.78,-61.46778,65.6907
