Frequency,Impedance,Phase Angle,Temperature (Dry Bath)
10.0,26357360.0,-15.48449,68.2085
21.5,16542210.0,-34.90406,68.2085
46.4,12320500.0,-47.4198,68.2085
100.0,4593712.0,-46.47055,68.2085
215.4,3791563.0,-77.16948,68.2085
464.2,2590367.0,-87.13505,68.2085
1000.0,1189931.0,-83.03743,68.2085
2154.4,636665.8,-87.20566,68.2085
4641.6,306399.9,-91.9871,68.2085
10000.0,135674.5,-96.05565,68.2085
