Frequency,Impedance,Phase Angle,Temperature (Dry Bath)
10.0,44071140.0,-21.76837,68.3893
21.5,27513260.0,-46.99579,68.3689
46.4,11547880.0,-50.93725,68.3826
100.0,4388760.0,-53.86761,68.3607
215.4,4267048.0,-83.12575,68.3837
464.2,2064586.0,-82.60829,68.404
1000.0,1321417.0,-93.0027,68.387
2154.4,581465.3,-84.73184,68.3828
4641.6,269936.2,-85.98596,68.3935
10000.0,130695.8,-95.89164,68.3719
