Frequency,Impedance,Phase Angle,Temperature (Dry Bath)
10.0,30172370.0,-18.34193,67.035
21.5,29941980.0,-34.08815,67.0345
46.4,19429730.0,-50.75761,67.0463
100.0,3274932.0,-28.87984,67.023
215.4,3194449.0,-102.9457,67.0262
464.2,3174012.0,-92.43762,67.0306
1000.0,1292017.0,-74.37285,67.0329
2154.4,554322.3,-81.98771,67.0458
4641.6,256558.6,-89.83215,67.0238
10000.0,123207.8,-85.62334,67.0326
