Frequency,Impedance,Phase Angle,Temperature (Dry Bath)
10.0,1099465.0,-6.679331,72.1333
21.544346900318832,1050941.0,-9.813029,72.12
46.41588833612777,1009092.0,-8.212335,72.1044
100.0,752441.6,126.6303,72.0994
215.44346900318823,629019.1,-42.78982,72.0934
464.15888336127773,634888.1,-42.15889,72.0961
1000.0,209467.8,-55.30607,72.0867
2154.4346900318824,214490.4,-30.71531,72.0904
4641.588833612777,165797.0,-69.54445,72.1054
10000.0,87344.32,-64.81032,72.1103
