Frequency,Impedance,Phase Angle,Temperature (Dry Bath)
10.0,30610150.0,-2.788953,67.1028
21.5,40728420.0,-24.35049,67.0898
46.4,16695420.0,-53.58928,67.0898
100.0,8093746.0,45.21664,67.0791
215.4,2270756.0,-54.70774,67.0948
464.2,2548566.0,-55.13855,67.0936
1000.0,1282171.0,-78.69972,67.1001
2154.4,554618.5,-86.80108,67.0928
4641.6,251200.2,-88.12671,67.0976
10000.0,124121.3,-86.66659,67.0801
