Frequency,Impedance,Phase Angle,Temperature (Dry Bath)
10.0,30578580.0,-23.02827,66.9875
21.5,27843480.0,-30.07178,66.9824
46.4,17019830.0,-52.86713,66.9881
100.0,3922295.0,-0.130774,66.9819
215.4,369247.8,2.194761,66.9806
464.2,1918954.0,-67.13718,67.0
1000.0,1098160.0,-78.94557,66.9864
2154.4,522884.3,-78.39724,66.9679
4641.6,247236.2,-88.42908,66.986
10000.0,123484.6,-83.88353,66.9882
