Frequency,Impedance,Phase Angle,Temperature (Dry Bath)
10.0,18291430.0,-12.77723,67.9962
21.5,17104300.0,-19.19981,67.9962
46.4,16268440.0,-46.8516,67.9962
100.0,4830292.0,-22.98141,67.9962
215.4,3602417.0,-73.83256,67.9962
464.2,3907513.0,-100.4971,67.9962
1000.0,1265938.0,-85.30873,67.9962
2154.4,629580.8,-87.72367,67.9962
4641.6,283741.3,-90.09234,67.9962
10000.0,158463.1,-93.54664,67.9962
