Frequency,Impedance,Phase Angle,Temperature (Dry Bath)
10.0,5858311.0,20.90927,71.1319
21.544346900318832,10422650.0,-1.006442,71.1205
46.41588833612777,4208396.0,3.54583,71.1194
100.0,401800.5,6.996005,71.1152
215.44346900318823,459339.6,-46.14989,71.121
464.15888336127773,528441.8,-62.69597,71.1002
1000.0,506900.1,-109.9538,71.1179
2154.4346900318824,251930.6,-76.8516,71.1288
4641.588833612777,126682.2,-82.38241,71.1164
10000.0,62464.72,-87.89848,71.1216
