Frequency,Impedance,Phase Angle,Temperature (Dry Bath)
10.0,19465400.0,-22.19097,67.9873
21.5,23450960.0,-44.67327,67.9953
46.4,27244400.0,-40.44646,67.9831
100.0,8328239.0,-58.31953,67.9894
215.4,9307813.0,-87.73445,67.9908
464.2,3007913.0,-72.86119,67.9955
1000.0,1559784.0,-93.16162,68.0026
2154.4,694671.2,-87.00088,67.9915
4641.6,314548.3,-85.22785,68.0064
10000.0,143657.2,-94.14402,67.9929
