Frequency,Impedance,Phase Angle,Temperature (Dry Bath)
10.0,6629709.0,1.06072,70.9587
21.544346900318832,5452194.0,-11.10013,70.9765
46.41588833612777,4872777.0,-22.59204,70.9797
100.0,730302.8,-13.20209,70.9896
215.44346900318823,649748.4,149.4025,70.9879
464.15888336127773,1178495.0,-86.26441,70.9924
1000.0,1035333.0,-69.47783,70.9907
2154.4346900318824,235741.7,-77.40406,70.9961
4641.588833612777,140407.3,-76.79636,70.9859
10000.0,65650.87,-88.10478,70.9837
