Frequency,Impedance,Phase Angle,Temperature (Dry Bath)
10.0,26649870.0,-29.55375,68.0439
21.5,19724570.0,-43.29581,68.0346
46.4,32055880.0,-50.61398,68.0499
100.0,4143086.0,-46.34962,68.0575
215.4,4885111.0,-82.31558,68.0329
464.2,2146599.0,-72.13951,68.0343
1000.0,1165177.0,-84.70523,68.0192
2154.4,559885.1,-88.76446,68.0062
4641.6,277880.3,-88.65569,68.0285
10000.0,131831.8,-91.11181,68.0095
