Frequency,Impedance,Phase Angle,Temperature (Dry Bath)
10.0,2045101.0,-11.08304,67.9687
21.5,1958885.0,-12.81485,67.9687
46.4,1972611.0,-13.42838,67.9687
100.0,1423128.0,-13.52267,67.9687
215.4,2662422.0,38.27352,67.9687
464.2,1231590.0,-34.92475,67.9687
1000.0,1042008.0,-49.67655,67.9687
2154.4,547926.5,-64.02602,67.9687
4641.6,330410.9,-72.95485,67.9687
10000.0,143572.8,-87.65699,67.9687
