Frequency,Impedance,Phase Angle,Temperature (Dry Bath)
10.0,4815427.0,11.15278,70.4
21.544346900318832,4979718.0,8.340829,70.4
46.41588833612777,5434320.0,-0.02213441,70.4
100.0,4363208.0,18.58758,70.4
215.44346900318823,1848625.0,-32.24262,70.4
464.15888336127773,3062278.0,-6.850931,70.4
1000.0,1856166.0,87.36164,70.4
2154.4346900318824,3503337.0,-10.35254,70.4
4641.588833612777,1160033.0,-79.27448,70.4
10000.0,914019.7,-87.73799,70.4
