Frequency,Impedance,Phase Angle,Temperature (Dry Bath)
10.0,27822120.0,5.526448,67.4271
21.5,21591940.0,-34.09505,67.4457
46.4,15742920.0,-56.20823,67.4268
100.0,17360930.0,-64.98264,67.4388
215.4,1427845.0,-97.94961,67.4143
464.2,2113995.0,-87.92424,67.414
1000.0,1098388.0,-71.43094,67.4312
2154.4,507040.2,-84.40624,67.4219
4641.6,255294.8,-86.29059,67.4266
10000.0,126917.3,-83.83952,67.4424
