Frequency,Impedance,Phase Angle,Temperature (Dry Bath)
10.0,112867.5,-4.202913,67.1011
21.5,110505.6,-3.435359,67.1155
46.4,108823.7,-3.457536,67.1085
100.0,105661.0,-5.048786,67.0883
215.4,144808.5,-58.35673,67.0975
464.2,104453.6,-6.266193,67.1024
1000.0,99016.67,-8.644673,67.1074
2154.4,95708.55,-14.29378,67.1029
4641.6,86109.94,-23.56089,67.1033
10000.0,69090.35,-39.30414,67.103
