Frequency,Impedance,Phase Angle,Temperature (Dry Bath)
10.0,16661.04,-17.87858,71.3013
21.544346900318832,14574.47,-16.5197,71.3068
46.41588833612777,12843.39,-15.88377,71.3071
100.0,11282.34,-15.56465,71.3181
215.44346900318823,10034.98,-13.86511,71.3098
464.15888336127773,9048.596,-12.92748,71.2967
1000.0,8052.79,-11.46394,71.2884
2154.4346900318824,7397.812,-11.31983,71.3042
4641.588833612777,6733.837,-9.21846,71.2881
10000.0,6377.76,-9.588912,71.2775
