Frequency,Impedance,Phase Angle,Temperature (Dry Bath)
10.0,172457.2,-12.71881,71.3906
21.544346900318832,157074.1,-11.90348,71.3899
46.41588833612777,143219.0,-10.9922,71.3899
100.0,159929.2,-22.26283,71.3884
215.44346900318823,112381.1,-21.16531,71.3952
464.15888336127773,93688.98,-18.84549,71.399
1000.0,85878.02,-22.73466,71.402
2154.4346900318824,90299.43,-26.75211,71.3964
4641.588833612777,68384.89,-45.40506,71.4126
10000.0,51951.4,-55.18784,71.3968
