Frequency,Impedance,Phase Angle,Temperature (Dry Bath)
10.0,238958.4,-23.04259,67.0461
21.5,200758.7,-20.31634,67.0317
46.4,174031.4,-17.81643,67.0386
100.0,152515.3,-12.30234,67.0462
215.4,139830.0,-15.23364,67.0451
464.2,128737.6,-14.59001,67.0256
1000.0,113760.1,-16.74114,67.0305
2154.4,99810.7,-22.3992,67.0246
4641.6,81707.25,-30.5182,67.0279
10000.0,62979.61,-43.10044,67.0319
