Frequency,Impedance,Phase Angle,Temperature (Dry Bath)
10.0,34671530.0,-2.757659,68.0646
21.5,23737890.0,-20.67378,68.0725
46.4,32033950.0,-47.63024,68.0783
100.0,7867487.0,-53.3619,68.048
215.4,6878476.0,-86.5542,68.0708
464.2,2649684.0,-92.76052,68.0511
1000.0,1678319.0,-87.1936,68.0661
2154.4,754771.2,-93.49924,68.0761
4641.6,340816.3,-91.50322,68.0609
10000.0,145885.9,-98.84183,68.0619
