Frequency,Impedance,Phase Angle,Temperature (Dry Bath)
10.0,28780430.0,-14.81096,67.308
21.5,20493890.0,-27.46033,67.3143
46.4,22233940.0,-53.46251,67.302
100.0,17671020.0,73.88096,67.3294
215.4,9363244.0,-100.6573,67.322
464.2,1992840.0,-100.6092,67.3152
1000.0,1527489.0,-92.22207,67.3249
2154.4,619527.2,-92.75978,67.3025
4641.6,283006.3,-84.60714,67.3056
10000.0,122182.8,-84.72239,67.3263
