Frequency,Impedance,Phase Angle,Temperature (Dry Bath)
10.0,5709611.0,-0.8398607,71.33
21.544346900318832,5057759.0,-24.14836,71.3641
46.41588833612777,6348016.0,-4.119928,71.3322
100.0,961098.0,112.869,71.3678
215.44346900318823,711787.6,6.360558,71.3742
464.15888336127773,1713620.0,-68.77912,71.3729
1000.0,499228.3,-32.5586,71.3617
2154.4346900318824,1371797.0,116.8302,71.3835
4641.588833612777,158181.7,-79.89447,71.3863
10000.0,129156.8,-66.0728,71.3852
