Frequency,Impedance,Phase Angle,Temperature (Dry Bath)
10.0,25596720.0,-17.53712,68.3295
21.5,31822660.0,-38.08252,68.3354
46.4,14530420.0,-56.30053,68.3417
100.0,5160168.0,-7.915578,68.3328
215.4,7897606.0,-66.46785,68.3439
464.2,4074487.0,-79.10337,68.3446
1000.0,1381385.0,-87.03897,68.3403
2154.4,635777.9,-93.43543,68.3373
4641.6,324458.4,-93.67073,68.3225
10000.0,153508.1,-94.3156,68.3391
