Frequency,Impedance,Phase Angle,Temperature (Dry Bath)
10.0,22526440.0,-18.44349,68.1344
21.5,19770510.0,-40.3901,68.1221
46.4,23460980.0,-54.01806,68.1253
100.0,6447661.0,-41.59553,68.1127
215.4,5853635.0,-92.71709,68.1263
464.2,2644519.0,-106.4865,68.1135
1000.0,1226144.0,-84.71373,68.1316
2154.4,565929.8,-84.42042,68.1215
4641.6,274549.9,-93.90413,68.14
10000.0,141505.8,-96.21385,68.1214
