Frequency,Impedance,Phase Angle,Temperature (Dry Bath)
10.0,8310953.0,-29.28633,66.2233
21.544346900318832,6532686.0,8.341993,66.2129
46.41588833612777,3951815.0,-18.00929,66.2029
100.0,1710794.0,-141.3879,66.2114
215.44346900318823,379261.6,-20.4678,66.2015
464.15888336127773,1855522.0,32.16416,66.2059
1000.0,326653.8,-75.38706,66.1974
2154.4346900318824,254564.8,-77.16531,66.1936
4641.588833612777,143694.9,-79.21127,66.1953
10000.0,63621.65,-81.3959,66.1934
