Frequency,Impedance,Phase Angle,Temperature (Dry Bath)
10.0,24857490.0,-17.55851,67.0501
21.5,27159820.0,-35.6324,67.04
46.4,17016720.0,-53.61847,67.0475
100.0,4239631.0,-50.32729,67.0507
215.4,2724397.0,-4.177901,67.0342
464.2,2051041.0,-82.98595,67.045
1000.0,1126316.0,-79.28001,67.0488
2154.4,514015.4,-87.27684,67.039
4641.6,251209.5,-86.05962,67.0358
10000.0,122851.0,-85.69475,67.0534
