Frequency,Impedance,Phase Angle,Temperature (Dry Bath)
10.0,151002.9,-4.811355,67.8156
21.5,147309.4,-4.082829,67.8157
46.4,143873.5,-3.787321,67.7998
100.0,138120.6,-3.825807,67.8122
215.4,137187.3,-4.94933,67.8225
464.2,135938.7,-8.889301,67.812
1000.0,129211.6,-8.004416,67.8025
2154.4,115134.2,-18.02996,67.8099
4641.6,107928.8,-30.04713,67.804
10000.0,86098.12,-51.25715,67.8211
