Frequency,Impedance,Phase Angle,Temperature (Dry Bath)
10.0,726861.9,-10.11593,67.703
21.5,670627.4,-10.37725,67.69
46.4,623142.3,-10.68333,67.7101
100.0,563832.1,-13.5055,67.6981
215.4,557017.6,-18.30855,67.7105
464.2,435099.7,-20.03438,67.7143
1000.0,393692.5,-27.82318,67.7082
2154.4,295329.8,-37.75292,67.6984
4641.6,200882.3,-57.3796,67.7165
10000.0,125763.9,-73.73636,67.7226
