Frequency,Impedance,Phase Angle,Temperature (Dry Bath)
10.0,163664.3,-15.0102,71.3109
21.544346900318832,148555.5,-13.58765,71.3132
46.41588833612777,134878.0,-13.46214,71.3478
100.0,134286.8,-19.71283,71.3224
215.44346900318823,99459.91,-12.13376,71.323
464.15888336127773,100006.4,-15.07338,71.323
1000.0,73154.05,3.550889,71.3305
2154.4346900318824,86371.83,-21.65269,71.325
4641.588833612777,61529.45,-23.10297,71.3585
10000.0,50834.1,-38.98898,71.3336
