Frequency,Impedance,Phase Angle,Temperature (Dry Bath)
10.0,26588600.0,-21.29073,66.9799
21.5,22328400.0,-43.14334,66.9772
46.4,11578090.0,-60.22583,66.9773
100.0,4183554.0,-52.77222,66.9824
215.4,3528225.0,-69.56814,66.9593
464.2,1453122.0,-86.18527,66.9897
1000.0,846299.8,-86.58768,66.9697
2154.4,425592.4,-87.55238,66.9666
4641.6,207839.1,-82.38942,66.9473
10000.0,100677.0,-80.49899,66.9737
