Frequency,Impedance,Phase Angle,Temperature (Dry Bath)
10.0,41426240.0,-21.77283,67.75
21.5,45159540.0,-26.2863,67.7524
46.4,32183260.0,-40.57452,67.7484
100.0,6976724.0,-11.48649,67.7294
215.4,4971341.0,-43.48352,67.7434
464.2,2455816.0,-74.80519,67.7421
1000.0,1103415.0,-75.74922,67.7264
2154.4,579322.5,-82.46944,67.738
4641.6,290987.4,-91.8448,67.7422
10000.0,133596.5,-95.49811,67.7433
