Frequency,Impedance,Phase Angle,Temperature (Dry Bath)
10.0,12408800.0,54.62064,66.23
21.544346900318832,5879882.0,-16.06225,66.2427
46.41588833612777,7107869.0,-33.56618,66.2278
100.0,717878.0,-9.664466,66.2345
215.44346900318823,291143.1,-86.83388,66.2351
464.15888336127773,879696.3,-6.301844,66.2419
1000.0,186714.6,-49.25915,66.2484
2154.4346900318824,262445.4,-111.1422,66.2379
4641.588833612777,114517.1,-88.88169,66.2465
10000.0,67950.52,-79.52704,66.2369
