Frequency,Impedance,Phase Angle,Temperature (Dry Bath)
10.0,5616325.0,-18.95747,71.2666
21.544346900318832,5271678.0,-21.712,71.2646
46.41588833612777,4864085.0,-10.47401,71.2767
100.0,709799.3,-66.51541,71.2733
215.44346900318823,4500063.0,-111.054,71.2697
464.15888336127773,446594.9,-86.72493,71.264
1000.0,271712.5,-71.28076,71.2915
2154.4346900318824,212436.3,-71.07007,71.3056
4641.588833612777,118043.0,-91.75071,71.2945
10000.0,58909.73,-88.82962,71.2783
