Frequency,Impedance,Phase Angle,Temperature (Dry Bath)
10.0,4926318.0,-28.2703,71.2455
21.544346900318832,3641633.0,-20.42172,71.2593
46.41588833612777,3623025.0,-39.74917,71.2476
100.0,367244.7,33.36015,71.2508
215.44346900318823,909309.3,74.54383,71.2632
464.15888336127773,1285980.0,93.2002,71.2554
1000.0,814218.3,-73.97019,71.261
2154.4346900318824,214793.4,-82.74387,71.261
4641.588833612777,168776.9,-78.11388,71.2325
10000.0,59346.85,-86.86857,71.2621
