Frequency,Impedance,Phase Angle,Temperature (Dry Bath)
10.0,3161051.0,13.95389,71.3437
21.544346900318832,7141327.0,-10.04755,71.3394
46.41588833612777,4004750.0,-11.28562,71.335
100.0,422197.7,12.45343,71.3387
215.44346900318823,336386.7,6.917569,71.348
464.15888336127773,1082724.0,-91.18356,71.3265
1000.0,762967.0,-35.80189,71.3449
2154.4346900318824,171738.5,-89.7699,71.3368
4641.588833612777,108452.3,-88.89744,71.342
10000.0,63313.64,-92.39289,71.3435
