Frequency,Impedance,Phase Angle,Temperature (Dry Bath)
10.0,25614060.0,-24.30869,67.5562
21.5,23566260.0,-44.93731,67.5738
46.4,14371110.0,-54.3505,67.5657
100.0,12764880.0,-16.63872,67.5627
215.4,124039.1,-109.7077,67.5641
464.2,1862835.0,-78.96433,67.5496
1000.0,929130.8,-84.46031,67.5637
2154.4,443572.0,-84.85545,67.563
4641.6,221560.9,-81.84035,67.5526
10000.0,107664.0,-80.8267,67.5478
