Frequency,Impedance,Phase Angle,Temperature (Dry Bath)
10.0,149592.8,-5.116633,67.8107
21.5,144783.9,-4.204338,67.8212
46.4,141386.2,-3.914714,67.8009
100.0,136918.3,-3.806412,67.8143
215.4,136924.9,-4.936038,67.8233
464.2,131969.5,-6.90611,67.8178
1000.0,127747.2,-10.64971,67.8089
2154.4,123117.0,-14.15443,67.8258
4641.6,108375.1,-28.34253,67.81
10000.0,86151.31,-49.31513,67.8347
