Frequency,Impedance,Phase Angle,Temperature (Dry Bath)
10.0,29525720.0,-36.93841,67.9334
21.5,27356950.0,-34.67005,67.9137
46.4,27989430.0,-45.00827,67.9143
100.0,5769985.0,-60.42552,67.9168
215.4,2990933.0,-73.60467,67.934
464.2,2233207.0,-72.44076,67.9333
1000.0,1067711.0,-78.83987,67.9175
2154.4,598502.9,-83.23585,67.914
4641.6,267566.9,-89.44302,67.933
10000.0,125997.7,-97.40171,67.9307
