Frequency,Impedance,Phase Angle,Temperature (Dry Bath)
10.0,27777910.0,-4.974509,67.1167
21.5,24668030.0,-29.75253,67.1319
46.4,19769770.0,-50.25457,67.128
100.0,4014659.0,-71.35755,67.128
215.4,889088.9,-10.35824,67.1307
464.2,4206346.0,-115.4626,67.1331
1000.0,1214052.0,-85.142,67.1342
2154.4,572728.7,-88.22403,67.1189
4641.6,267643.6,-87.73814,67.1254
10000.0,124140.7,-87.69435,67.1161
