Frequency,Impedance,Phase Angle,Temperature (Dry Bath)
10.0,35952160.0,-19.64613,67.3281
21.5,24265160.0,-31.20027,67.3346
46.4,16806850.0,-51.03159,67.3173
100.0,3336958.0,-30.32899,67.3329
215.4,2902775.0,-137.1709,67.3221
464.2,3070238.0,-76.00532,67.3282
1000.0,1028475.0,-92.96959,67.3369
2154.4,557975.3,-89.10334,67.3195
4641.6,272390.6,-87.56741,67.3296
10000.0,128407.3,-87.90648,67.3235
