Frequency,Impedance,Phase Angle,Temperature (Dry Bath)
10.0,72630.68,-15.98922,71.4999
21.544346900318832,64278.03,-14.49335,71.503
46.41588833612777,57411.45,-13.15851,71.5062
100.0,52207.39,-8.041965,71.5035
215.44346900318823,44916.86,-12.06145,71.507
464.15888336127773,42281.33,-14.51683,71.5132
1000.0,40791.7,-22.91857,71.5083
2154.4346900318824,38170.29,-19.41302,71.5135
4641.588833612777,32240.95,-19.64861,71.5074
10000.0,28178.62,-31.96341,71.5027
