Frequency,Impedance,Phase Angle,Temperature (Dry Bath)
10.0,174852.9,-14.82258,70.9927
21.544346900318832,155267.6,-13.81026,71.0056
46.41588833612777,141414.1,-13.94597,70.9844
100.0,122201.8,-14.85883,71.0099
215.44346900318823,109301.3,-26.06407,71.0039
464.15888336127773,118226.7,-22.00908,71.0073
1000.0,117898.2,-12.1149,71.0172
2154.4346900318824,65559.64,-8.63306,71.0218
4641.588833612777,86093.67,-28.97398,71.0102
10000.0,47525.86,-28.4548,71.0069
