Frequency,Impedance,Phase Angle,Temperature (Dry Bath)
10.0,140113.6,-19.87858,67.9449
21.5,120910.8,-16.97509,67.9526
46.4,107963.2,-14.59648,67.9363
100.0,98470.35,-12.80156,67.948
215.4,89939.58,-11.22688,67.9369
464.2,82874.17,-11.80358,67.9496
1000.0,77468.7,-12.81255,67.9492
2154.4,71561.08,-16.34997,67.9447
4641.6,62456.45,-24.08716,67.9288
10000.0,55929.61,-35.42169,67.9485
