Frequency,Impedance,Phase Angle,Temperature (Dry Bath)
10.0,118841.7,-3.495528,67.2556
21.5,116619.7,-3.221335,67.2376
46.4,113626.2,-2.730024,67.2382
100.0,114801.7,-4.771064,67.2483
215.4,109707.8,-2.813398,67.2516
464.2,110498.9,-5.874758,67.2364
1000.0,104018.6,-9.046272,67.2528
2154.4,101129.4,-15.17962,67.2473
4641.6,91847.26,-24.30588,67.2375
10000.0,71684.49,-39.50901,67.2454
