Frequency,Impedance,Phase Angle,Temperature (Dry Bath)
10.0,6873640.0,-5.866462,71.2304
21.544346900318832,4748064.0,-19.65708,71.233
46.41588833612777,4170409.0,-18.08573,71.234
100.0,462828.0,-12.26683,71.2475
215.44346900318823,841548.8,-32.55562,71.2442
464.15888336127773,712548.4,-53.74322,71.2474
1000.0,349256.6,-64.0055,71.2321
2154.4346900318824,277125.4,-76.29505,71.2374
4641.588833612777,144064.3,-84.88317,71.2395
10000.0,60242.67,-83.88813,71.2274
