Frequency,Impedance,Phase Angle,Temperature (Dry Bath)
10.0,506326.9,-27.52466,65.6174
21.544346900318832,377000.8,-26.29202,65.6341
46.41588833612777,297794.1,-24.668,65.6356
100.0,187561.0,-11.16909,65.6366
215.44346900318823,5526.618,120.525,65.6222
464.15888336127773,146012.2,-35.78595,65.6187
1000.0,190131.1,-53.51157,65.6246
2154.4346900318824,150858.8,-55.89836,65.6319
4641.588833612777,80956.86,-56.79663,65.64
10000.0,52481.56,-60.0662,65.6286
