Frequency,Impedance,Phase Angle,Temperature (Dry Bath)
10.0,258032.2,-23.48774,67.3945
21.5,216110.4,-21.29855,67.4078
46.4,185062.2,-19.03698,67.3882
100.0,163036.1,-16.2346,67.3957
215.4,143176.4,-22.76931,67.3952
464.2,133083.3,-15.14001,67.4122
1000.0,118466.3,-17.00822,67.4002
2154.4,104454.6,-24.34393,67.4189
4641.6,83881.18,-30.46406,67.4019
10000.0,62153.9,-42.93632,67.4129
