Frequency,Impedance,Phase Angle,Temperature (Dry Bath)
10.0,18248200.0,-12.46962,68.1224
21.5,18839870.0,-36.90899,68.1199
46.4,19506980.0,-50.96561,68.1295
100.0,3434701.0,-52.983,68.1257
215.4,9355063.0,-78.84557,68.1255
464.2,2496042.0,-85.42057,68.1115
1000.0,1159766.0,-79.91614,68.13
2154.4,528338.1,-88.10115,68.1185
4641.6,287061.4,-89.99347,68.1142
10000.0,132578.0,-92.62033,68.1294
