Frequency,Impedance,Phase Angle,Temperature (Dry Bath)
10.0,24752820.0,-7.157951,67.5155
21.5,23800210.0,-29.87034,67.5001
46.4,19953310.0,-48.15256,67.51
100.0,4773931.0,-12.68134,67.5075
215.4,1662401.0,-86.40937,67.5022
464.2,1683843.0,-117.4156,67.499
1000.0,1201468.0,-79.87075,67.5108
2154.4,593222.2,-86.49372,67.5091
4641.6,273114.3,-84.51791,67.5094
10000.0,134952.3,-85.73167,67.5037
