Frequency,Impedance,Phase Angle,Temperature (Dry Bath)
10.0,169806.3,-21.80222,67.7459
21.5,145290.2,-18.89691,67.747
46.4,126575.8,-16.36288,67.753
100.0,113145.4,-14.49158,67.7591
215.4,102580.6,-13.02579,67.7636
464.2,93549.64,-12.45057,67.7369
1000.0,87786.09,-14.40496,67.7438
2154.4,79485.08,-17.8601,67.7482
4641.6,67450.7,-27.25558,67.7363
10000.0,58092.57,-37.74838,67.7506
