Frequency,Impedance,Phase Angle,Temperature (Dry Bath)
10.0,1611325.0,-14.31576,68.3094
21.5,1470876.0,-13.51902,68.3094
46.4,1318071.0,-13.06294,68.3094
100.0,1035425.0,-4.947338,68.3094
215.4,1051287.0,-15.41651,68.3094
464.2,926868.2,-29.40991,68.3094
1000.0,760344.1,-37.51998,68.3094
2154.4,515804.7,-58.15543,68.3094
4641.6,303676.1,-72.84636,68.3094
10000.0,138976.1,-85.73851,68.3094
