Frequency,Impedance,Phase Angle,Temperature (Dry Bath)
10.0,32701940.0,-16.62481,67.7404
21.5,35813410.0,-28.59504,67.7348
46.4,33810390.0,-43.74307,67.7186
100.0,16120140.0,-8.489251,67.7246
215.4,3766829.0,-82.27607,67.7315
464.2,2788066.0,-67.57771,67.7216
1000.0,1171458.0,-84.66423,67.7099
2154.4,702024.4,-82.87846,67.7329
4641.6,315916.0,-90.29343,67.7212
10000.0,145653.3,-98.27623,67.7216
