Frequency,Impedance,Phase Angle,Temperature (Dry Bath)
10.0,34676640.0,-38.24167,66.9722
21.5,24652680.0,-23.94649,66.9893
46.4,14225400.0,-57.65954,66.9726
100.0,4211818.0,-40.45293,66.983
215.4,586127.8,-171.0178,66.9824
464.2,2218014.0,-87.00383,66.9816
1000.0,1159144.0,-86.76758,66.983
2154.4,558780.6,-85.46838,66.9684
4641.6,262655.9,-88.13434,66.9931
10000.0,121869.3,-86.57746,66.9735
