Frequency,Impedance,Phase Angle,Temperature (Dry Bath)
10.0,23484580.0,-2.333467,68.0839
21.5,23737860.0,-36.72183,68.0958
46.4,24052710.0,-46.02844,68.082
100.0,6544176.0,-40.27213,68.0861
215.4,6063427.0,-85.50555,68.0838
464.2,2227125.0,-78.63363,68.1036
1000.0,1367245.0,-89.95809,68.0757
2154.4,641844.9,-90.49466,68.0861
4641.6,308590.0,-88.63398,68.0998
10000.0,135704.3,-97.45357,68.0807
