Frequency,Impedance,Phase Angle,Temperature (Dry Bath)
10.0,5051610.0,-7.078559,71.0796
21.544346900318832,5010897.0,4.201662,71.0911
46.41588833612777,4272199.0,9.552356,71.0719
100.0,479397.1,-66.99778,71.0809
215.44346900318823,765781.1,-57.92203,71.0895
464.15888336127773,643721.6,-82.08543,71.0848
1000.0,362112.6,-90.17462,71.079
2154.4346900318824,249794.1,-58.78575,71.0567
4641.588833612777,166022.8,-79.45679,71.0787
10000.0,64356.76,-89.76106,71.0707
