Frequency,Impedance,Phase Angle,Temperature (Dry Bath)
10.0,53280.61,-33.97868,67.188
21.5,40935.19,-29.80582,67.1822
46.4,33073.06,-25.76131,67.1997
100.0,27836.72,-22.10916,67.199
215.4,23057.94,-20.8195,67.199
464.2,21783.81,-15.41947,67.1932
1000.0,19505.07,-13.27566,67.1975
2154.4,17876.02,-12.09071,67.1899
4641.6,16509.44,-12.06378,67.2031
10000.0,15348.32,-14.13885,67.2158
