Frequency,Impedance,Phase Angle,Temperature (Dry Bath)
10.0,23000630.0,9.702116,68.0019
21.5,24119390.0,-40.53472,68.0077
46.4,17208540.0,-42.60446,68.0008
100.0,10217510.0,-67.58251,68.0031
215.4,7749347.0,-5.156949,67.9991
464.2,2524269.0,-80.18697,67.9929
1000.0,1310371.0,-79.39299,67.9989
2154.4,705650.0,-87.01056,67.9856
4641.6,305536.8,-94.70511,68.0058
10000.0,158963.6,-99.74995,68.0113
