Frequency,Impedance,Phase Angle,Temperature (Dry Bath)
10.0,23475800.0,-18.16082,67.3222
21.5,25953550.0,-27.39316,67.3095
46.4,18236600.0,-49.09053,67.3095
100.0,23069760.0,34.93191,67.3377
215.4,7507052.0,-118.0679,67.3133
464.2,1876008.0,-65.36792,67.3097
1000.0,1096416.0,-86.46821,67.3352
2154.4,635942.8,-87.82889,67.3125
4641.6,258117.4,-91.25507,67.3262
10000.0,124621.0,-86.30309,67.3238
