Frequency,Impedance,Phase Angle,Temperature (Dry Bath)
10.0,26566370.0,-11.12615,67.3332
21.5,27156440.0,-26.48303,67.3207
46.4,19291220.0,-59.22695,67.3213
100.0,6769572.0,-52.94977,67.3291
215.4,2441782.0,-51.22313,67.3118
464.2,2545252.0,-80.56954,67.3245
1000.0,1203545.0,-84.53808,67.3219
2154.4,545682.8,-88.77642,67.3191
4641.6,294994.7,-82.34578,67.3033
10000.0,126596.0,-85.22608,67.3138
