Frequency,Impedance,Phase Angle,Temperature (Dry Bath)
10.0,515731.8,-14.06374,68.3172
21.5,465318.8,-12.83829,68.3172
46.4,425493.4,-11.50016,68.3172
100.0,360973.9,-14.60062,68.3172
215.4,369897.8,-13.07007,68.3172
464.2,346925.3,-15.9459,68.3172
1000.0,321697.3,-22.07806,68.3172
2154.4,279709.5,-30.38863,68.3172
4641.6,182983.0,-54.02076,68.3172
10000.0,129266.5,-73.12777,68.3172
