Frequency,Impedance,Phase Angle,Temperature (Dry Bath)
10.0,1459555.0,-17.41037,67.2023
21.5,1289704.0,-15.32627,67.1998
46.4,1226822.0,-10.84454,67.1941
100.0,1459579.0,-9.701445,67.1938
215.4,430669.7,-40.49601,67.1982
464.2,906122.0,-29.01642,67.2004
1000.0,644166.5,-40.99028,67.2124
2154.4,423011.8,-63.89461,67.2062
4641.6,238323.7,-70.56222,67.2026
10000.0,112060.8,-78.71128,67.1945
