Frequency,Impedance,Phase Angle,Temperature (Dry Bath)
10.0,628845.0,-2.946307,71.2941
21.544346900318832,577709.1,-3.654474,71.2907
46.41588833612777,594057.4,-6.131828,71.307
100.0,385663.9,-9.914589,71.3084
215.44346900318823,529543.4,-15.62667,71.2901
464.15888336127773,1697068.0,68.86528,71.3025
1000.0,551877.7,-7.394728,71.305
2154.4346900318824,391789.1,-12.65371,71.3032
4641.588833612777,195720.7,-67.46499,71.302
10000.0,99266.25,-80.55274,71.3044
