Frequency,Impedance,Phase Angle,Temperature (Dry Bath)
10.0,3927822.0,8.788248,70.568
21.544346900318832,3611981.0,0.9279141,70.5461
46.41588833612777,4941268.0,-51.61965,70.5576
100.0,581405.4,179.5601,70.5574
215.44346900318823,1754443.0,-111.7394,70.5541
464.15888336127773,756564.9,-150.0129,70.5479
1000.0,298251.5,-24.03644,70.5701
2154.4346900318824,140927.7,-67.68529,70.5575
4641.588833612777,129820.4,-79.00362,70.5671
10000.0,64846.8,-83.99512,70.553
