Frequency,Impedance,Phase Angle,Temperature (Dry Bath)
10.0,6660856.0,-57.26576,71.4166
21.544346900318832,3768564.0,-27.7496,71.4208
46.41588833612777,4128738.0,-45.62114,71.4129
100.0,229213.3,158.4112,71.4255
215.44346900318823,918450.6,-177.3136,71.4124
464.15888336127773,605356.5,-167.1275,71.4195
1000.0,223604.0,-108.9292,71.4074
2154.4346900318824,267637.2,-99.1368,71.4228
4641.588833612777,153266.7,-94.69981,71.4124
10000.0,56138.18,-82.64902,71.4238
