Frequency,Impedance,Phase Angle,Temperature (Dry Bath)
10.0,132969.7,-3.882151,67.4171
21.5,129337.9,-3.214569,67.4133
46.4,126490.9,-3.187268,67.425
100.0,120642.7,-3.372697,67.4246
215.4,122789.4,-4.87952,67.4374
464.2,119693.2,-5.326926,67.4405
1000.0,113874.6,-10.26838,67.4319
2154.4,108150.2,-16.49529,67.4266
4641.6,95801.52,-27.71032,67.4159
10000.0,72812.04,-42.78163,67.4243
