Frequency,Impedance,Phase Angle,Temperature (Dry Bath)
10.0,16521230.0,3.938219,67.9834
21.5,24586290.0,-15.45289,67.9839
46.4,22701820.0,-47.8085,68.0117
100.0,5532724.0,-39.54374,68.0021
215.4,6661804.0,-105.254,67.9893
464.2,2265011.0,-86.25259,67.9814
1000.0,1525867.0,-84.08013,67.9939
2154.4,670396.8,-93.79486,67.9895
4641.6,308233.8,-90.69332,67.9848
10000.0,165590.3,-95.82205,67.9859
