Frequency,Impedance,Phase Angle,Temperature (Dry Bath)
10.0,19672860.0,-18.06312,68.1846
21.5,33045690.0,-42.45497,68.1844
46.4,25343120.0,-48.56649,68.1746
100.0,19674630.0,-69.09453,68.1808
215.4,4084386.0,-86.09222,68.1778
464.2,3266107.0,-42.43432,68.1646
1000.0,1244934.0,-85.8578,68.2052
2154.4,625062.7,-83.85555,68.1767
4641.6,323705.5,-89.579,68.1888
10000.0,141296.7,-101.3451,68.1919
