Frequency,Impedance,Phase Angle,Temperature (Dry Bath)
10.0,5232527.0,-16.57655,70.7078
21.544346900318832,4798645.0,-23.09963,70.6999
46.41588833612777,4355761.0,-25.49125,70.7011
100.0,2186111.0,113.3846,70.6943
215.44346900318823,2571379.0,-139.055,70.7048
464.15888336127773,1342539.0,-64.35065,70.6961
1000.0,377084.8,-127.027,70.6943
2154.4346900318824,286965.8,-65.30485,70.7006
4641.588833612777,144058.8,-88.65417,70.6993
10000.0,66024.52,-91.02329,70.694
