Frequency,Impedance,Phase Angle,Temperature (Dry Bath)
10.0,31297630.0,-20.41794,68.3102
21.5,18728600.0,-32.3704,68.3177
46.4,12091920.0,-49.37593,68.314
100.0,5902514.0,-45.06626,68.3073
215.4,21884290.0,-84.22325,68.3141
464.2,2409873.0,-63.14511,68.3032
1000.0,1453176.0,-83.24462,68.2996
2154.4,693644.5,-94.77545,68.321
4641.6,285888.2,-87.24164,68.3289
10000.0,141272.3,-91.9081,68.3139
