Frequency,Impedance,Phase Angle,Temperature (Dry Bath)
10.0,19960490.0,-25.21963,67.4132
21.5,25101450.0,-32.1764,67.4057
46.4,17734760.0,-45.40114,67.4065
100.0,9045889.0,-57.82937,67.3879
215.4,212580.4,-60.597,67.3984
464.2,2848736.0,-105.7018,67.404
1000.0,1108363.0,-86.65901,67.3982
2154.4,531305.0,-87.9289,67.398
4641.6,271511.0,-84.54744,67.4077
10000.0,134521.1,-86.37818,67.3925
