Frequency,Impedance,Phase Angle,Temperature (Dry Bath)
10.0,1380175.0,-15.23659,68.0109
21.5,1292253.0,-13.68055,68.0314
46.4,1162799.0,-13.54002,68.016
100.0,920436.7,-16.65585,68.0103
215.4,871754.2,-16.52235,68.0145
464.2,750523.3,-29.1511,68.0148
1000.0,716782.6,-31.31419,68.007
2154.4,449391.9,-56.35384,68.0073
4641.6,252553.2,-66.50587,68.0099
10000.0,136132.1,-82.31478,68.0325
