Frequency,Impedance,Phase Angle,Temperature (Dry Bath)
10.0,27437590.0,-9.793317,67.1335
21.5,30205030.0,-30.93035,67.1464
46.4,31286410.0,-43.7046,67.1345
100.0,3275780.0,-14.49478,67.1573
215.4,53058.58,-127.5633,67.1564
464.2,2003023.0,-66.74096,67.1749
1000.0,1144923.0,-86.41745,67.1709
2154.4,556474.2,-90.56074,67.1609
4641.6,258300.9,-86.68647,67.1678
10000.0,124095.6,-88.02312,67.1489
