Frequency,Impedance,Phase Angle,Temperature (Dry Bath)
10.0,5688553.0,-52.62996,70.6664
21.544346900318832,5294955.0,-2.863979,70.6577
46.41588833612777,5101596.0,-26.33366,70.6676
100.0,1175343.0,-111.359,70.6755
215.44346900318823,521340.1,-23.4942,70.6729
464.15888336127773,1031260.0,51.81991,70.67
1000.0,695912.5,-12.97868,70.6572
2154.4346900318824,295777.7,-61.32331,70.6729
4641.588833612777,125129.3,-87.78833,70.6684
10000.0,61313.08,-80.06535,70.6774
