Frequency,Impedance,Phase Angle,Temperature (Dry Bath)
10.0,341722.1,-23.90634,65.6839
21.544346900318832,292811.8,-21.06239,65.6925
46.41588833612777,233209.4,-21.1328,65.7006
100.0,189179.0,-15.05737,65.6877
215.44346900318823,172082.6,0.2159996,65.6888
464.15888336127773,152507.6,-19.20845,65.6859
1000.0,120428.9,-23.2395,65.6906
2154.4346900318824,95900.85,-31.10026,65.7064
4641.588833612777,65146.59,-38.90463,65.7026
10000.0,46448.48,-60.33228,65.682
