Frequency,Impedance,Phase Angle,Temperature (Dry Bath)
10.0,1811920.0,-14.38529,65.6835
21.544346900318832,1563514.0,-22.59095,65.6843
46.41588833612777,1315389.0,-23.64568,65.6805
100.0,443013.7,-13.95242,65.6782
215.44346900318823,63290.75,-171.9103,65.6802
464.15888336127773,1507748.0,176.4352,65.6809
1000.0,3364713.0,-158.8637,65.685
2154.4346900318824,257254.5,-90.24634,65.6827
4641.588833612777,140614.8,-68.35137,65.6802
10000.0,74980.56,-83.63353,65.6768
