Frequency,Impedance,Phase Angle,Temperature (Dry Bath)
10.0,29869640.0,-11.34062,66.9929
21.5,30353330.0,-47.92793,66.9798
46.4,14118380.0,-60.6325,66.9939
100.0,3422453.0,-21.8375,66.9787
215.4,4875169.0,-44.72814,66.972
464.2,1795508.0,-74.87275,66.9645
1000.0,946825.3,-73.15428,66.9809
2154.4,388490.1,-81.31047,66.985
4641.6,204321.7,-79.90233,66.9747
10000.0,99785.01,-80.56675,66.9816
