Frequency,Impedance,Phase Angle,Temperature (Dry Bath)
10.0,36500570.0,-5.10029,67.3443
21.5,25960290.0,-48.70485,67.3512
46.4,12387080.0,-55.67769,67.3498
100.0,6049476.0,-158.6097,67.354
215.4,9044367.0,-63.51092,67.3643
464.2,1723939.0,-63.11899,67.3528
1000.0,891483.2,-77.12471,67.3526
2154.4,412135.9,-85.56105,67.3717
4641.6,199104.0,-80.37952,67.361
10000.0,101350.2,-80.52898,67.3661
