Frequency,Impedance,Phase Angle,Temperature (Dry Bath)
10.0,27901210.0,-33.27851,67.2807
21.5,24119830.0,-19.13767,67.2748
46.4,22563350.0,-51.51886,67.2946
100.0,3825039.0,-15.40006,67.2791
215.4,4289881.0,93.75253,67.2938
464.2,2152573.0,-81.04106,67.27
1000.0,1253261.0,-76.98101,67.2583
2154.4,583539.4,-89.62696,67.2772
4641.6,261290.5,-86.88589,67.266
10000.0,124190.9,-86.10075,67.2662
