Frequency,Impedance,Phase Angle,Temperature (Dry Bath)
10.0,50951.49,-34.37863,67.1272
21.5,39007.85,-30.47095,67.1298
46.4,31304.63,-26.5656,67.1193
100.0,26084.52,-22.88619,67.1103
215.4,22602.28,-19.22461,67.1217
464.2,19969.33,-16.31244,67.1173
1000.0,17844.85,-14.0895,67.1174
2154.4,16319.22,-12.80278,67.1077
4641.6,14981.73,-12.66437,67.1267
10000.0,13807.37,-14.23225,67.1151
