Frequency,Impedance,Phase Angle,Temperature (Dry Bath)
10.0,113158.0,-3.125141,67.1434
21.5,110894.6,-2.59634,67.1509
46.4,109396.0,-2.851812,67.1368
100.0,108985.3,-2.839609,67.1411
215.4,77007.41,-31.16213,67.1549
464.2,104725.8,-4.776199,67.1582
1000.0,100275.5,-8.702019,67.1358
2154.4,99386.68,-13.31467,67.1434
4641.6,87732.03,-24.27274,67.1273
10000.0,70092.86,-41.38541,67.1378
