Frequency,Impedance,Phase Angle,Temperature (Dry Bath)
10.0,1557411.0,-18.8688,67.5035
21.5,1372699.0,-16.00972,67.513
46.4,1252211.0,-15.26415,67.5124
100.0,1077936.0,-11.06077,67.5253
215.4,1304508.0,6.082274,67.5212
464.2,924596.5,-21.47285,67.5293
1000.0,800224.0,-49.09962,67.5181
2154.4,441058.7,-60.38179,67.5278
4641.6,252628.4,-73.84543,67.5007
10000.0,127675.6,-79.21575,67.5153
