Frequency,Impedance,Phase Angle,Temperature (Dry Bath)
10.0,4519694.0,4.606059,71.3462
21.544346900318832,8683710.0,-5.500305,71.3279
46.41588833612777,5060119.0,-29.59973,71.325
100.0,327239.7,-139.6019,71.3321
215.44346900318823,2430449.0,41.07974,71.3611
464.15888336127773,642265.2,14.01999,71.3409
1000.0,487532.1,-50.40791,71.3329
2154.4346900318824,300846.7,-83.46697,71.3268
4641.588833612777,307539.8,-70.46515,71.32
10000.0,127588.9,-91.66265,71.3311
