Frequency,Impedance,Phase Angle,Temperature (Dry Bath)
10.0,4123019.0,-24.61469,67.3
21.544346900318832,4088141.0,4.02691,67.3
46.41588833612777,4687187.0,-10.29472,67.3
100.0,1307940.0,33.79708,67.3
215.44346900318823,1715722.0,-55.47372,67.3
464.15888336127773,3201466.0,149.3152,67.3
1000.0,1029668.0,89.62871,67.3
2154.4346900318824,3672071.0,-73.81877,67.3
4641.588833612777,1617001.0,-132.9002,67.3
10000.0,968084.0,-81.16959,67.3
