Frequency,Impedance,Phase Angle,Temperature (Dry Bath)
10.0,1770253.0,-15.5336,65.7699
21.544346900318832,1471467.0,-20.58003,65.77
46.41588833612777,1232691.0,-22.7231,65.7472
100.0,156516.1,16.17658,65.7604
215.44346900318823,484964.8,110.8134,65.749
464.15888336127773,634359.8,-32.20118,65.7783
1000.0,435201.4,-57.88156,65.7656
2154.4346900318824,335943.7,-65.43467,65.7665
4641.588833612777,157731.2,-70.8607,65.7793
10000.0,72674.09,-79.86609,65.7662
