Frequency,Impedance,Phase Angle,Temperature (Dry Bath)
10.0,284008.3,-19.32736,72.2364
21.544346900318832,232614.6,-19.33926,72.2393
46.41588833612777,196732.0,-21.08944,72.2475
100.0,130399.3,-34.26133,72.2157
215.44346900318823,177997.8,2.828156,72.2366
464.15888336127773,106667.7,-28.45769,72.2245
1000.0,89125.22,-12.70098,72.2242
2154.4346900318824,70190.14,-30.12637,72.2363
4641.588833612777,68461.14,-12.08237,72.2385
10000.0,76955.82,-38.93762,72.2107
