Frequency,Impedance,Phase Angle,Temperature (Dry Bath)
10.0,22014140.0,-17.66927,67.8973
21.5,29599200.0,-29.36673,67.8916
46.4,27807710.0,-51.36877,67.8643
100.0,4670791.0,-46.52541,67.8894
215.4,6987173.0,-34.77849,67.8814
464.2,3589419.0,-77.8912,67.8908
1000.0,1291648.0,-78.28723,67.8857
2154.4,612223.7,-88.69398,67.8955
4641.6,268593.1,-92.11041,67.9005
10000.0,131114.2,-94.00539,67.891
