Frequency,Impedance,Phase Angle,Temperature (Dry Bath)
10.0,6599278.0,-13.76577,68.0926
21.5,6211474.0,-16.07905,68.0915
46.4,5501030.0,-28.75076,68.094
100.0,3818827.0,-26.64777,68.0784
215.4,4348532.0,-40.42823,68.0912
464.2,1846733.0,-57.65302,68.1065
1000.0,1206411.0,-84.50599,68.0874
2154.4,616849.2,-87.86282,68.0916
4641.6,291794.9,-87.55899,68.0963
10000.0,146284.0,-94.93155,68.1029
