Frequency,Impedance,Phase Angle,Temperature (Dry Bath)
10.0,54163.27,-33.66467,67.2141
21.5,41799.99,-29.55356,67.2194
46.4,33954.36,-25.43912,67.2398
100.0,28527.68,-21.81322,67.2077
215.4,25046.3,-16.23402,67.2154
464.2,22166.22,-15.42293,67.2164
1000.0,20052.57,-13.32298,67.2225
2154.4,18357.58,-11.84142,67.2215
4641.6,17018.32,-12.0607,67.2261
10000.0,15796.69,-14.37571,67.219
