Frequency,Impedance,Phase Angle,Temperature (Dry Bath)
10.0,4087845.0,4.863574,65.6902
21.544346900318832,9962002.0,-20.43662,65.6946
46.41588833612777,4470239.0,-11.88044,65.6897
100.0,1793851.0,13.21523,65.7174
215.44346900318823,7951.52,18.26717,65.6986
464.15888336127773,981713.3,-131.0805,65.7059
1000.0,651628.5,-157.0928,65.7158
2154.4346900318824,228159.7,-84.04725,65.714
4641.588833612777,118346.3,-91.8597,65.6936
10000.0,70295.75,-85.95971,65.7122
