Frequency,Impedance,Phase Angle,Temperature (Dry Bath)
10.0,4712860.0,-2.655426,71.2085
21.544346900318832,4477376.0,-23.60419,71.2133
46.41588833612777,4472694.0,-25.643,71.2143
100.0,527825.8,-109.885,71.2192
215.44346900318823,818540.2,-42.22729,71.2104
464.15888336127773,1658482.0,-111.0951,71.2042
1000.0,571505.2,-35.38497,71.2025
2154.4346900318824,235266.3,-75.93231,71.2078
4641.588833612777,126122.7,-85.08056,71.208
10000.0,65328.45,-88.33217,71.2086
