Frequency,Impedance,Phase Angle,Temperature (Dry Bath)
10.0,6775518.0,-20.71487,71.3048
21.544346900318832,4389919.0,-21.18452,71.3048
46.41588833612777,6018570.0,-55.11552,71.2951
100.0,1661845.0,-116.289,71.3063
215.44346900318823,24351.94,-36.23188,71.2937
464.15888336127773,1375369.0,135.4727,71.2809
1000.0,251635.6,-79.84492,71.298
2154.4346900318824,241688.4,-84.76122,71.2862
4641.588833612777,133339.6,-90.57162,71.2926
10000.0,71908.34,-83.22131,71.3018
