Frequency,Impedance,Phase Angle,Temperature (Dry Bath)
10.0,8163724.0,-3.738881,71.0762
21.544346900318832,8171339.0,-28.13682,71.0544
46.41588833612777,4280926.0,-22.14083,71.0668
100.0,525858.3,13.81515,71.0466
215.44346900318823,438422.8,-80.44259,71.0583
464.15888336127773,493968.0,-92.80676,71.0811
1000.0,665720.5,-9.266585,71.0719
2154.4346900318824,312086.3,-84.97021,71.0735
4641.588833612777,145694.9,-85.97555,71.065
10000.0,54665.1,-86.23341,71.0726
