Frequency,Impedance,Phase Angle,Temperature (Dry Bath)
10.0,1263994.0,1.05964,72.1602
21.544346900318832,1089903.0,-13.34774,72.1624
46.41588833612777,992080.4,-8.026783,72.1537
100.0,489569.9,-30.75986,72.1703
215.44346900318823,761135.8,-147.8554,72.1483
464.15888336127773,331456.3,-49.99466,72.1725
1000.0,178362.4,-61.19199,72.1563
2154.4346900318824,356896.8,-29.13612,72.1582
4641.588833612777,196298.1,-58.38366,72.1531
10000.0,146448.6,-67.17426,72.1624
