Frequency,Impedance,Phase Angle,Temperature (Dry Bath)
10.0,3446016.0,-31.78699,71.4713
21.544346900318832,5600050.0,-8.383976,71.4684
46.41588833612777,5618692.0,4.133822,71.4817
100.0,1820982.0,-36.1707,71.4695
215.44346900318823,1739221.0,-134.9279,71.4708
464.15888336127773,509852.8,-90.87468,71.4672
1000.0,576000.4,-50.46263,71.4676
2154.4346900318824,375400.8,-56.60326,71.4649
4641.588833612777,340072.4,-83.97128,71.4624
10000.0,131474.6,-90.20376,71.4723
