Frequency,Impedance,Phase Angle,Temperature (Dry Bath)
10.0,51047.84,-34.24653,67.1538
21.5,39204.04,-30.432,67.1352
46.4,31519.63,-26.60666,67.1604
100.0,26175.28,-22.85313,67.1414
215.4,22668.22,-19.3424,67.159
464.2,20093.53,-16.60999,67.1635
1000.0,17993.74,-14.37228,67.1772
2154.4,16363.06,-12.90721,67.1571
4641.6,15065.89,-12.75148,67.1674
10000.0,13877.32,-14.46188,67.1606
