Frequency,Impedance,Phase Angle,Temperature (Dry Bath)
10.0,5117363.0,10.66821,66.6
21.544346900318832,5704897.0,15.27682,66.6
46.41588833612777,3660026.0,2.54704,66.6
100.0,513980.4,-63.13211,66.6
215.44346900318823,856920.6,-22.83966,66.6
464.15888336127773,688890.4,-170.9567,66.6
1000.0,489409.7,-98.62725,66.6
2154.4346900318824,695951.4,69.70525,66.6
4641.588833612777,534234.3,-51.63297,66.6
10000.0,231371.1,-46.80796,66.6
