Frequency,Impedance,Phase Angle,Temperature (Dry Bath)
10.0,60038.82,-32.42421,67.3343
21.5,46933.59,-28.23181,67.3414
46.4,38708.38,-24.23088,67.331
100.0,32988.12,-20.27608,67.3383
215.4,28831.64,-16.71783,67.3406
464.2,26008.22,-14.29145,67.3342
1000.0,23647.7,-12.22825,67.3537
2154.4,21760.73,-11.46314,67.3393
4641.6,20172.74,-12.0081,67.3545
10000.0,18783.22,-14.96109,67.3461
