Frequency,Impedance,Phase Angle,Temperature (Dry Bath)
10.0,10842820.0,-3.016946,70.9584
21.544346900318832,9350941.0,-45.46184,70.9519
46.41588833612777,3514747.0,-29.70299,70.9648
100.0,439670.0,-101.3944,70.9512
215.44346900318823,982109.0,-34.63069,70.9583
464.15888336127773,731237.1,-161.3033,70.9539
1000.0,544079.1,-83.23659,70.9472
2154.4346900318824,206715.5,-107.6798,70.9618
4641.588833612777,158181.3,-86.71056,70.9556
10000.0,67175.47,-83.37343,70.9611
