Frequency,Impedance,Phase Angle,Temperature (Dry Bath)
10.0,237632.0,-23.05984,66.9935
21.5,199972.5,-20.28984,66.9861
46.4,173007.6,-17.79124,66.9949
100.0,150336.0,-13.98304,66.9891
215.4,139229.7,-12.05191,66.9954
464.2,127729.3,-15.37486,66.9955
1000.0,113533.9,-17.04623,66.9925
2154.4,102650.0,-22.27505,66.9948
4641.6,83158.86,-30.52749,66.9717
10000.0,62313.86,-43.30844,66.9918
