Frequency,Impedance,Phase Angle,Temperature (Dry Bath)
10.0,25436260.0,-12.68249,67.0317
21.5,27145310.0,-23.14322,67.0366
46.4,17020560.0,-51.19117,67.0267
100.0,2898502.0,-39.89113,67.0127
215.4,57812080.0,-29.92019,67.0181
464.2,2051327.0,-65.35182,67.0331
1000.0,1134054.0,-82.48794,67.0415
2154.4,582169.5,-92.16233,67.0328
4641.6,266555.9,-85.10371,67.0237
10000.0,129034.4,-87.25477,67.0321
