Frequency,Impedance,Phase Angle,Temperature (Dry Bath)
10.0,21103240.0,-33.18311,68.1051
21.5,20420650.0,-32.88654,68.0944
46.4,24514860.0,-49.56988,68.1222
100.0,6084654.0,-64.41161,68.0991
215.4,4482896.0,-63.87917,68.1007
464.2,2025916.0,-71.31846,68.0862
1000.0,1155730.0,-76.64038,68.0891
2154.4,590038.6,-85.43373,68.0905
4641.6,266353.4,-87.20557,68.075
10000.0,129454.3,-92.28414,68.0865
