Frequency,Impedance,Phase Angle,Temperature (Dry Bath)
10.0,128879.8,-3.844756,67.4508
21.5,126199.4,-3.45205,67.4434
46.4,123256.5,-3.090548,67.4395
100.0,121579.0,-3.434317,67.4216
215.4,99151.48,-16.4914,67.4652
464.2,115424.9,-6.447035,67.4445
1000.0,109840.7,-9.999458,67.4513
2154.4,103792.1,-16.71284,67.4565
4641.6,93337.7,-25.44512,67.454
10000.0,71622.04,-41.66956,67.4544
