Frequency,Impedance,Phase Angle,Temperature (Dry Bath)
10.0,184372.5,-22.3251,68.0009
21.5,156095.2,-19.45346,68.0019
46.4,136496.7,-17.13871,67.9895
100.0,118638.3,-16.10332,68.0058
215.4,112385.0,-13.89453,67.992
464.2,100732.1,-14.13605,67.9946
1000.0,92649.79,-14.66312,68.0015
2154.4,83254.96,-19.81909,67.9977
4641.6,73621.59,-25.90829,67.9852
10000.0,60244.02,-39.01527,67.9873
