Frequency,Impedance,Phase Angle,Temperature (Dry Bath)
10.0,8322433.0,13.48638,66.6
21.544346900318832,5422943.0,12.70902,66.6
46.41588833612777,5108309.0,-6.431413,66.6
100.0,504939.7,8.176853,66.6
215.44346900318823,785489.0,-15.97244,66.6
464.15888336127773,717358.8,-172.2365,66.6
1000.0,703258.1,-118.9458,66.6
2154.4346900318824,566240.8,-88.81247,66.6
4641.588833612777,434678.9,-75.66232,66.6
10000.0,564414.2,23.42137,66.6
