Frequency,Impedance,Phase Angle,Temperature (Dry Bath)
10.0,1482301.0,-17.08984,67.2521
21.5,1308402.0,-15.7585,67.2467
46.4,1186219.0,-14.76105,67.2553
100.0,1121743.0,-16.38828,67.2511
215.4,890146.9,-23.53091,67.2295
464.2,908742.9,-26.27072,67.2463
1000.0,678015.9,-44.84412,67.2441
2154.4,467993.0,-63.87515,67.2203
4641.6,230665.1,-68.88958,67.2259
10000.0,112908.7,-78.21911,67.2073
