Frequency,Impedance,Phase Angle,Temperature (Dry Bath)
10.0,3885537.0,-18.47394,71.3461
21.544346900318832,3021324.0,-15.74711,71.3437
46.41588833612777,2254095.0,-26.47337,71.3444
100.0,4728296.0,160.1089,71.3428
215.44346900318823,1080432.0,-70.57527,71.3583
464.15888336127773,480234.5,-38.71226,71.3535
1000.0,246277.8,-87.28818,71.3604
2154.4346900318824,287808.6,-86.97437,71.3377
4641.588833612777,127212.1,-81.89426,71.3405
10000.0,65720.02,-88.18295,71.3522
