Frequency,Impedance,Phase Angle,Temperature (Dry Bath)
10.0,23013590.0,-22.18837,67.9001
21.5,24755860.0,-22.34821,67.8821
46.4,34005940.0,-44.39237,67.8815
100.0,8026784.0,-84.15494,67.8899
215.4,4592118.0,-49.7785,67.8933
464.2,3024817.0,-69.42203,67.8819
1000.0,1406778.0,-77.14114,67.8853
2154.4,677197.6,-83.50466,67.8735
4641.6,305160.8,-89.03758,67.8766
10000.0,149843.1,-99.92402,67.8752
