Frequency,Impedance,Phase Angle,Temperature (Dry Bath)
10.0,897237.0,-37.17512,70.8286
21.544346900318832,667926.2,-39.20948,70.8174
46.41588833612777,474816.4,-34.90494,70.808
100.0,360568.1,-39.55298,70.7929
215.44346900318823,282526.8,-35.98737,70.8082
464.15888336127773,233284.9,-37.43426,70.8079
1000.0,227207.5,-18.30813,70.8161
2154.4346900318824,157855.7,-33.23784,70.813
4641.588833612777,93527.34,-61.87432,70.8207
10000.0,54644.21,-73.9956,70.7898
