Frequency,Impedance,Phase Angle,Temperature (Dry Bath)
10.0,6610696.0,-12.96397,71.1711
21.544346900318832,4848996.0,4.791207,71.1801
46.41588833612777,5146874.0,-14.93375,71.1895
100.0,751485.7,26.5819,71.1689
215.44346900318823,1799044.0,-32.69118,71.1817
464.15888336127773,885824.4,-124.2598,71.1761
1000.0,382691.9,-111.7902,71.1805
2154.4346900318824,437479.1,-93.52889,71.1746
4641.588833612777,112515.6,-79.36995,71.1771
10000.0,59575.35,-90.95096,71.1641
