Frequency,Impedance,Phase Angle,Temperature (Dry Bath)
10.0,21204540.0,-10.14979,68.1378
21.5,23099390.0,-40.94684,68.1529
46.4,27653560.0,-46.65703,68.1484
100.0,12887750.0,28.69052,68.156
215.4,6275400.0,-105.6354,68.1669
464.2,3132106.0,-44.66564,68.1514
1000.0,1254394.0,-85.62014,68.1452
2154.4,584096.0,-88.27735,68.1512
4641.6,290696.1,-91.68904,68.1571
10000.0,149809.8,-97.1799,68.1443
