Frequency,Impedance,Phase Angle,Temperature (Dry Bath)
10.0,17979350.0,-35.35282,67.7932
21.5,21772970.0,-32.35152,67.7821
46.4,25779060.0,-47.27726,67.7948
100.0,4652498.0,-34.58515,67.7777
215.4,6380545.0,-24.65063,67.7832
464.2,2539830.0,-70.24631,67.7748
1000.0,1304867.0,-83.84347,67.7865
2154.4,580082.5,-91.84598,67.7748
4641.6,277246.3,-85.84975,67.7777
10000.0,143136.8,-94.30214,67.7696
