Frequency,Impedance,Phase Angle,Temperature (Dry Bath)
10.0,36642080.0,-28.06801,67.1962
21.5,25645700.0,-22.08268,67.1927
46.4,19359200.0,-45.79406,67.1986
100.0,4549914.0,-55.95229,67.1976
215.4,6954368.0,-86.39895,67.1992
464.2,2628739.0,-88.05548,67.19
1000.0,1116685.0,-87.05282,67.1977
2154.4,569594.9,-88.15078,67.1832
4641.6,263182.6,-87.24037,67.1717
10000.0,123836.2,-87.80465,67.1736
