Frequency,Impedance,Phase Angle,Temperature (Dry Bath)
10.0,16261410.0,-5.009241,67.9246
21.5,19501270.0,-18.01798,67.9101
46.4,21021490.0,-39.65539,67.9296
100.0,5484921.0,-24.64815,67.9211
215.4,4129526.0,-73.33967,67.9235
464.2,4111509.0,-85.85493,67.9485
1000.0,1300071.0,-80.57858,67.9256
2154.4,651196.9,-82.08835,67.9207
4641.6,346829.6,-88.24766,67.92
10000.0,143994.4,-102.1689,67.9142
