Frequency,Impedance,Phase Angle,Temperature (Dry Bath)
10.0,25359680.0,-21.48794,67.026
21.5,18702580.0,-41.82869,67.0238
46.4,17496840.0,-49.61221,67.0277
100.0,4994574.0,24.85488,67.044
215.4,151567.2,113.5393,67.0524
464.2,1803577.0,-65.08267,67.0431
1000.0,1292873.0,-83.15626,67.0482
2154.4,519291.2,-93.52241,67.0433
4641.6,248014.3,-85.64366,67.0536
10000.0,120122.1,-85.87409,67.0641
