Frequency,Impedance,Phase Angle,Temperature (Dry Bath)
10.0,277021.7,-7.267694,70.84
21.544346900318832,270937.4,-6.749258,70.8483
46.41588833612777,250563.8,-8.338493,70.8386
100.0,195840.2,10.82277,70.8308
215.44346900318823,218795.9,-23.50093,70.8457
464.15888336127773,196166.2,-12.35814,70.8439
1000.0,157428.2,-3.462491,70.8429
2154.4346900318824,144380.4,-31.07217,70.8444
4641.588833612777,92263.48,-56.48298,70.8396
10000.0,56746.85,-63.64279,70.8282
