Frequency,Impedance,Phase Angle,Temperature (Dry Bath)
10.0,169221.8,-11.9672,65.7105
21.544346900318832,159369.8,-10.50759,65.6856
46.41588833612777,145766.6,-10.33512,65.7167
100.0,145031.1,-10.3199,65.6976
215.44346900318823,158311.8,-30.43779,65.6854
464.15888336127773,111361.5,-11.68066,65.6856
1000.0,98003.54,-18.56232,65.6921
2154.4346900318824,100585.5,-16.83495,65.6824
4641.588833612777,72407.42,-39.2175,65.7023
10000.0,55697.28,-53.10715,65.6899
