Frequency,Impedance,Phase Angle,Temperature (Dry Bath)
10.0,132943.4,-3.775999,67.494
21.5,129719.9,-3.328701,67.4847
46.4,127231.4,-3.236392,67.4905
100.0,122465.8,-2.272519,67.4919
215.4,109955.9,28.31329,67.4716
464.2,120654.5,-5.500656,67.4693
1000.0,114445.1,-10.42122,67.4606
2154.4,108554.9,-16.59472,67.5002
4641.6,95124.25,-27.01862,67.4784
10000.0,72505.7,-42.54947,67.4677
