Frequency,Impedance,Phase Angle,Temperature (Dry Bath)
10.0,27167820.0,1.15551,67.6711
21.5,34363080.0,-21.95344,67.6468
46.4,35343760.0,-62.06622,67.6648
100.0,3747361.0,-32.37143,67.6644
215.4,4663258.0,-76.1381,67.6756
464.2,2263503.0,-78.73805,67.6521
1000.0,1152263.0,-85.47745,67.6694
2154.4,558242.5,-85.40192,67.6638
4641.6,282782.4,-91.02486,67.6489
10000.0,140415.7,-96.3351,67.6839
