Frequency,Impedance,Phase Angle,Temperature (Dry Bath)
10.0,6256906.0,40.06675,71.494
21.544346900318832,5194234.0,-7.913684,71.5185
46.41588833612777,8229017.0,-16.36919,71.5041
100.0,298766.8,-82.90324,71.5028
215.44346900318823,727410.0,-52.81689,71.5054
464.15888336127773,820486.4,-64.86803,71.5048
1000.0,1740296.0,30.90453,71.5121
2154.4346900318824,1654794.0,-54.43218,71.5129
4641.588833612777,173063.8,-79.17579,71.5084
10000.0,132218.3,-80.29413,71.5126
