Frequency,Impedance,Phase Angle,Temperature (Dry Bath)
10.0,30789030.0,-36.53237,67.4767
21.5,21841400.0,-27.85026,67.4752
46.4,13794100.0,-42.79713,67.4629
100.0,6235522.0,-32.06607,67.485
215.4,437718.6,158.7973,67.4757
464.2,1898854.0,-81.74144,67.4702
1000.0,845006.6,-80.30699,67.4764
2154.4,485410.3,-82.21495,67.4923
4641.6,250913.1,-79.15432,67.4731
10000.0,125918.7,-79.98368,67.4784
