Frequency,Impedance,Phase Angle,Temperature (Dry Bath)
10.0,27504020.0,-12.10732,67.3523
21.5,26989730.0,-39.35818,67.346
46.4,18227670.0,-50.88461,67.3667
100.0,5029164.0,-37.44636,67.3646
215.4,4012663.0,-81.05897,67.3582
464.2,3078878.0,-62.07184,67.3513
1000.0,984552.1,-91.85017,67.3512
2154.4,555601.2,-83.21518,67.36
4641.6,275058.3,-84.61839,67.3644
10000.0,130937.9,-86.043,67.3458
