Frequency,Impedance,Phase Angle,Temperature (Dry Bath)
10.0,2490845.0,-29.5798,71.4308
21.544346900318832,2273670.0,-10.8351,71.4466
46.41588833612777,2016592.0,-27.09513,71.4433
100.0,397601.0,-22.1656,71.4561
215.44346900318823,31457.69,-114.6681,71.4404
464.15888336127773,476556.9,-120.4349,71.44
1000.0,271662.8,-43.59537,71.4395
2154.4346900318824,370878.3,-66.49923,71.4437
4641.588833612777,117590.3,-86.73893,71.4471
10000.0,66255.87,-77.35991,71.4334
