Frequency,Impedance,Phase Angle,Temperature (Dry Bath)
10.0,5508092.0,-24.66285,71.4283
21.544346900318832,5158279.0,27.18657,71.4421
46.41588833612777,4563926.0,-23.95439,71.4311
100.0,445858.4,-64.61667,71.4428
215.44346900318823,704257.1,-139.6247,71.4414
464.15888336127773,3636014.0,-4.727435,71.448
1000.0,248657.8,-36.1019,71.4395
2154.4346900318824,267997.2,-101.1603,71.4454
4641.588833612777,106374.1,-85.00092,71.4431
10000.0,68124.99,-78.15194,71.4349
