Frequency,Impedance,Phase Angle,Temperature (Dry Bath)
10.0,19428160.0,-31.10063,67.9782
21.5,39936870.0,-26.08288,67.956
46.4,32567860.0,-44.33771,67.9608
100.0,4725027.0,-22.80684,67.9738
215.4,6357322.0,-68.20749,67.9713
464.2,2940379.0,-59.90707,67.982
1000.0,1382453.0,-85.89452,67.9861
2154.4,679785.4,-90.54877,67.9466
4641.6,326132.2,-90.39292,67.9817
10000.0,147850.7,-94.62529,67.9779
