Frequency,Impedance,Phase Angle,Temperature (Dry Bath)
10.0,179480.4,-13.28963,71.3583
21.544346900318832,163111.0,-10.66627,71.3717
46.41588833612777,147742.9,-11.57676,71.3805
100.0,131667.8,-17.95858,71.3638
215.44346900318823,106397.0,-2.273256,71.376
464.15888336127773,102872.8,-12.97298,71.3771
1000.0,86059.45,-25.12688,71.3842
2154.4346900318824,94119.41,-29.03521,71.3805
4641.588833612777,75996.69,-47.65475,71.3833
10000.0,53592.3,-58.22977,71.3722
