Frequency,Impedance,Phase Angle,Temperature (Dry Bath)
10.0,17794410.0,-11.09551,68.2523
21.5,17044160.0,-19.4018,68.2752
46.4,18602440.0,-58.16715,68.2601
100.0,4545828.0,-26.23259,68.2668
215.4,3026061.0,-64.90666,68.2689
464.2,2462867.0,-74.25888,68.2531
1000.0,1316961.0,-84.73665,68.2491
2154.4,633644.3,-86.93768,68.2611
4641.6,326804.2,-91.78504,68.2563
10000.0,145947.1,-95.17648,68.2495
