Frequency,Impedance,Phase Angle,Temperature (Dry Bath)
10.0,20110470.0,-1.269522,68.1499
21.5,25613910.0,-21.99456,68.151
46.4,21105780.0,-43.31362,68.1708
100.0,11982710.0,-60.42939,68.1329
215.4,5448076.0,-59.46681,68.1486
464.2,2251645.0,-68.06722,68.1647
1000.0,1341710.0,-81.5448,68.1436
2154.4,628452.5,-89.80185,68.1375
4641.6,323673.3,-90.76168,68.1371
10000.0,151300.3,-95.31689,68.1465
