Frequency,Impedance,Phase Angle,Temperature (Dry Bath)
10.0,3108846.0,-9.022276,67.8959
21.5,3113389.0,-9.570755,67.8997
46.4,2609629.0,-12.99423,67.904
100.0,2140267.0,-22.04539,67.8998
215.4,1984136.0,-16.61919,67.9021
464.2,1451532.0,-27.08336,67.9164
1000.0,964739.0,-62.49695,67.9128
2154.4,563207.3,-68.61332,67.9062
4641.6,303027.6,-81.14734,67.9195
10000.0,155450.5,-90.92723,67.9011
