Frequency,Impedance,Phase Angle,Temperature (Dry Bath)
10.0,25866370.0,-14.34123,68.049
21.5,19187340.0,-18.37361,68.0631
46.4,19063780.0,-43.11663,68.06
100.0,5212383.0,-34.10059,68.0577
215.4,6520803.0,-85.69054,68.06
464.2,3107586.0,-90.94605,68.0755
1000.0,1401138.0,-88.35189,68.0621
2154.4,728603.2,-92.27775,68.0545
4641.6,297576.9,-90.02874,68.0737
10000.0,158131.3,-94.20667,68.0655
