Frequency,Impedance,Phase Angle,Temperature (Dry Bath)
10.0,207587.0,-23.5214,67.1942
21.5,173968.6,-20.4292,67.1839
46.4,149531.6,-17.56474,67.1854
100.0,131858.6,-15.99836,67.1745
215.4,430075.8,-1.820135,67.1896
464.2,111719.3,-13.77741,67.1857
1000.0,99528.88,-15.20917,67.1834
2154.4,89858.95,-19.5636,67.1928
4641.6,76913.36,-27.70828,67.1931
10000.0,59377.93,-39.41477,67.1973
