Frequency,Impedance,Phase Angle,Temperature (Dry Bath)
10.0,17264300.0,-11.46196,68.1459
21.5,19279810.0,-14.03034,68.1224
46.4,30183770.0,-42.3955,68.1323
100.0,6094122.0,-47.27938,68.1367
215.4,6689423.0,-94.20095,68.1352
464.2,2684120.0,-83.59283,68.1278
1000.0,1410610.0,-84.54098,68.1439
2154.4,613100.1,-87.81284,68.123
4641.6,327026.7,-91.12019,68.1352
10000.0,145918.0,-96.02414,68.1462
