Frequency,Impedance,Phase Angle,Temperature (Dry Bath)
10.0,150631.8,-4.976541,68.051
21.5,146427.9,-4.093615,68.0547
46.4,142606.6,-3.765951,68.0532
100.0,134553.0,-4.846224,68.0651
215.4,136621.0,-7.068267,68.0629
464.2,131508.3,-7.604088,68.0449
1000.0,129015.3,-9.736237,68.0699
2154.4,126875.2,-16.12552,68.0602
4641.6,107304.9,-28.30744,68.0583
10000.0,87678.37,-49.9787,68.048
