Frequency,Impedance,Phase Angle,Temperature (Dry Bath)
10.0,6369702.0,-9.700087,71.4308
21.544346900318832,5998260.0,-2.240098,71.447
46.41588833612777,4582984.0,-35.80332,71.4448
100.0,226521.6,-128.8884,71.4453
215.44346900318823,1074319.0,-30.2912,71.4614
464.15888336127773,322989.4,-80.71914,71.4359
1000.0,343567.7,-11.22528,71.4422
2154.4346900318824,298778.7,-67.36049,71.426
4641.588833612777,137427.0,-103.7382,71.4489
10000.0,61912.48,-84.00777,71.4348
