Frequency,Impedance,Phase Angle,Temperature (Dry Bath)
10.0,1928767.0,-11.21886,68.1809
21.5,1821509.0,-12.09425,68.176
46.4,1741926.0,-13.64182,68.1899
100.0,1295312.0,-24.87362,68.1625
215.4,1273297.0,-30.93138,68.1717
464.2,1255016.0,-32.92341,68.1694
1000.0,845055.6,-50.65796,68.1736
2154.4,534076.1,-62.98409,68.175
4641.6,294643.9,-79.40958,68.1742
10000.0,148346.5,-89.03456,68.1792
