Frequency,Impedance,Phase Angle,Temperature (Dry Bath)
10.0,27148340.0,1.922288,68.0848
21.5,16335330.0,-20.88234,68.0848
46.4,23820530.0,-50.92757,68.0848
100.0,4240142.0,-36.41537,68.0848
215.4,3680997.0,-58.28885,68.0848
464.2,2323477.0,-82.50489,68.0848
1000.0,1186561.0,-78.6389,68.0848
2154.4,639903.6,-89.46467,68.0848
4641.6,325689.0,-91.90048,68.0848
10000.0,147883.7,-97.45187,68.0848
