Frequency,Impedance,Phase Angle,Temperature (Dry Bath)
10.0,26296300.0,-23.33018,68.1347
21.5,30742120.0,-27.81477,68.1485
46.4,33508210.0,-49.18494,68.1222
100.0,12023650.0,-51.63485,68.1448
215.4,5124032.0,-93.05164,68.1466
464.2,2227961.0,-75.31233,68.1522
1000.0,1361198.0,-88.95648,68.1421
2154.4,677640.1,-92.33137,68.1369
4641.6,297913.2,-91.29694,68.1362
10000.0,145993.0,-98.32587,68.1442
