Frequency,Impedance,Phase Angle,Temperature (Dry Bath)
10.0,26269760.0,-1.427174,67.8855
21.5,29366560.0,-37.64048,67.8732
46.4,36317780.0,-51.26881,67.8876
100.0,4681158.0,-50.80178,67.8664
215.4,5192358.0,-72.13847,67.8818
464.2,3560464.0,-95.05922,67.872
1000.0,1482771.0,-91.94188,67.8764
2154.4,669683.9,-84.77209,67.8836
4641.6,378709.2,-91.22656,67.8838
10000.0,153191.0,-97.43242,67.8837
