Frequency,Impedance,Phase Angle,Temperature (Dry Bath)
10.0,681179.1,-7.320622,71.389
21.544346900318832,637541.1,-5.261787,71.404
46.41588833612777,595760.4,-4.739826,71.3959
100.0,325108.8,-13.14547,71.3953
215.44346900318823,580589.3,-32.88771,71.3983
464.15888336127773,431249.6,-30.68989,71.3927
1000.0,344445.7,-44.59513,71.3992
2154.4346900318824,418850.3,-41.63401,71.3696
4641.588833612777,215465.1,-73.13024,71.3835
10000.0,98064.53,-72.52919,71.3988
