Frequency,Impedance,Phase Angle,Temperature (Dry Bath)
10.0,2976207.0,-10.60374,67.9104
21.5,2538433.0,-8.700725,67.9026
46.4,2123719.0,-12.253,67.9109
100.0,1808275.0,-7.286999,67.907
215.4,1893085.0,-26.93353,67.9009
464.2,1776282.0,-27.8854,67.8812
1000.0,1030808.0,-48.70409,67.8886
2154.4,540769.6,-69.49006,67.8997
4641.6,279907.5,-77.59665,67.8971
10000.0,129893.6,-92.39653,67.8936
