Frequency,Impedance,Phase Angle,Temperature (Dry Bath)
10.0,43916660.0,-25.40695,67.7328
21.5,26439460.0,-35.98063,67.7257
46.4,13160040.0,-58.8318,67.7362
100.0,5791332.0,-53.70649,67.7158
215.4,3566315.0,-53.23038,67.7327
464.2,1801648.0,-83.5053,67.7232
1000.0,1116099.0,-79.02549,67.7247
2154.4,501845.6,-79.88743,67.7167
4641.6,257911.6,-83.51037,67.7287
10000.0,137174.6,-90.8098,67.7241
