Frequency,Impedance,Phase Angle,Temperature (Dry Bath)
10.0,4956309.0,9.104451,66.3697
21.544346900318832,5152706.0,-20.35709,66.3621
46.41588833612777,4325813.0,-16.92965,66.3645
100.0,896495.4,123.0089,66.3541
215.44346900318823,771412.7,116.7533,66.3632
464.15888336127773,1031623.0,-15.87818,66.3523
1000.0,1958902.0,-68.63591,66.3731
2154.4346900318824,271981.3,-86.06963,66.3596
4641.588833612777,128665.3,-72.31827,66.3505
10000.0,67918.2,-91.35397,66.3676
