Frequency,Impedance,Phase Angle,Temperature (Dry Bath)
10.0,17790050.0,-25.80944,67.4576
21.5,30731510.0,-52.66279,67.4596
46.4,19320210.0,-47.65681,67.4477
100.0,4905387.0,-72.16486,67.474
215.4,3928202.0,-101.0727,67.4527
464.2,2652904.0,-86.3498,67.4483
1000.0,1338669.0,-80.63775,67.4546
2154.4,562780.7,-88.00573,67.4436
4641.6,265248.9,-85.83102,67.4472
10000.0,126351.6,-85.94131,67.4462
