Frequency,Impedance,Phase Angle,Temperature (Dry Bath)
10.0,5831794.0,5.965999,71.3697
21.544346900318832,4189992.0,24.01198,71.3885
46.41588833612777,5637202.0,-22.41859,71.3673
100.0,1438260.0,89.05158,71.3774
215.44346900318823,1845489.0,23.33463,71.3703
464.15888336127773,1048267.0,39.50464,71.3937
1000.0,403434.0,-1.248,71.3901
2154.4346900318824,592034.1,-108.6572,71.3934
4641.588833612777,214121.6,-90.87573,71.3806
10000.0,98186.9,-88.72741,71.3881
