Frequency,Impedance,Phase Angle,Temperature (Dry Bath)
10.0,3886687.0,-1.107264,67.3639
21.5,3663445.0,-0.681612,67.362
46.4,5773041.0,-10.97301,67.3532
100.0,3340612.0,-19.65549,67.357
215.4,204863.2,65.57488,67.3404
464.2,2381854.0,-57.31235,67.3703
1000.0,1144476.0,-75.94088,67.3798
2154.4,540017.0,-82.46712,67.3619
4641.6,255276.6,-84.73576,67.3619
10000.0,123133.1,-85.77359,67.3736
