Frequency,Impedance,Phase Angle,Temperature (Dry Bath)
10.0,37169610.0,-24.32538,67.7277
21.5,51528600.0,-31.61317,67.734
46.4,38049150.0,-51.88772,67.7544
100.0,7164233.0,-74.84965,67.745
215.4,5309291.0,-98.68056,67.7358
464.2,2765159.0,-53.12911,67.7266
1000.0,1381854.0,-79.1665,67.7351
2154.4,554968.6,-85.2661,67.7271
4641.6,305271.6,-91.57075,67.7377
10000.0,153355.5,-96.66909,67.72
