Frequency,Impedance,Phase Angle,Temperature (Dry Bath)
10.0,16364280.0,-12.26069,68.1621
21.5,15537300.0,-41.84162,68.1538
46.4,16739110.0,-59.71939,68.1615
100.0,9581928.0,-63.68956,68.1485
215.4,5634806.0,-47.02401,68.1696
464.2,3174173.0,-93.65626,68.1647
1000.0,1275142.0,-76.12805,68.1635
2154.4,739090.7,-91.74908,68.1666
4641.6,275362.5,-94.47599,68.1668
10000.0,136672.8,-99.64374,68.1775
