Frequency,Impedance,Phase Angle,Temperature (Dry Bath)
10.0,2188542.0,-10.89492,68.1141
21.5,2082442.0,-12.1112,68.1141
46.4,2128754.0,-13.94461,68.1141
100.0,1617232.0,-18.42052,68.1141
215.4,1655134.0,-28.70613,68.1141
464.2,1332158.0,-38.17608,68.1141
1000.0,920588.4,-44.59344,68.1141
2154.4,554161.8,-63.60954,68.1141
4641.6,297359.3,-77.99138,68.1141
10000.0,151066.7,-89.7355,68.1141
