Frequency,Impedance,Phase Angle,Temperature (Dry Bath)
10.0,30606650.0,-19.63089,68.1863
21.5,24671650.0,-43.08179,68.1877
46.4,24057440.0,-52.39678,68.1776
100.0,5117844.0,-41.87531,68.1861
215.4,7362299.0,-119.1895,68.1636
464.2,2803160.0,-81.19992,68.1733
1000.0,1343119.0,-79.10841,68.1695
2154.4,687668.8,-89.74548,68.1965
4641.6,299808.1,-90.48417,68.1882
10000.0,138969.0,-98.91094,68.1791
