Frequency,Impedance,Phase Angle,Temperature (Dry Bath)
10.0,6371262.0,-2.335816,65.7383
21.544346900318832,3364631.0,-21.53542,65.7399
46.41588833612777,3737756.0,-48.83897,65.7404
100.0,655805.5,74.13199,65.7486
215.44346900318823,26972.1,-134.9296,65.7518
464.15888336127773,451753.3,-111.3926,65.7517
1000.0,9013916.0,150.9155,65.745
2154.4346900318824,202362.3,-95.50571,65.7536
4641.588833612777,139047.3,-98.31086,65.7604
10000.0,66311.41,-80.23237,65.7588
