Frequency,Impedance,Phase Angle,Temperature (Dry Bath)
10.0,1553826.0,-14.22246,67.9519
21.5,1401430.0,-13.49182,67.9519
46.4,1194347.0,-13.65806,67.9519
100.0,969558.7,-16.41526,67.9519
215.4,989789.8,-19.92256,67.9519
464.2,870041.5,-29.4264,67.9519
1000.0,786995.9,-40.91744,67.9519
2154.4,514365.3,-58.60025,67.9519
4641.6,294042.2,-80.18795,67.9519
10000.0,146515.2,-87.50585,67.9519
