Frequency,Impedance,Phase Angle,Temperature (Dry Bath)
10.0,1207881.0,-15.62552,71.7321
21.544346900318832,934338.6,-4.81398,71.7359
46.41588833612777,1002326.0,-9.477994,71.7653
100.0,254474.9,9.153047,71.7445
215.44346900318823,987355.2,-97.39211,71.7268
464.15888336127773,324901.0,-17.96536,71.7461
1000.0,588519.0,14.44774,71.7351
2154.4346900318824,370931.9,-108.4666,71.7611
4641.588833612777,173495.1,-4.823594,71.7482
10000.0,157311.1,-68.96359,71.7556
