Frequency,Impedance,Phase Angle,Temperature (Dry Bath)
10.0,21641590.0,-18.51494,68.0668
21.5,35553910.0,-32.94627,68.0646
46.4,30467960.0,-55.00988,68.0503
100.0,9435468.0,-53.00018,68.059
215.4,3984613.0,-72.50598,68.0514
464.2,3082003.0,-100.9323,68.0701
1000.0,1187460.0,-85.50497,68.05
2154.4,625110.1,-85.72274,68.0613
4641.6,273828.3,-92.50296,68.0565
10000.0,141954.2,-93.03087,68.0607
