Frequency,Impedance,Phase Angle,Temperature (Dry Bath)
10.0,29679040.0,-23.24208,67.2762
21.5,23225160.0,-36.57608,67.2853
46.4,14367030.0,-57.15396,67.283
100.0,5066868.0,-53.17461,67.2828
215.4,3783144.0,-17.31464,67.2585
464.2,2161543.0,-75.19464,67.2726
1000.0,854486.2,-82.2764,67.2851
2154.4,468810.4,-86.8637,67.2757
4641.6,219008.0,-80.21785,67.2759
10000.0,108897.5,-74.93973,67.2689
