Frequency,Impedance,Phase Angle,Temperature (Dry Bath)
10.0,30684720.0,-13.23276,67.096
21.5,32598340.0,-30.57082,67.0813
46.4,22201180.0,-51.99751,67.0773
100.0,4219261.0,-36.7332,67.0923
215.4,5780533.0,-64.97478,67.085
464.2,2636298.0,-83.28047,67.0827
1000.0,1202339.0,-86.93694,67.0837
2154.4,526501.0,-85.01249,67.0868
4641.6,261206.1,-84.89531,67.08
10000.0,122622.8,-86.72204,67.0884
