Frequency,Impedance,Phase Angle,Temperature (Dry Bath)
10.0,29159150.0,-24.81417,67.4169
21.5,20338970.0,-40.5934,67.3879
46.4,28780230.0,-57.43004,67.4156
100.0,3704357.0,-23.91057,67.4142
215.4,2798506.0,-86.88908,67.4103
464.2,1836468.0,-79.35554,67.4047
1000.0,812033.4,-74.87279,67.4008
2154.4,443710.9,-82.37773,67.4128
4641.6,224123.0,-79.99591,67.4196
10000.0,110514.6,-79.93522,67.4033
