Frequency,Impedance,Phase Angle,Temperature (Dry Bath)
10.0,581519.4,-1.294017,26.1774
21.544346900318832,477432.0,-0.6115753,26.1829
46.41588833612777,421092.7,-0.5680874,26.276
100.0,422181.5,-5.500309,25.8728
215.44346900318823,503478.1,-2.088231,25.7879
464.15888336127773,915338.2,16.23068,25.7703
1000.0,201539.8,-40.66632,25.7216
2154.4346900318824,346931.7,-48.24445,25.4374
4641.588833612777,198057.5,-55.24784,25.9414
10000.0,143103.3,-72.75542,25.6056
