Frequency,Impedance,Phase Angle,Temperature (Dry Bath)
10.0,41464.38,-14.66643,71.5274
21.544346900318832,37768.14,-12.52958,71.5357
46.41588833612777,34472.26,-11.61683,71.5294
100.0,34839.06,-9.509736,71.5252
215.44346900318823,28126.92,-12.01804,71.5285
464.15888336127773,25775.24,-9.215094,71.5227
1000.0,25527.23,-10.53958,71.5316
2154.4346900318824,23721.15,-12.62705,71.5359
4641.588833612777,21459.6,-15.58118,71.5232
10000.0,19799.15,-23.13137,71.5233
