Frequency,Impedance,Phase Angle,Temperature (Dry Bath)
10.0,168554.4,-13.96512,71.0025
21.544346900318832,152916.1,-11.63414,71.0059
46.41588833612777,138261.2,-11.72983,71.0046
100.0,102983.5,-17.32287,70.9855
215.44346900318823,132154.9,-17.8641,71.0078
464.15888336127773,106262.7,-12.71723,71.0064
1000.0,82345.3,-11.37506,70.9907
2154.4346900318824,90211.23,-23.80145,71.0036
4641.588833612777,64695.94,-36.75841,71.0111
10000.0,46397.4,-56.90948,70.9922
