Frequency,Impedance,Phase Angle,Temperature (Dry Bath)
10.0,4743384.0,11.21284,70.4721
21.544346900318832,5580388.0,-77.13174,70.5045
46.41588833612777,4992519.0,-23.45349,70.5102
100.0,474514.3,-64.16906,70.4895
215.44346900318823,1255363.0,59.88574,70.4832
464.15888336127773,545891.3,-160.0904,70.4974
1000.0,500628.5,-48.39093,70.5002
2154.4346900318824,207054.8,-90.96059,70.501
4641.588833612777,119522.9,-89.19042,70.5192
10000.0,61886.93,-88.34251,70.5155
