Frequency,Impedance,Phase Angle,Temperature (Dry Bath)
10.0,4154725.0,-1.441761,71.077
21.544346900318832,5032394.0,19.44987,71.0791
46.41588833612777,4019475.0,-16.23248,71.0709
100.0,442724.6,-71.44511,71.0694
215.44346900318823,2581281.0,-5.852112,71.0681
464.15888336127773,644560.7,-5.842656,71.0876
1000.0,858153.4,-109.0656,71.0646
2154.4346900318824,354402.0,-93.71749,71.0671
4641.588833612777,119429.2,-88.79285,71.07
10000.0,61850.09,-84.92451,71.0697
