Frequency,Impedance,Phase Angle,Temperature (Dry Bath)
10.0,144136.7,-20.41313,67.999
21.5,124324.7,-17.27921,67.984
46.4,110887.1,-14.88007,67.9959
100.0,99716.82,-12.91225,68.0011
215.4,92804.46,-11.32828,68.0036
464.2,83519.68,-10.95883,67.9948
1000.0,80176.96,-13.21908,67.9983
2154.4,70594.54,-15.15556,67.9938
4641.6,62775.89,-22.68298,67.9928
10000.0,55653.02,-34.04655,67.991
