Frequency,Impedance,Phase Angle,Temperature (Dry Bath)
10.0,151513.5,-4.982752,67.8012
21.5,147343.4,-3.982214,67.816
46.4,143700.5,-3.748042,67.8103
100.0,136331.8,-5.439248,67.803
215.4,133942.0,-4.931891,67.8165
464.2,135205.9,-5.249048,67.818
1000.0,129795.5,-9.674111,67.8227
2154.4,118612.2,-19.40188,67.8358
4641.6,107679.2,-27.66502,67.8205
10000.0,84044.79,-53.26773,67.8157
