Frequency,Impedance,Phase Angle,Temperature (Dry Bath)
10.0,27343330.0,-25.95299,67.3415
21.5,22780680.0,-28.62455,67.3453
46.4,20126860.0,-56.05692,67.3484
100.0,4419694.0,-118.6573,67.3626
215.4,2943686.0,-84.95757,67.35
464.2,2238344.0,-74.47205,67.3428
1000.0,1040651.0,-90.44491,67.3453
2154.4,535970.3,-89.68642,67.3452
4641.6,256944.1,-84.67547,67.3463
10000.0,120831.6,-85.00006,67.3342
