Frequency,Impedance,Phase Angle,Temperature (Dry Bath)
10.0,6680711.0,6.559721,71.2029
21.544346900318832,4542672.0,-23.52246,71.1933
46.41588833612777,3467023.0,-48.47065,71.2057
100.0,1428198.0,133.5979,71.1989
215.44346900318823,733967.1,-113.4619,71.1937
464.15888336127773,794536.7,35.45152,71.1936
1000.0,426666.9,-96.63996,71.1723
2154.4346900318824,166017.0,-72.58521,71.1752
4641.588833612777,75499.98,-90.30296,71.1996
10000.0,37710.16,-84.50758,71.1904
