Frequency,Impedance,Phase Angle,Temperature (Dry Bath)
10.0,16002470.0,-15.62947,67.9909
21.5,18546460.0,-33.12075,67.9745
46.4,17126200.0,-43.6314,67.9902
100.0,9259530.0,-23.57844,67.9769
215.4,4435964.0,-85.28325,67.9778
464.2,3938477.0,-88.01167,67.981
1000.0,1223026.0,-76.49216,67.9773
2154.4,606124.7,-85.92039,67.97
4641.6,281418.8,-91.81801,67.9932
10000.0,135588.1,-90.7639,67.9801
