Frequency,Impedance,Phase Angle,Temperature (Dry Bath)
10.0,40896050.0,-14.7694,68.031
21.5,34200180.0,-41.08802,68.031
46.4,14614420.0,-50.44778,68.031
100.0,6510854.0,-13.15612,68.031
215.4,5444174.0,-85.81289,68.031
464.2,2685148.0,-80.04706,68.031
1000.0,1202036.0,-81.15746,68.031
2154.4,643400.2,-87.68386,68.031
4641.6,293781.4,-86.34384,68.031
10000.0,153423.9,-97.30076,68.031
