Frequency,Impedance,Phase Angle,Temperature (Dry Bath)
10.0,1549654.0,-17.69176,67.7202
21.5,1312850.0,-15.28157,67.7247
46.4,1170131.0,-13.77014,67.7121
100.0,927006.6,-10.80242,67.708
215.4,1086136.0,-15.79875,67.7074
464.2,814322.5,-28.3377,67.7045
1000.0,696119.2,-42.6794,67.7124
2154.4,472666.0,-56.74778,67.702
4641.6,267562.1,-72.32619,67.716
10000.0,130145.2,-89.53507,67.6994
