Frequency,Impedance,Phase Angle,Temperature (Dry Bath)
10.0,1596769.0,-13.9191,68.0692
21.5,1488470.0,-13.80913,68.0692
46.4,1256236.0,-13.38016,68.0692
100.0,1167072.0,-15.93316,68.0692
215.4,1115333.0,-17.20073,68.0692
464.2,943125.0,-28.28981,68.0692
1000.0,737048.5,-42.22605,68.0692
2154.4,489381.3,-59.97833,68.0692
4641.6,285033.5,-73.03541,68.0692
10000.0,134861.7,-90.85469,68.0692
