Frequency,Impedance,Phase Angle,Temperature (Dry Bath)
10.0,2957781.0,-13.66132,71.2829
21.544346900318832,2670011.0,-0.5923941,71.2685
46.41588833612777,2608802.0,-29.1289,71.2595
100.0,966226.2,-9.576509,71.273
215.44346900318823,1031696.0,18.09021,71.2726
464.15888336127773,1037110.0,-10.79396,71.2697
1000.0,318244.0,-68.71682,71.2751
2154.4346900318824,289576.6,-77.26086,71.2624
4641.588833612777,132003.0,-92.76208,71.2716
10000.0,64954.96,-88.62974,71.2666
