Frequency,Impedance,Phase Angle,Temperature (Dry Bath)
10.0,27611370.0,-6.000523,67.2561
21.5,32444570.0,-34.37904,67.261
46.4,11471240.0,-65.84195,67.2437
100.0,2570668.0,-40.10256,67.2524
215.4,146329.8,-108.8598,67.257
464.2,2396617.0,-97.08859,67.2586
1000.0,1117534.0,-76.01157,67.2386
2154.4,561882.9,-88.08647,67.242
4641.6,248655.3,-84.3317,67.2401
10000.0,123655.9,-84.56711,67.2655
