Frequency,Impedance,Phase Angle,Temperature (Dry Bath)
10.0,30791300.0,-14.68007,67.1279
21.5,23318800.0,-29.04999,67.142
46.4,15705000.0,-55.75884,67.1379
100.0,4068696.0,-15.78256,67.1461
215.4,109030.0,-47.38196,67.132
464.2,2148484.0,-76.6921,67.1365
1000.0,1119392.0,-84.02593,67.1226
2154.4,535787.3,-84.16137,67.1475
4641.6,250884.5,-85.83445,67.1335
10000.0,117804.2,-85.42072,67.1392
