Frequency,Impedance,Phase Angle,Temperature (Dry Bath)
10.0,24227510.0,-13.0741,68.1016
21.5,23537480.0,-22.87169,68.1016
46.4,33589730.0,-47.97397,68.1016
100.0,7521778.0,-58.40942,68.1016
215.4,7101630.0,-73.83994,68.1016
464.2,2936384.0,-77.97345,68.1016
1000.0,1492345.0,-83.45958,68.1016
2154.4,724634.3,-89.62738,68.1016
4641.6,322743.2,-91.91018,68.1016
10000.0,145216.7,-102.0947,68.1016
