Frequency,Impedance,Phase Angle,Temperature (Dry Bath)
10.0,30893220.0,-31.14426,68.0986
21.5,37120840.0,-25.23774,68.1009
46.4,29818700.0,-47.65364,68.0867
100.0,5984512.0,-41.39743,68.0986
215.4,4502461.0,-77.70624,68.1006
464.2,3211068.0,-74.21314,68.1181
1000.0,1305045.0,-93.70447,68.1022
2154.4,660192.6,-90.1484,68.0998
4641.6,314067.2,-88.37298,68.0986
10000.0,137279.8,-97.8794,68.1018
