Frequency,Impedance,Phase Angle,Temperature (Dry Bath)
10.0,54754.78,-33.40051,67.0661
21.5,42364.53,-29.64582,67.0554
46.4,34304.85,-25.95805,67.0458
100.0,28697.55,-21.90061,67.0695
215.4,24882.64,-18.70907,67.081
464.2,22021.24,-15.88822,67.0711
1000.0,19847.97,-14.11573,67.0633
2154.4,18010.85,-13.05261,67.0675
4641.6,16600.28,-12.97929,67.0556
10000.0,15300.4,-15.02756,67.0519
