Frequency,Impedance,Phase Angle,Temperature (Dry Bath)
10.0,141083.0,-20.11331,68.0425
21.5,121762.0,-17.10066,68.0515
46.4,109915.8,-14.86932,68.0553
100.0,96285.7,-14.14517,68.0458
215.4,90873.48,-12.41852,68.0412
464.2,85618.72,-11.5156,68.0429
1000.0,77098.54,-12.10253,68.0264
2154.4,70544.04,-16.84292,68.0523
4641.6,64417.79,-23.36111,68.0332
10000.0,54282.01,-36.15617,68.0332
