Frequency,Impedance,Phase Angle,Temperature (Dry Bath)
10.0,44026.3,-14.94172,70.6119
21.544346900318832,39549.09,-12.60127,70.6061
46.41588833612777,36210.12,-11.6209,70.6112
100.0,34991.13,-10.25556,70.5948
215.44346900318823,31778.29,-10.53331,70.5929
464.15888336127773,29375.7,-9.962798,70.598
1000.0,26022.52,-9.466577,70.5989
2154.4346900318824,24612.43,-12.12748,70.5951
4641.588833612777,22163.33,-15.56853,70.6009
10000.0,19419.92,-25.247,70.6072
