Frequency,Impedance,Phase Angle,Temperature (Dry Bath)
10.0,29140580.0,-12.6025,67.7991
21.5,37651400.0,-10.34873,67.7913
46.4,29321150.0,-38.40856,67.8057
100.0,6218290.0,-9.242677,67.8026
215.4,7070107.0,-82.9952,67.8029
464.2,3030679.0,-77.52976,67.8061
1000.0,1501519.0,-76.40749,67.7976
2154.4,686156.0,-90.82788,67.8054
4641.6,312839.8,-85.01025,67.7995
10000.0,144245.9,-94.38897,67.802
