Frequency,Impedance,Phase Angle,Temperature (Dry Bath)
10.0,113880.9,-3.080095,67.4875
21.5,111447.8,-2.635616,67.5115
46.4,109712.0,-2.447932,67.5033
100.0,107065.3,-2.648615,67.4951
215.4,98153.2,-14.72434,67.4912
464.2,105700.1,-5.210916,67.4954
1000.0,102326.3,-8.647685,67.4972
2154.4,97018.39,-13.37154,67.5117
4641.6,87584.64,-25.20842,67.4977
10000.0,70634.1,-40.43493,67.5018
