Frequency,Impedance,Phase Angle,Temperature (Dry Bath)
10.0,6813953.0,-8.297028,68.0843
21.5,8209184.0,-19.56754,68.0804
46.4,8407108.0,-20.72594,68.0899
100.0,3225731.0,-12.66345,68.0889
215.4,3021463.0,-52.34885,68.0842
464.2,1996903.0,-50.91435,68.0893
1000.0,1064829.0,-65.83253,68.1075
2154.4,640257.0,-79.81564,68.0865
4641.6,280752.0,-87.4189,68.0857
10000.0,141647.5,-90.53919,68.0782
