Frequency,Impedance,Phase Angle,Temperature (Dry Bath)
10.0,6087030.0,-0.3573522,71.1687
21.544346900318832,4378529.0,5.490321,71.1694
46.41588833612777,8404009.0,11.21022,71.1631
100.0,436952.8,89.89785,71.1702
215.44346900318823,454356.3,87.20828,71.1683
464.15888336127773,425904.3,-37.93832,71.1623
1000.0,592119.4,-102.8746,71.1688
2154.4346900318824,1077223.0,-170.589,71.1656
4641.588833612777,283465.4,-69.53092,71.1609
10000.0,157864.9,-49.72031,71.1472
