Frequency,Impedance,Phase Angle,Temperature (Dry Bath)
10.0,172965.8,-12.26195,66.4064
21.544346900318832,156128.8,-10.27023,66.4049
46.41588833612777,145395.3,-11.12817,66.3908
100.0,165018.3,-13.1503,66.3993
215.44346900318823,118380.7,-23.0338,66.4058
464.15888336127773,109494.4,-14.58766,66.3956
1000.0,98155.77,-17.31948,66.4057
2154.4346900318824,95351.54,-22.97545,66.3892
4641.588833612777,70983.18,-30.19131,66.3964
10000.0,52777.73,-60.61162,66.4032
