Frequency,Impedance,Phase Angle,Temperature (Dry Bath)
10.0,22151270.0,-32.4428,67.9745
21.5,19108490.0,-25.85496,67.9722
46.4,20377680.0,-50.37209,67.967
100.0,5420660.0,-73.30352,67.9887
215.4,4465477.0,-92.62041,67.982
464.2,3859087.0,-70.40412,67.981
1000.0,1468952.0,-91.56672,67.9772
2154.4,716002.9,-88.65004,67.9971
4641.6,318130.5,-94.09235,67.987
10000.0,155553.7,-96.8473,67.9875
