Frequency,Impedance,Phase Angle,Temperature (Dry Bath)
10.0,24359.05,-14.78286,70.2562
21.544346900318832,22035.99,-11.73412,70.271
46.41588833612777,20357.26,-9.330917,70.2648
100.0,18705.69,-5.42832,70.2649
215.44346900318823,19059.36,-6.518654,70.275
464.15888336127773,17793.23,-6.48386,70.2698
1000.0,16486.03,-6.58582,70.2743
2154.4346900318824,16057.68,-7.551121,70.2544
4641.588833612777,15288.2,-12.3296,70.2846
10000.0,14439.9,-18.71864,70.2724
