Frequency,Impedance,Phase Angle,Temperature (Dry Bath)
10.0,117166.6,-3.156093,67.3388
21.5,115124.5,-2.629783,67.3385
46.4,113017.9,-2.590248,67.3284
100.0,109353.6,-3.461595,67.3351
215.4,91996.87,-30.61433,67.3183
464.2,107733.1,-6.55407,67.3238
1000.0,104789.7,-8.633842,67.3291
2154.4,99671.07,-14.03892,67.3415
4641.6,91135.16,-24.53847,67.3226
10000.0,71518.59,-41.89681,67.3212
