Frequency,Impedance,Phase Angle,Temperature (Dry Bath)
10.0,150278.7,-4.989466,67.8703
21.5,146259.2,-4.094459,67.8787
46.4,142179.2,-3.780867,67.8778
100.0,135715.1,-3.649912,67.8751
215.4,139241.4,-5.903904,67.8746
464.2,133413.1,-6.897252,67.8863
1000.0,127345.7,-10.0932,67.8694
2154.4,119448.3,-15.96254,67.8824
4641.6,107769.0,-29.17946,67.8753
10000.0,85107.77,-48.39222,67.8805
