Frequency,Impedance,Phase Angle,Temperature (Dry Bath)
10.0,138429.1,-8.901917,70.6103
21.544346900318832,128649.2,-7.889045,70.6102
46.41588833612777,123366.8,-7.066912,70.595
100.0,104660.9,-13.47119,70.6098
215.44346900318823,102534.3,4.026415,70.5985
464.15888336127773,103741.8,-12.09358,70.6005
1000.0,76687.29,-17.64377,70.6241
2154.4346900318824,82076.95,-22.80762,70.6154
4641.588833612777,80782.11,-42.54395,70.6086
10000.0,54508.94,-50.78565,70.6135
