Frequency,Impedance,Phase Angle,Temperature (Dry Bath)
10.0,25723570.0,-13.547,67.9729
21.5,34964640.0,-37.17175,67.9747
46.4,26223220.0,-55.8312,67.9807
100.0,7192796.0,-63.67385,67.9865
215.4,5671415.0,-84.13001,67.9649
464.2,2954458.0,-77.19859,67.9718
1000.0,1303758.0,-87.59502,67.9721
2154.4,632205.4,-81.35682,67.9688
4641.6,288758.5,-87.54986,67.965
10000.0,135639.5,-97.90736,67.9734
