Frequency,Impedance,Phase Angle,Temperature (Dry Bath)
10.0,106579.3,-14.94633,68.0784
21.5,95967.56,-12.69569,68.0854
46.4,87818.79,-11.33255,68.0859
100.0,80189.61,-10.72443,68.0838
215.4,75231.66,-8.133622,68.0991
464.2,71047.03,-9.046689,68.0893
1000.0,65815.77,-12.141,68.1012
2154.4,62999.27,-13.93469,68.0781
4641.6,56981.45,-19.71883,68.093
10000.0,51687.33,-31.7913,68.0858
