Frequency,Impedance,Phase Angle,Temperature (Dry Bath)
10.0,111629.3,-3.106645,67.4352
21.5,109444.8,-2.617099,67.443
46.4,107567.9,-2.755175,67.446
100.0,103482.4,-2.750993,67.4234
215.4,92403.93,-5.19847,67.427
464.2,102697.3,-5.250307,67.4198
1000.0,97050.72,-7.750534,67.4262
2154.4,94977.59,-13.37892,67.42
4641.6,86159.79,-23.48878,67.4164
10000.0,69180.24,-39.41839,67.4372
