Frequency,Impedance,Phase Angle,Temperature (Dry Bath)
10.0,19166760.0,-8.262495,68.2338
21.5,21909520.0,-20.48141,68.2338
46.4,18065770.0,-55.42725,68.2338
100.0,6176522.0,-32.33617,68.2338
215.4,5169239.0,-91.87885,68.2338
464.2,2760270.0,-74.68824,68.2338
1000.0,1329560.0,-78.38995,68.2338
2154.4,640497.5,-84.52169,68.2338
4641.6,314397.0,-89.07257,68.2338
10000.0,146258.8,-97.61225,68.2338
