Frequency,Impedance,Phase Angle,Temperature (Dry Bath)
10.0,115670.3,-3.169171,67.1591
21.5,113683.7,-2.628626,67.1692
46.4,111847.1,-2.500656,67.1531
100.0,112667.9,-1.691989,67.1661
215.4,55909.17,-8.279926,67.1814
464.2,107457.0,-4.401962,67.1821
1000.0,103770.8,-8.866164,67.1854
2154.4,99282.97,-14.46671,67.1599
4641.6,88581.49,-25.22521,67.174
10000.0,70364.73,-41.84531,67.1786
