Frequency,Impedance,Phase Angle,Temperature (Dry Bath)
10.0,16888470.0,-7.804396,68.1016
21.5,6672306.0,8.439945,68.1016
46.4,9985111.0,0.2305741,68.1016
100.0,5049633.0,-5.665161,68.1016
215.4,4436147.0,-80.14671,68.1016
464.2,2679170.0,-83.6585,68.1016
1000.0,1362611.0,-85.33845,68.1016
2154.4,674699.2,-85.53371,68.1016
4641.6,306228.1,-91.72364,68.1016
10000.0,136355.9,-96.37894,68.1016
