Frequency,Impedance,Phase Angle,Temperature (Dry Bath)
10.0,25218170.0,-23.20102,67.3573
21.5,23429370.0,-31.86818,67.3698
46.4,9385192.0,-55.80324,67.3669
100.0,4669373.0,-41.89102,67.3684
215.4,271426.8,-152.0612,67.3581
464.2,1469989.0,-91.12349,67.3427
1000.0,827980.3,-83.62338,67.367
2154.4,402410.9,-86.71494,67.3441
4641.6,205766.2,-80.9681,67.3457
10000.0,101737.3,-80.41366,67.3503
