Frequency,Impedance,Phase Angle,Temperature (Dry Bath)
10.0,11114420.0,-7.547662,71.4082
21.544346900318832,5490362.0,-25.82594,71.3908
46.41588833612777,7186956.0,-23.6797,71.3897
100.0,729769.2,-42.2249,71.4162
215.44346900318823,977155.3,-129.7423,71.3876
464.15888336127773,838632.3,-31.06995,71.3936
1000.0,1190479.0,-82.55839,71.395
2154.4346900318824,563955.7,-104.0338,71.3856
4641.588833612777,353367.7,-69.17623,71.4012
10000.0,154461.2,-90.88939,71.3694
