Frequency,Impedance,Phase Angle,Temperature (Dry Bath)
10.0,18549710.0,-19.7794,68.0848
21.5,17533080.0,-26.69992,68.0848
46.4,20330880.0,-41.52364,68.0848
100.0,6392802.0,-57.11055,68.0848
215.4,8761377.0,-43.47739,68.0848
464.2,2418379.0,-90.42647,68.0848
1000.0,1310220.0,-86.54474,68.0848
2154.4,651337.9,-84.58434,68.0848
4641.6,316644.8,-88.2186,68.0848
10000.0,146984.1,-96.38359,68.0848
