Frequency,Impedance,Phase Angle,Temperature (Dry Bath)
10.0,1484049.0,-17.8082,67.3006
21.5,1314882.0,-16.41141,67.3184
46.4,1202051.0,-15.39248,67.326
100.0,1018034.0,-12.04414,67.299
215.4,217801.9,103.946,67.3132
464.2,836404.4,-34.96131,67.3073
1000.0,653299.1,-37.92276,67.3018
2154.4,442210.3,-61.43971,67.3124
4641.6,230391.6,-71.66749,67.305
10000.0,119614.0,-77.95139,67.3111
