Frequency,Impedance,Phase Angle,Temperature (Dry Bath)
10.0,144487.9,-5.008869,67.8906
21.5,140086.4,-4.225261,67.8948
46.4,136613.4,-3.895656,67.9241
100.0,132968.1,-4.267231,67.9165
215.4,130614.3,-6.545175,67.9163
464.2,130719.2,-7.145854,67.9091
1000.0,124667.7,-9.816069,67.9226
2154.4,115974.1,-15.87261,67.8898
4641.6,103970.7,-29.3925,67.9009
10000.0,85393.96,-45.64631,67.9178
