Frequency,Impedance,Phase Angle,Temperature (Dry Bath)
10.0,156305.2,-13.5691,71.031
21.544346900318832,140227.0,-12.84714,71.0337
46.41588833612777,127182.7,-12.25897,71.0348
100.0,80518.89,-21.11029,71.0539
215.44346900318823,101495.3,-9.352767,71.044
464.15888336127773,92632.85,-14.68316,71.0506
1000.0,80703.03,-17.87798,71.0369
2154.4346900318824,88714.8,-23.83266,71.0477
4641.588833612777,69013.56,-29.56535,71.0338
10000.0,44312.69,-51.53132,71.0374
