Frequency,Impedance,Phase Angle,Temperature (Dry Bath)
10.0,5810462.0,-12.63282,66.413
21.544346900318832,3712139.0,2.607416,66.4188
46.41588833612777,6578337.0,-24.51071,66.4267
100.0,3124526.0,-19.71762,66.4131
215.44346900318823,775584.9,0.5836823,66.4198
464.15888336127773,1064624.0,-98.59131,66.4264
1000.0,701148.9,-47.80847,66.4161
2154.4346900318824,299658.5,-82.86803,66.4319
4641.588833612777,129759.5,-83.04056,66.4259
10000.0,71266.04,-86.44852,66.4181
