Frequency,Impedance,Phase Angle,Temperature (Dry Bath)
10.0,38725010.0,-10.07168,67.7423
21.5,56023080.0,-29.72892,67.7413
46.4,28142080.0,-37.81647,67.7494
100.0,6609119.0,-38.0917,67.7411
215.4,5519005.0,-45.63244,67.7476
464.2,3470583.0,-70.5156,67.7451
1000.0,1396899.0,-80.80207,67.7575
2154.4,716169.5,-95.77202,67.75
4641.6,325233.4,-87.74242,67.7562
10000.0,143211.7,-92.59218,67.7491
