Frequency,Impedance,Phase Angle,Temperature (Dry Bath)
10.0,31788900.0,-34.2152,67.4836
21.5,24751910.0,-32.52439,67.4817
46.4,17748490.0,-42.55152,67.4727
100.0,5933191.0,-64.51599,67.5081
215.4,94707.86,162.9729,67.4733
464.2,1920536.0,-79.14006,67.4803
1000.0,1280090.0,-97.79617,67.4762
2154.4,492688.6,-84.47151,67.4778
4641.6,279625.3,-86.22217,67.4815
10000.0,128639.0,-83.58685,67.4852
