Frequency,Impedance,Phase Angle,Temperature (Dry Bath)
10.0,5406385.0,10.52472,66.3453
21.544346900318832,4435446.0,-1.241242,66.3592
46.41588833612777,3491391.0,-32.1359,66.3636
100.0,719682.6,-111.8369,66.3631
215.44346900318823,582335.8,-45.01273,66.3652
464.15888336127773,963850.8,-85.46177,66.3763
1000.0,169889.4,-89.33752,66.3663
2154.4346900318824,547707.9,-87.82589,66.3753
4641.588833612777,194104.2,-80.18156,66.362
10000.0,70257.46,-88.93177,66.3809
