Frequency,Impedance,Phase Angle,Temperature (Dry Bath)
10.0,38173190.0,-2.326647,67.9085
21.5,42121330.0,-35.06382,67.8743
46.4,17152510.0,-45.68518,67.8806
100.0,13996090.0,-12.9995,67.8775
215.4,4740084.0,-61.18118,67.877
464.2,2255690.0,-94.82072,67.8773
1000.0,1329731.0,-83.10928,67.8725
2154.4,676271.3,-85.81104,67.8594
4641.6,286268.6,-84.14845,67.8848
10000.0,131850.0,-96.92972,67.882
