Frequency,Impedance,Phase Angle,Temperature (Dry Bath)
10.0,16584720.0,-14.6742,68.0325
21.5,21350590.0,-15.26198,68.0319
46.4,24945310.0,-47.64522,68.0326
100.0,4306032.0,-44.61889,68.024
215.4,5592832.0,-73.6179,68.0388
464.2,2436180.0,-74.23587,68.0277
1000.0,1389326.0,-84.70093,68.0359
2154.4,594588.1,-91.13248,68.0301
4641.6,321022.4,-89.62439,68.0409
10000.0,147623.3,-94.13776,68.0432
