Frequency,Impedance,Phase Angle,Temperature (Dry Bath)
10.0,232476.3,-22.57887,66.955
21.5,196205.2,-20.07566,66.9842
46.4,170308.2,-17.67626,66.9709
100.0,151802.0,-14.59411,66.9633
215.4,138209.9,-14.56316,66.9659
464.2,124744.5,-14.34886,66.9712
1000.0,111099.8,-17.27857,66.9842
2154.4,98155.79,-23.90252,66.986
4641.6,83277.92,-29.59241,66.9698
10000.0,63205.37,-41.81218,66.981
