Frequency,Impedance,Phase Angle,Temperature (Dry Bath)
10.0,125062.7,-3.813745,67.4867
21.5,121563.3,-3.322506,67.4988
46.4,119090.8,-3.392509,67.4896
100.0,115066.3,-4.473487,67.4905
215.4,89656.48,3.857722,67.4682
464.2,110375.4,-5.164994,67.4915
1000.0,106800.2,-9.35586,67.4939
2154.4,100148.9,-14.94128,67.4918
4641.6,89035.39,-25.79152,67.493
10000.0,70492.77,-41.05851,67.5023
