Frequency,Impedance,Phase Angle,Temperature (Dry Bath)
10.0,5817583.0,24.65209,65.795
21.544346900318832,5585424.0,-23.61744,65.8039
46.41588833612777,3370708.0,-54.49553,65.8007
100.0,727423.2,-33.97807,65.8073
215.44346900318823,18199.37,165.0283,65.79
464.15888336127773,908723.2,-127.13,65.8005
1000.0,731072.6,-8.018957,65.7969
2154.4346900318824,264779.2,-106.3389,65.8028
4641.588833612777,130190.4,-104.0445,65.8018
10000.0,72400.51,-84.14208,65.8071
