Frequency,Impedance,Phase Angle,Temperature (Dry Bath)
10.0,94534.0,-2.959995,67.1178
21.5,92788.76,-2.576418,67.1064
46.4,90968.32,-2.369061,67.1146
100.0,89526.81,-2.580651,67.1178
215.4,88403.3,-3.280718,67.1021
464.2,88407.09,-4.304893,67.0992
1000.0,84808.93,-7.329399,67.1096
2154.4,81877.99,-13.13342,67.0907
4641.6,75100.61,-22.17728,67.099
10000.0,62472.26,-37.08649,67.09
