Frequency,Impedance,Phase Angle,Temperature (Dry Bath)
10.0,3590.907,-31.41655,71.1899
21.544346900318832,2835.205,-26.22182,71.1755
46.41588833612777,2332.393,-21.49306,71.1788
100.0,1991.021,-17.11335,71.1854
215.44346900318823,1761.693,-13.73143,71.1732
464.15888336127773,1604.436,-10.95094,71.1691
1000.0,1482.464,-8.762403,71.1766
2154.4346900318824,1394.03,-7.252024,71.1812
4641.588833612777,1326.162,-6.117472,71.1723
10000.0,1277.315,-5.519793,71.1918
