Frequency,Impedance,Phase Angle,Temperature (Dry Bath)
10.0,24742310.0,-1.557667,67.3135
21.5,24560850.0,-48.91299,67.3168
46.4,13974320.0,-57.03658,67.3168
100.0,4092736.0,-31.91713,67.306
215.4,4553180.0,-49.25262,67.3103
464.2,1680919.0,-68.01094,67.3109
1000.0,1034950.0,-112.7641,67.2985
2154.4,476235.7,-84.76965,67.3093
4641.6,208293.9,-85.55783,67.314
10000.0,107087.4,-81.79953,67.2897
