Frequency,Impedance,Phase Angle,Temperature (Dry Bath)
10.0,20628750.0,-24.65652,68.2374
21.5,22363940.0,-30.56741,68.2347
46.4,22662080.0,-50.6045,68.2262
100.0,8813265.0,-50.44167,68.2484
215.4,7128844.0,-73.15649,68.2429
464.2,2611558.0,-97.40224,68.2492
1000.0,1325741.0,-82.69757,68.2449
2154.4,693752.7,-88.2983,68.2519
4641.6,324435.8,-91.18253,68.2342
10000.0,149078.0,-98.17677,68.2376
