Frequency,Impedance,Phase Angle,Temperature (Dry Bath)
10.0,7442309.0,-9.158681,65.8575
21.544346900318832,3741241.0,-26.33339,65.8571
46.41588833612777,4595026.0,-36.91704,65.8524
100.0,661694.7,-137.1179,65.8598
215.44346900318823,23463.04,-148.7697,65.8639
464.15888336127773,1752134.0,-119.2316,65.8596
1000.0,498280.9,-47.86659,65.8518
2154.4346900318824,330794.0,-76.61507,65.8635
4641.588833612777,126670.4,-93.24434,65.8695
10000.0,68473.33,-89.89138,65.8528
