Frequency,Impedance,Phase Angle,Temperature (Dry Bath)
10.0,1355710.0,-14.30237,67.9719
21.5,1184874.0,-14.77977,67.9756
46.4,1103410.0,-13.09078,67.9641
100.0,1018667.0,-13.85348,67.9748
215.4,942427.3,-14.77422,67.9637
464.2,951458.8,-20.99989,67.964
1000.0,690740.7,-39.03653,67.9786
2154.4,498153.6,-54.06557,67.9652
4641.6,280962.5,-73.58724,67.9598
10000.0,130822.5,-86.02307,67.9479
