Frequency,Impedance,Phase Angle,Temperature (Dry Bath)
10.0,120842.2,-3.255806,67.2777
21.5,117913.0,-2.641025,67.2687
46.4,116883.2,-2.797735,67.2809
100.0,113781.2,-4.304262,67.2794
215.4,111528.9,-3.848308,67.2924
464.2,111285.7,-5.743686,67.2715
1000.0,106479.3,-7.894924,67.2648
2154.4,104022.0,-14.4099,67.2412
4641.6,92970.19,-25.04418,67.2664
10000.0,75095.81,-41.01032,67.2652
