Frequency,Impedance,Phase Angle,Temperature (Dry Bath)
10.0,115242.8,-3.126369,67.4991
21.5,113012.0,-2.625451,67.5157
46.4,111057.2,-2.461543,67.4858
100.0,108963.5,-2.586859,67.5104
215.4,82486.86,-42.51603,67.4989
464.2,107016.1,-4.371535,67.4943
1000.0,103096.5,-8.115794,67.499
2154.4,98862.4,-14.38375,67.5017
4641.6,88362.25,-25.06687,67.5049
10000.0,69621.81,-41.58465,67.505
