Frequency,Impedance,Phase Angle,Temperature (Dry Bath)
10.0,6791850.0,21.86783,71.6884
21.544346900318832,3327983.0,5.173421,71.6938
46.41588833612777,4177904.0,-5.680066,71.6842
100.0,1438757.0,-9.014151,71.685
215.44346900318823,2163213.0,6.148729,71.6727
464.15888336127773,1032108.0,-99.12259,71.6801
1000.0,1615183.0,-19.70622,71.6792
2154.4346900318824,407377.4,-134.6465,71.6711
4641.588833612777,268371.9,-74.32903,71.6827
10000.0,108401.0,-84.48442,71.6785
