Frequency,Impedance,Phase Angle,Temperature (Dry Bath)
10.0,201445.8,-23.6141,67.2499
21.5,168046.1,-20.51555,67.2392
46.4,145812.5,-17.59109,67.2332
100.0,126317.4,-14.95408,67.2773
215.4,118296.2,-12.96342,67.2361
464.2,108553.2,-13.24893,67.237
1000.0,96095.06,-15.35428,67.2363
2154.4,89580.14,-19.77659,67.2391
4641.6,75826.8,-27.39608,67.2561
10000.0,59108.17,-39.25375,67.2549
