Frequency,Impedance,Phase Angle,Temperature (Dry Bath)
10.0,4517276.0,-1.277572,70.9246
21.544346900318832,5358582.0,-32.78138,70.9242
46.41588833612777,6107774.0,-37.24422,70.9332
100.0,663235.4,-33.17123,70.9178
215.44346900318823,1698426.0,-73.50011,70.923
464.15888336127773,769316.3,-137.9914,70.9205
1000.0,1033613.0,-69.75838,70.9237
2154.4346900318824,233464.1,-83.18297,70.9147
4641.588833612777,172577.9,-70.65225,70.9082
10000.0,67878.7,-91.94377,70.9398
