Frequency,Impedance,Phase Angle,Temperature (Dry Bath)
10.0,6401585.0,6.356347,70.8962
21.544346900318832,4903004.0,16.32994,70.8767
46.41588833612777,4528425.0,-17.03013,70.894
100.0,1322921.0,-83.52503,70.8931
215.44346900318823,689898.7,176.9355,70.885
464.15888336127773,728057.9,26.46815,70.8863
1000.0,551736.1,-173.6691,70.8756
2154.4346900318824,235129.4,-74.74864,70.8805
4641.588833612777,176041.3,-98.35803,70.8738
10000.0,59891.93,-86.64687,70.894
