Frequency,Impedance,Phase Angle,Temperature (Dry Bath)
10.0,121089.6,-3.299593,67.2806
21.5,119330.3,-3.163659,67.2831
46.4,117689.9,-3.085974,67.2581
100.0,115416.4,-3.697378,67.2779
215.4,116342.8,-5.251824,67.3045
464.2,111294.5,-5.498539,67.2852
1000.0,109386.9,-8.350049,67.2986
2154.4,102707.3,-13.43835,67.2846
4641.6,93304.73,-23.99497,67.286
10000.0,73479.02,-40.64396,67.2925
