Frequency,Impedance,Phase Angle,Temperature (Dry Bath)
10.0,4210964.0,-13.85014,70.9353
21.544346900318832,4604056.0,-9.764902,70.9411
46.41588833612777,3752595.0,-23.72365,70.9226
100.0,4454981.0,-115.07,70.9431
215.44346900318823,950726.8,-24.38698,70.9361
464.15888336127773,711809.4,-12.32953,70.9493
1000.0,490636.1,-145.9971,70.9196
2154.4346900318824,223846.2,-92.17931,70.9272
4641.588833612777,127241.5,-98.156,70.936
10000.0,74803.74,-92.02565,70.9249
