Frequency,Impedance,Phase Angle,Temperature (Dry Bath)
10.0,40068690.0,-23.58147,67.8848
21.5,42406050.0,-18.99229,67.8852
46.4,33945810.0,-35.67608,67.8858
100.0,7383542.0,-84.881,67.8712
215.4,3544170.0,-76.50625,67.8703
464.2,2776547.0,-84.7328,67.8632
1000.0,1538222.0,-81.64547,67.8678
2154.4,630060.8,-86.01712,67.8833
4641.6,326090.9,-90.97434,67.8792
10000.0,151689.5,-97.36853,67.8705
