Frequency,Impedance,Phase Angle,Temperature (Dry Bath)
10.0,24526300.0,-21.50102,67.416
21.5,22410900.0,-45.66346,67.4099
46.4,15286570.0,-55.67504,67.4214
100.0,3131041.0,-124.7367,67.398
215.4,5031415.0,-98.73424,67.4026
464.2,1682938.0,-91.58246,67.3805
1000.0,864117.9,-82.15697,67.4026
2154.4,505535.8,-83.74462,67.4093
4641.6,206321.1,-83.2313,67.4176
10000.0,105873.9,-79.687,67.4043
