Frequency,Impedance,Phase Angle,Temperature (Dry Bath)
10.0,174613.5,-12.32697,65.6817
21.544346900318832,156735.6,-11.80511,65.689
46.41588833612777,142937.4,-10.61646,65.6858
100.0,96831.91,0.9986305,65.6965
215.44346900318823,83200.05,-25.25518,65.6951
464.15888336127773,102031.6,-20.12634,65.6848
1000.0,107885.0,-2.179699,65.6945
2154.4346900318824,100372.7,-23.8955,65.6889
4641.588833612777,85564.12,-35.37675,65.6812
10000.0,51626.61,-56.64827,65.6958
