Frequency,Impedance,Phase Angle,Temperature (Dry Bath)
10.0,1426068.0,-15.2767,67.9203
21.5,1250553.0,-13.30841,67.9285
46.4,1100527.0,-13.03327,67.9214
100.0,834067.8,-14.47634,67.9147
215.4,837401.0,-13.00871,67.9167
464.2,914800.7,-16.95192,67.9199
1000.0,712614.5,-36.79155,67.9148
2154.4,502458.9,-52.48339,67.9205
4641.6,280836.5,-68.69169,67.9358
10000.0,130855.9,-91.39751,67.92
