Frequency,Impedance,Phase Angle,Temperature (Dry Bath)
10.0,174936.5,-12.20739,66.3739
21.544346900318832,162081.2,-11.44178,66.3566
46.41588833612777,146801.3,-10.10502,66.358
100.0,119370.7,-2.062471,66.3702
215.44346900318823,125618.8,-21.29936,66.3588
464.15888336127773,113381.7,-18.56636,66.3651
1000.0,102161.3,-17.00958,66.3704
2154.4346900318824,84971.76,-22.40375,66.3613
4641.588833612777,71431.18,-35.35778,66.3557
10000.0,54321.62,-51.96289,66.3702
