Frequency,Impedance,Phase Angle,Temperature (Dry Bath)
10.0,2138958.0,-10.95129,65.8106
21.544346900318832,1486415.0,-24.12126,65.8101
46.41588833612777,1278579.0,-20.19666,65.8039
100.0,597750.0,-46.61145,65.8166
215.44346900318823,566862.2,-43.33275,65.8199
464.15888336127773,1134558.0,-60.74794,65.8105
1000.0,514562.0,-108.5803,65.8076
2154.4346900318824,451241.5,-65.04962,65.8175
4641.588833612777,143511.8,-91.75889,65.8084
10000.0,66807.36,-77.85804,65.8098
