Frequency,Impedance,Phase Angle,Temperature (Dry Bath)
10.0,122023.2,-4.181989,67.1477
21.5,119378.8,-3.689118,67.1658
46.4,117129.2,-3.405367,67.1614
100.0,114988.4,-3.973562,67.1245
215.4,103632.6,10.89309,67.1397
464.2,110664.1,-6.00273,67.1526
1000.0,107286.9,-9.394785,67.1439
2154.4,101353.0,-15.57124,67.1616
4641.6,90518.02,-24.9939,67.151
10000.0,69549.26,-41.64468,67.1514
