Frequency,Impedance,Phase Angle,Temperature (Dry Bath)
10.0,228369.4,-23.25862,67.1141
21.5,192589.2,-20.36967,67.1328
46.4,166783.6,-17.64856,67.1392
100.0,144220.1,-13.69368,67.1346
215.4,129302.4,-14.6791,67.1497
464.2,122341.2,-14.10572,67.1524
1000.0,110076.8,-17.9641,67.1424
2154.4,96159.91,-22.06954,67.1318
4641.6,81698.48,-30.22319,67.1228
10000.0,61506.65,-42.40808,67.1265
