Frequency,Impedance,Phase Angle,Temperature (Dry Bath)
10.0,7691985.0,4.844631,65.8035
21.544346900318832,4855700.0,-18.68449,65.8
46.41588833612777,4740309.0,-29.64297,65.7976
100.0,608116.6,20.6501,65.7989
215.44346900318823,731786.2,-74.18325,65.8013
464.15888336127773,725101.3,-118.5715,65.794
1000.0,588230.1,59.32575,65.7929
2154.4346900318824,232322.8,-67.15723,65.7853
4641.588833612777,111558.3,-94.76124,65.776
10000.0,59243.14,-83.52809,65.7877
