Frequency,Impedance,Phase Angle,Temperature (Dry Bath)
10.0,4471449.0,1.861864,71.2791
21.544346900318832,4651482.0,-16.97549,71.2781
46.41588833612777,3102025.0,-55.38478,71.2779
100.0,498521.1,-148.1677,71.2878
215.44346900318823,61082.28,164.0045,71.2867
464.15888336127773,513758.6,-119.1099,71.2844
1000.0,313670.3,-64.8093,71.2901
2154.4346900318824,392375.8,-61.12232,71.2781
4641.588833612777,135280.0,-77.27288,71.2843
10000.0,60540.91,-89.65409,71.297
