Frequency,Impedance,Phase Angle,Temperature (Dry Bath)
10.0,22056430.0,-13.97239,67.1599
21.5,26653320.0,-21.56971,67.1646
46.4,17759040.0,-59.75056,67.1569
100.0,3490187.0,24.97943,67.1559
215.4,3999895.0,-75.77701,67.159
464.2,3168362.0,-95.83219,67.1608
1000.0,1172442.0,-72.32953,67.1566
2154.4,510002.9,-89.0647,67.1529
4641.6,241079.6,-86.46312,67.1527
10000.0,121883.7,-85.80553,67.1538
