Frequency,Impedance,Phase Angle,Temperature (Dry Bath)
10.0,28359170.0,-8.472965,67.0654
21.5,22516360.0,-29.24787,67.0762
46.4,14853570.0,-59.09011,67.0749
100.0,4913685.0,-112.5503,67.067
215.4,1856840.0,-44.30377,67.0644
464.2,1875858.0,-65.59916,67.0729
1000.0,769635.8,-78.28793,67.0631
2154.4,418420.0,-84.51087,67.063
4641.6,204028.2,-82.61606,67.0865
10000.0,99699.27,-80.69091,67.0771
