Frequency,Impedance,Phase Angle,Temperature (Dry Bath)
10.0,1689615.0,4.363858,70.8642
21.544346900318832,1966679.0,-3.469931,70.8504
46.41588833612777,1742882.0,-8.685257,70.8435
100.0,1395977.0,40.99595,70.8354
215.44346900318823,529803.6,-40.27458,70.8562
464.15888336127773,363370.3,58.89784,70.8554
1000.0,3556036.0,-19.60451,70.8462
2154.4346900318824,414807.1,-48.11166,70.8415
4641.588833612777,122440.7,-85.25836,70.8504
10000.0,56708.38,-78.83052,70.8414
