Frequency,Impedance,Phase Angle,Temperature (Dry Bath)
10.0,195606.4,-23.48069,67.2955
21.5,163804.1,-20.47158,67.288
46.4,142554.0,-17.83181,67.3127
100.0,126227.8,-17.20104,67.3043
215.4,114766.6,-16.51261,67.3114
464.2,105989.4,-13.11801,67.3031
1000.0,95653.77,-14.74638,67.3011
2154.4,86785.66,-19.20209,67.3028
4641.6,74756.83,-27.17681,67.3001
10000.0,57915.87,-37.78296,67.3144
