Frequency,Impedance,Phase Angle,Temperature (Dry Bath)
10.0,3647622.0,-10.71101,71.0576
21.544346900318832,3466898.0,-29.56158,71.0616
46.41588833612777,2545022.0,-35.32278,71.0727
100.0,300901.8,-8.511006,71.0544
215.44346900318823,914184.4,-8.661163,71.077
464.15888336127773,889990.5,-20.56887,71.0784
1000.0,619174.4,-104.8762,71.0609
2154.4346900318824,380673.5,-62.73547,71.0513
4641.588833612777,134944.0,-81.08603,71.0765
10000.0,61767.11,-82.21452,71.0658
