Frequency,Impedance,Phase Angle,Temperature (Dry Bath)
10.0,151030.6,-4.879141,68.0126
21.5,146522.2,-4.083247,67.9936
46.4,143080.4,-3.765828,67.9995
100.0,138675.7,-5.072182,67.992
215.4,136818.0,-5.466295,68.0152
464.2,129242.3,-6.073027,68.0039
1000.0,127230.3,-9.813861,68.0057
2154.4,120683.6,-15.10454,68.0121
4641.6,111789.1,-30.77283,67.9999
10000.0,87169.65,-49.3801,68.0113
