Frequency,Impedance,Phase Angle,Temperature (Dry Bath)
10.0,5802405.0,-4.53283,66.2801
21.544346900318832,5965601.0,-33.41462,66.2758
46.41588833612777,4619181.0,-12.47438,66.2809
100.0,445609.7,-48.16924,66.279
215.44346900318823,592636.3,73.2624,66.2621
464.15888336127773,724919.9,108.3022,66.248
1000.0,480280.9,-88.14557,66.2849
2154.4346900318824,320558.2,-104.6833,66.2768
4641.588833612777,128920.4,-88.95535,66.2819
10000.0,72779.73,-90.13759,66.2775
