Frequency,Impedance,Phase Angle,Temperature (Dry Bath)
10.0,7307201.0,-2.560608,65.8351
21.544346900318832,4163937.0,-15.92464,65.8148
46.41588833612777,6347114.0,-28.26828,65.8239
100.0,4779474.0,-87.1885,65.8069
215.44346900318823,491106.4,141.2816,65.8078
464.15888336127773,3857676.0,-175.8335,65.8068
1000.0,3125550.0,8.367744,65.8188
2154.4346900318824,408069.5,-72.7437,65.8141
4641.588833612777,125477.8,-83.01111,65.819
10000.0,72600.86,-81.89089,65.8168
