Frequency,Impedance,Phase Angle,Temperature (Dry Bath)
10.0,5745778.0,-13.72639,67.9833
21.5,7094648.0,-15.80156,67.9855
46.4,7859601.0,-20.26663,67.9905
100.0,2576895.0,-17.81549,67.9841
215.4,3543905.0,-22.75076,67.9746
464.2,2143965.0,-44.29039,67.9709
1000.0,1137938.0,-71.99314,67.9761
2154.4,681487.5,-76.01433,67.9788
4641.6,304115.5,-82.5633,67.975
10000.0,135365.2,-97.39121,67.9756
