Frequency,Impedance,Phase Angle,Temperature (Dry Bath)
10.0,2177545.0,-11.65156,68.3172
21.5,1995393.0,-11.7501,68.3172
46.4,1824543.0,-13.8698,68.3172
100.0,1436177.0,-18.43836,68.3172
215.4,1714854.0,-28.97556,68.3172
464.2,1135099.0,-37.51504,68.3172
1000.0,952969.7,-46.86191,68.3172
2154.4,574665.6,-62.53776,68.3172
4641.6,277504.7,-75.53992,68.3172
10000.0,137461.8,-87.38192,68.3172
