Frequency,Impedance,Phase Angle,Temperature (Dry Bath)
10.0,7704336.0,-46.51106,71.3982
21.544346900318832,6768343.0,-1.259159,71.3901
46.41588833612777,5086092.0,-12.72139,71.3892
100.0,350668.2,-100.831,71.3777
215.44346900318823,971030.9,-41.42194,71.3908
464.15888336127773,2142828.0,69.54269,71.385
1000.0,1151097.0,61.15001,71.3935
2154.4346900318824,375685.2,-76.67378,71.4031
4641.588833612777,184686.4,-83.68444,71.4099
10000.0,155397.5,-90.75424,71.3988
