Frequency,Impedance,Phase Angle,Temperature (Dry Bath)
10.0,7593495.0,27.56938,70.9623
21.544346900318832,4687001.0,10.86087,70.9589
46.41588833612777,5025880.0,-35.21429,70.9472
100.0,621492.5,178.3436,70.9633
215.44346900318823,1700913.0,-52.11378,70.9426
464.15888336127773,3063972.0,-166.618,70.9472
1000.0,3549042.0,-48.06569,70.9467
2154.4346900318824,239967.0,-71.05763,70.966
4641.588833612777,128926.3,-89.66153,70.9514
10000.0,54463.32,-82.17217,70.9554
