Frequency,Impedance,Phase Angle,Temperature (Dry Bath)
10.0,27665920.0,-21.19567,67.0757
21.5,47077850.0,-43.8135,67.0822
46.4,18647590.0,-68.96751,67.0872
100.0,49924350.0,-26.14305,67.0726
215.4,159301.2,-121.922,67.0964
464.2,3538904.0,-114.3365,67.0835
1000.0,939991.4,-87.96267,67.0944
2154.4,511481.3,-92.83365,67.0944
4641.6,252574.4,-83.51805,67.0914
10000.0,120865.6,-84.10931,67.0856
