Frequency,Impedance,Phase Angle,Temperature (Dry Bath)
10.0,32933890.0,-5.305055,67.3686
21.5,19880720.0,-30.34123,67.3806
46.4,15274850.0,-58.2011,67.3693
100.0,4644610.0,-151.5563,67.3797
215.4,3128220.0,-162.4098,67.3887
464.2,2044479.0,-57.23966,67.3823
1000.0,1312036.0,-81.38052,67.3714
2154.4,510159.9,-87.48638,67.3654
4641.6,265545.6,-84.63525,67.3896
10000.0,127778.8,-84.0415,67.3891
