Frequency,Impedance,Phase Angle,Temperature (Dry Bath)
10.0,22779020.0,-34.12991,68.378
21.5,22302730.0,-28.58104,68.3705
46.4,12434830.0,-42.28828,68.3698
100.0,7316930.0,-97.72287,68.3672
215.4,5501739.0,-78.53709,68.3929
464.2,2411247.0,-68.45584,68.3715
1000.0,1395417.0,-86.98812,68.3699
2154.4,688506.8,-88.85851,68.3749
4641.6,291393.1,-91.62051,68.3955
10000.0,153630.2,-97.34978,68.3791
