Frequency,Impedance,Phase Angle,Temperature (Dry Bath)
10.0,117485.1,-3.135833,67.2542
21.5,115363.6,-2.595281,67.2336
46.4,113852.1,-2.465926,67.2407
100.0,111476.0,-3.113342,67.2316
215.4,74706.71,15.25254,67.2406
464.2,108912.2,-5.62552,67.2134
1000.0,104841.2,-8.96031,67.2275
2154.4,100979.7,-14.05225,67.2099
4641.6,91103.12,-25.25642,67.2345
10000.0,69557.58,-41.66141,67.2341
