Frequency,Impedance,Phase Angle,Temperature (Dry Bath)
10.0,105797.1,-3.08989,67.0629
21.5,103779.9,-2.6396,67.019
46.4,101889.4,-2.471795,67.0462
100.0,98990.35,-2.097129,67.0298
215.4,98913.47,-3.563837,67.0252
464.2,98426.36,-5.395702,67.0293
1000.0,92188.85,-8.11189,67.0327
2154.4,90528.62,-12.80294,67.0251
4641.6,82978.59,-24.23979,67.0253
10000.0,66693.43,-40.24285,67.0399
