Frequency,Impedance,Phase Angle,Temperature (Dry Bath)
10.0,4062534.0,1.18604,71.281
21.544346900318832,7828316.0,-4.471929,71.2855
46.41588833612777,3269493.0,-29.70465,71.2751
100.0,555799.3,-134.3717,71.2782
215.44346900318823,17454.46,-96.58919,71.2784
464.15888336127773,420306.2,-154.4292,71.2782
1000.0,517682.7,88.93454,71.2768
2154.4346900318824,247495.7,-81.63593,71.2774
4641.588833612777,133370.1,-92.61313,71.2938
10000.0,65510.77,-90.4954,71.3134
