Frequency,Impedance,Phase Angle,Temperature (Dry Bath)
10.0,20907980.0,-17.613,67.9519
21.5,19455060.0,-20.157,67.9519
46.4,25607800.0,-35.43172,67.9519
100.0,6407515.0,-32.80001,67.9519
215.4,10350080.0,-75.17605,67.9519
464.2,3103493.0,-74.10009,67.9519
1000.0,1413934.0,-81.09134,67.9519
2154.4,667631.1,-88.57971,67.9519
4641.6,323733.7,-93.95274,67.9519
10000.0,160279.1,-93.97787,67.9519
