Frequency,Impedance,Phase Angle,Temperature (Dry Bath)
10.0,27811690.0,-38.31589,68.1141
21.5,28217400.0,-43.89533,68.1141
46.4,23846030.0,-56.73618,68.1141
100.0,6095200.0,-7.081354,68.1141
215.4,5403531.0,-52.12417,68.1141
464.2,2231344.0,-67.55501,68.1141
1000.0,1190577.0,-74.90175,68.1141
2154.4,534415.8,-85.27752,68.1141
4641.6,283633.3,-87.98979,68.1141
10000.0,130483.0,-97.08242,68.1141
