Frequency,Impedance,Phase Angle,Temperature (Dry Bath)
10.0,172581.5,-12.45784,65.8632
21.544346900318832,157919.0,-11.82357,65.881
46.41588833612777,144785.1,-10.84872,65.8773
100.0,108657.4,10.55789,65.8734
215.44346900318823,7751.807,20.45094,65.8655
464.15888336127773,106198.3,-19.07705,65.867
1000.0,115870.7,-13.28631,65.8643
2154.4346900318824,101841.5,-18.17824,65.8771
4641.588833612777,75925.71,-41.86839,65.8829
10000.0,53635.01,-56.27199,65.8883
