Frequency,Impedance,Phase Angle,Temperature (Dry Bath)
10.0,4037619.0,-12.35487,65.7748
21.544346900318832,6051036.0,-31.00228,65.7791
46.41588833612777,7435136.0,-5.343967,65.777
100.0,606470.2,-150.3504,65.7776
215.44346900318823,15788.25,43.23861,65.7823
464.15888336127773,804992.0,9.635103,65.7801
1000.0,449536.5,-74.43353,65.7928
2154.4346900318824,265602.2,-67.75384,65.7703
4641.588833612777,123000.7,-90.9612,65.7884
10000.0,66244.15,-80.87718,65.7741
