Frequency,Impedance,Phase Angle,Temperature (Dry Bath)
10.0,26130840.0,-14.36695,67.2988
21.5,30588210.0,-42.26203,67.2995
46.4,14452750.0,-87.3066,67.3133
100.0,3441652.0,-18.2369,67.3131
215.4,428117.6,149.7602,67.3008
464.2,1368933.0,-73.20847,67.3134
1000.0,844463.2,-82.44904,67.3189
2154.4,407786.6,-83.81927,67.3095
4641.6,207542.5,-81.18717,67.3101
10000.0,102238.1,-80.86637,67.3113
