Frequency,Impedance,Phase Angle,Temperature (Dry Bath)
10.0,1400299.0,-14.44612,68.0876
21.5,1219158.0,-13.80963,68.1208
46.4,1072984.0,-12.96919,68.0899
100.0,938439.8,-18.28898,68.1043
215.4,906608.7,-17.2187,68.0924
464.2,846046.5,-22.88455,68.107
1000.0,676618.9,-40.6352,68.094
2154.4,461754.0,-56.1946,68.0923
4641.6,275478.1,-74.05953,68.0895
10000.0,143829.0,-83.61016,68.094
