Frequency,Impedance,Phase Angle,Temperature (Dry Bath)
10.0,27712850.0,-13.42025,67.2464
21.5,22733590.0,-33.43193,67.2531
46.4,19011980.0,-46.00005,67.2322
100.0,12356220.0,-68.91582,67.2305
215.4,174207.3,-108.7634,67.2561
464.2,2362002.0,-79.34704,67.234
1000.0,1086129.0,-83.96674,67.2488
2154.4,515501.1,-86.61737,67.2452
4641.6,237426.5,-88.05589,67.2342
10000.0,121816.1,-84.66311,67.2502
