Frequency,Impedance,Phase Angle,Temperature (Dry Bath)
10.0,1466319.0,-17.63745,67.7291
21.5,1380906.0,-15.11649,67.7247
46.4,1262016.0,-14.47325,67.7283
100.0,968725.5,-18.49626,67.739
215.4,1007837.0,-13.16789,67.7204
464.2,1055649.0,-31.09078,67.7317
1000.0,748506.6,-45.05476,67.7305
2154.4,483312.1,-62.24462,67.7249
4641.6,257492.0,-74.01368,67.7286
10000.0,122178.6,-88.16378,67.7282
