Frequency,Impedance,Phase Angle,Temperature (Dry Bath)
10.0,23359920.0,2.580116,68.0487
21.5,30557810.0,-15.9654,68.0665
46.4,37267190.0,-50.9895,68.0671
100.0,5543104.0,-78.95616,68.0504
215.4,10831520.0,-90.72755,68.0618
464.2,2695946.0,-76.89943,68.066
1000.0,1297532.0,-84.32587,68.065
2154.4,634865.3,-86.8482,68.0588
4641.6,334101.3,-93.21118,68.0745
10000.0,163451.0,-91.36889,68.0667
