Frequency,Impedance,Phase Angle,Temperature (Dry Bath)
10.0,18031000.0,-20.46122,68.2582
21.5,14830290.0,-23.87188,68.2776
46.4,15590890.0,-45.93687,68.2824
100.0,6278472.0,-45.66548,68.2837
215.4,5917736.0,-80.76435,68.2774
464.2,3768207.0,-119.2311,68.2788
1000.0,1359326.0,-86.71443,68.2713
2154.4,684057.9,-87.62208,68.2829
4641.6,363608.1,-83.13778,68.2816
10000.0,155619.0,-95.42797,68.2749
