Frequency,Impedance,Phase Angle,Temperature (Dry Bath)
10.0,19106660.0,-18.97438,68.101
21.5,16686160.0,-35.07639,68.1153
46.4,14083400.0,-43.50315,68.1173
100.0,5606585.0,-36.52864,68.1218
215.4,5276319.0,-63.89358,68.1095
464.2,3737462.0,-85.60861,68.1153
1000.0,1508289.0,-81.94711,68.0996
2154.4,612107.9,-90.87501,68.1066
4641.6,288323.8,-86.80898,68.1078
10000.0,133108.2,-94.50349,68.1175
