Frequency,Impedance,Phase Angle,Temperature (Dry Bath)
10.0,5308808.0,9.297086,66.5
21.544346900318832,5604114.0,6.16381,66.5
46.41588833612777,6768489.0,-10.77588,66.5
100.0,4171951.0,-53.13283,66.5
215.44346900318823,2972741.0,45.21437,66.5
464.15888336127773,2233461.0,-42.45926,66.5
1000.0,1958390.0,-58.85602,66.5
2154.4346900318824,2508716.0,14.15655,66.5
4641.588833612777,7448356.0,-70.58538,66.5
10000.0,793436.6,-87.90875,66.5
