Frequency,Impedance,Phase Angle,Temperature (Dry Bath)
10.0,263205.2,-23.44526,67.2946
21.5,219397.6,-21.79068,67.3006
46.4,187070.9,-19.32194,67.2974
100.0,161472.4,-15.35416,67.2969
215.4,143638.5,-17.79959,67.2866
464.2,133141.3,-15.85975,67.2954
1000.0,116024.7,-17.78214,67.3045
2154.4,103223.6,-23.34439,67.3057
4641.6,82381.68,-32.59533,67.3253
10000.0,62854.46,-42.13932,67.3146
