Frequency,Impedance,Phase Angle,Temperature (Dry Bath)
10.0,134248.4,-3.824106,67.4199
21.5,131654.2,-3.495934,67.4213
46.4,128268.7,-3.488213,67.415
100.0,125524.8,-3.465165,67.4239
215.4,101431.4,-2.742718,67.4182
464.2,118692.2,-7.164888,67.4139
1000.0,114134.4,-9.449381,67.4007
2154.4,108205.1,-16.28882,67.4206
4641.6,95839.81,-28.16586,67.4221
10000.0,73196.84,-43.49429,67.4321
