Frequency,Impedance,Phase Angle,Temperature (Dry Bath)
10.0,4715084.0,-18.29357,29.5844
21.544346900318832,4782929.0,-1.588028,29.6322
46.41588833612777,3633330.0,-8.361363,29.6968
100.0,1084668.0,-49.34092,29.5281
215.44346900318823,2020519.0,-112.8827,29.6806
464.15888336127773,754660.5,-71.58036,29.7387
1000.0,277349.7,60.51619,29.7421
2154.4346900318824,606354.1,-61.34802,29.6857
4641.588833612777,288233.9,-81.04236,29.6909
10000.0,155943.5,-85.25615,29.5703
