Frequency,Impedance,Phase Angle,Temperature (Dry Bath)
10.0,8188778.0,-24.37229,71.4592
21.544346900318832,5252390.0,-34.46288,71.4554
46.41588833612777,3418106.0,-17.27082,71.4589
100.0,633192.6,82.47316,71.4468
215.44346900318823,740179.5,-174.7033,71.469
464.15888336127773,1780141.0,-44.17287,71.4458
1000.0,218754.3,-44.66644,71.4617
2154.4346900318824,357225.4,-88.81722,71.4671
4641.588833612777,129079.9,-69.43145,71.4594
10000.0,61344.46,-81.34984,71.4604
