Frequency,Impedance,Phase Angle,Temperature (Dry Bath)
10.0,13950790.0,-4.917989,68.0959
21.5,22611940.0,-28.55882,68.0941
46.4,20512920.0,-41.47485,68.1041
100.0,5344887.0,-26.26353,68.1011
215.4,4767988.0,-106.3496,68.0912
464.2,2621877.0,-82.16344,68.1036
1000.0,1419702.0,-82.34049,68.1046
2154.4,644671.4,-88.72661,68.0925
4641.6,278533.1,-86.0104,68.097
10000.0,124543.0,-94.9526,68.1014
