Frequency,Impedance,Phase Angle,Temperature (Dry Bath)
10.0,26014180.0,-0.300344,67.7725
21.5,23358990.0,-19.73692,67.7506
46.4,32453830.0,-46.63407,67.7585
100.0,6361794.0,2.267496,67.7621
215.4,5039273.0,-91.00685,67.7599
464.2,2852111.0,-81.12096,67.7605
1000.0,1476052.0,-94.21666,67.7651
2154.4,686978.0,-91.59435,67.7607
4641.6,330577.8,-95.4282,67.7518
10000.0,141197.2,-95.52231,67.7494
