Frequency,Impedance,Phase Angle,Temperature (Dry Bath)
10.0,232879.3,-23.058,67.047
21.5,196133.2,-20.25274,67.0551
46.4,169601.8,-17.69851,67.057
100.0,150572.2,-15.68746,67.0685
215.4,141773.0,-12.55921,67.0667
464.2,126064.1,-13.75996,67.0606
1000.0,110424.7,-16.45556,67.048
2154.4,100497.3,-21.81924,67.0649
4641.6,81421.64,-31.888,67.0696
10000.0,61762.88,-42.36482,67.0473
