Frequency,Impedance,Phase Angle,Temperature (Dry Bath)
10.0,34660810.0,-33.28083,67.3305
21.5,21772700.0,-54.11309,67.327
46.4,14002410.0,-59.73481,67.3254
100.0,6023830.0,-61.41415,67.3231
215.4,2606305.0,-85.0394,67.3396
464.2,1847208.0,-76.71992,67.3183
1000.0,885030.4,-83.62868,67.3156
2154.4,440735.4,-81.75141,67.3142
4641.6,215640.0,-79.91641,67.3201
10000.0,111049.9,-79.51121,67.3239
