Frequency,Impedance,Phase Angle,Temperature (Dry Bath)
10.0,1655811.0,-20.10466,67.3891
21.5,1485690.0,-17.70372,67.3838
46.4,1314871.0,-16.32486,67.3864
100.0,1078057.0,-9.856895,67.3528
215.4,1088154.0,-6.425422,67.3826
464.2,987671.7,-29.31626,67.3744
1000.0,823196.0,-39.7451,67.3772
2154.4,476358.5,-63.11984,67.3728
4641.6,260688.5,-68.94829,67.3783
10000.0,126463.6,-78.70244,67.3609
