Frequency,Impedance,Phase Angle,Temperature (Dry Bath)
10.0,42251870.0,3.631654,67.3061
21.5,24319450.0,-40.59972,67.3069
46.4,18311000.0,-50.71129,67.3056
100.0,3662004.0,-102.9982,67.2926
215.4,3414331.0,-100.0451,67.2775
464.2,2441138.0,-92.38975,67.2919
1000.0,1163584.0,-72.92219,67.2718
2154.4,528462.3,-86.67053,67.2834
4641.6,281333.3,-84.97339,67.2745
10000.0,131229.3,-87.86287,67.282
