Frequency,Impedance,Phase Angle,Temperature (Dry Bath)
10.0,5622898.0,13.91218,71.2707
21.544346900318832,5072781.0,-2.239423,71.2954
46.41588833612777,4810019.0,-16.78383,71.2752
100.0,566535.8,-9.8277,71.278
215.44346900318823,556960.4,-87.45731,71.2583
464.15888336127773,833762.1,-45.38778,71.2717
1000.0,751247.4,-38.69721,71.2665
2154.4346900318824,304280.7,-58.51174,71.2737
4641.588833612777,121844.8,-87.27938,71.2697
10000.0,68585.76,-80.07773,71.2877
