Frequency,Impedance,Phase Angle,Temperature (Dry Bath)
10.0,117215.7,-3.155677,67.3596
21.5,115070.9,-2.6159,67.348
46.4,112986.8,-2.467894,67.3368
100.0,110148.0,-3.383322,67.3516
215.4,110530.0,-5.72029,67.3514
464.2,107495.8,-5.180475,67.3473
1000.0,104144.0,-7.753198,67.3386
2154.4,99716.76,-14.4152,67.342
4641.6,91348.16,-24.82576,67.3504
10000.0,70568.2,-42.50533,67.3491
