Frequency,Impedance,Phase Angle,Temperature (Dry Bath)
10.0,29171310.0,-14.46532,67.8784
21.5,39192280.0,-45.27583,67.8718
46.4,31502780.0,-55.30677,67.8974
100.0,4357593.0,-46.22065,67.8894
215.4,4428997.0,-111.3538,67.8811
464.2,2475084.0,-76.45476,67.8761
1000.0,1112339.0,-87.81006,67.8855
2154.4,590609.8,-88.04625,67.8918
4641.6,283307.6,-86.03828,67.8782
10000.0,141639.5,-97.43489,67.8746
