Frequency,Impedance,Phase Angle,Temperature (Dry Bath)
10.0,259818.0,-23.51359,67.4379
21.5,217474.6,-21.35052,67.4372
46.4,185934.2,-19.02918,67.4304
100.0,163462.4,-19.67333,67.4391
215.4,144992.2,-17.69268,67.4334
464.2,133996.9,-15.28596,67.4301
1000.0,118357.3,-18.90683,67.4315
2154.4,102795.2,-23.3632,67.4343
4641.6,84668.36,-30.89031,67.443
10000.0,63361.48,-41.96841,67.4361
