Frequency,Impedance,Phase Angle,Temperature (Dry Bath)
10.0,1493977.0,-16.96725,68.1549
21.5,1301397.0,-15.18959,68.2084
46.4,1187698.0,-14.10325,68.1664
100.0,1042857.0,-10.77833,68.1816
215.4,1132283.0,-18.29435,68.1772
464.2,951453.9,-24.75531,68.1953
1000.0,757199.7,-43.56522,68.1827
2154.4,512906.6,-61.46769,68.1973
4641.6,236739.6,-77.17895,68.1872
10000.0,131201.7,-84.61387,68.1928
