Frequency,Impedance,Phase Angle,Temperature (Dry Bath)
10.0,10592490.0,-9.479039,65.8934
21.544346900318832,6597432.0,-7.068561,65.8889
46.41588833612777,4543942.0,-31.43603,65.887
100.0,730115.8,3.526398,65.8829
215.44346900318823,22783.13,24.67835,65.881
464.15888336127773,602559.3,-114.1385,65.8919
1000.0,452200.0,-111.4392,65.8899
2154.4346900318824,250583.8,-61.32273,65.8737
4641.588833612777,146388.6,-68.80935,65.8749
10000.0,77854.82,-85.75663,65.8824
