Frequency,Impedance,Phase Angle,Temperature (Dry Bath)
10.0,28196180.0,-20.1598,67.313
21.5,22545890.0,-35.44534,67.3237
46.4,17367840.0,-50.82488,67.3459
100.0,10046980.0,14.74402,67.3349
215.4,8560486.0,-63.78352,67.3226
464.2,3032790.0,-86.97172,67.3414
1000.0,1301654.0,-82.53042,67.3535
2154.4,574859.2,-82.22423,67.3382
4641.6,260113.5,-85.00172,67.3339
10000.0,125582.3,-84.01367,67.3342
