Frequency,Impedance,Phase Angle,Temperature (Dry Bath)
10.0,175581.4,-12.77811,71.433
21.544346900318832,162550.1,-11.60257,71.4256
46.41588833612777,146494.5,-11.40836,71.4337
100.0,108537.6,-5.844412,71.4199
215.44346900318823,15197.77,24.59425,71.4137
464.15888336127773,117122.5,-6.866299,71.4221
1000.0,116003.4,-13.41147,71.4271
2154.4346900318824,98443.82,-16.28452,71.4197
4641.588833612777,78372.02,-33.14161,71.4264
10000.0,53721.72,-54.75939,71.4065
