Frequency,Impedance,Phase Angle,Temperature (Dry Bath)
10.0,1449505.0,-18.02709,67.4297
21.5,1327220.0,-15.90525,67.422
46.4,1190702.0,-14.91955,67.4164
100.0,1012086.0,-21.16639,67.4447
215.4,1026208.0,-16.42588,67.4323
464.2,816119.8,-35.75113,67.4319
1000.0,652207.5,-46.01461,67.4359
2154.4,424148.6,-60.98963,67.432
4641.6,214679.0,-70.0277,67.441
10000.0,111347.0,-78.07969,67.4247
