Frequency,Impedance,Phase Angle,Temperature (Dry Bath)
10.0,204355.0,-23.61975,67.3253
21.5,171758.0,-20.413,67.3299
46.4,148730.6,-17.59602,67.3245
100.0,130901.3,-14.36733,67.3139
215.4,119013.0,-13.36731,67.3306
464.2,109995.1,-13.38249,67.3341
1000.0,100571.6,-15.60055,67.3113
2154.4,89100.99,-19.95061,67.3285
4641.6,76315.54,-28.38682,67.3223
10000.0,58957.78,-39.70973,67.323
