Frequency,Impedance,Phase Angle,Temperature (Dry Bath)
10.0,26716070.0,-15.61565,67.2661
21.5,23003700.0,-45.91126,67.3102
46.4,11747450.0,-60.28322,67.3074
100.0,3656029.0,-35.35147,67.2995
215.4,1115769.0,138.1511,67.2924
464.2,1564549.0,-80.43343,67.3087
1000.0,982066.4,-79.32675,67.3055
2154.4,420681.4,-83.93856,67.2809
4641.6,205474.0,-82.97627,67.2962
10000.0,100594.7,-82.04553,67.2935
