Frequency,Impedance,Phase Angle,Temperature (Dry Bath)
10.0,3511339.0,11.54952,65.6971
21.544346900318832,5379450.0,-2.294807,65.7039
46.41588833612777,5695867.0,-15.83855,65.7013
100.0,557961.8,-44.98453,65.6932
215.44346900318823,11444.9,60.63017,65.7064
464.15888336127773,951838.3,-87.45868,65.697
1000.0,460732.4,-68.74911,65.714
2154.4346900318824,554098.4,-73.10242,65.6957
4641.588833612777,157351.2,-89.53554,65.6997
10000.0,71534.4,-82.73532,65.7107
