Frequency,Impedance,Phase Angle,Temperature (Dry Bath)
10.0,3303319.0,-7.851169,70.6742
21.544346900318832,6268930.0,-26.05952,70.6678
46.41588833612777,6084887.0,-26.16564,70.6769
100.0,552184.4,-27.34997,70.6692
215.44346900318823,2081654.0,-47.2207,70.6727
464.15888336127773,592803.2,-2.037582,70.6813
1000.0,186230.6,-105.1939,70.6865
2154.4346900318824,442196.5,-106.3401,70.6893
4641.588833612777,117420.4,-82.33018,70.693
10000.0,58558.22,-85.87052,70.6754
