Frequency,Impedance,Phase Angle,Temperature (Dry Bath)
10.0,25047230.0,-8.074827,67.8602
21.5,51031040.0,-20.95967,67.8585
46.4,27118740.0,-45.41368,67.8537
100.0,7770429.0,-52.99815,67.8688
215.4,8942137.0,-55.58068,67.864
464.2,3723004.0,-118.2265,67.8757
1000.0,1360932.0,-75.68804,67.8502
2154.4,640374.5,-90.90457,67.8485
4641.6,303383.2,-92.32731,67.8525
10000.0,144680.1,-95.65195,67.8566
