Frequency,Impedance,Phase Angle,Temperature (Dry Bath)
10.0,2469241.0,-12.33914,71.3532
21.544346900318832,2484504.0,-30.63649,71.3524
46.41588833612777,2235807.0,-31.16392,71.3563
100.0,729496.9,-81.29023,71.3547
215.44346900318823,8955.185,-37.94816,71.3586
464.15888336127773,522634.4,-69.97939,71.347
1000.0,340693.3,-100.8637,71.3506
2154.4346900318824,220063.6,-75.28992,71.361
4641.588833612777,139926.5,-86.63537,71.3571
10000.0,65733.84,-86.80003,71.3604
