Frequency,Impedance,Phase Angle,Temperature (Dry Bath)
10.0,2757566.0,-13.68407,70.2963
21.544346900318832,3493999.0,-1.94085,70.2883
46.41588833612777,2910638.0,-16.35611,70.3061
100.0,901203.7,-113.5122,70.2917
215.44346900318823,2499214.0,129.6786,70.2906
464.15888336127773,305420.5,-34.99277,70.2865
1000.0,601269.2,75.34,70.2826
2154.4346900318824,275934.9,-81.48611,70.2748
4641.588833612777,151725.0,-68.99245,70.2684
10000.0,63091.88,-91.17263,70.2915
