Frequency,Impedance,Phase Angle,Temperature (Dry Bath)
10.0,1433944.0,-14.98286,68.0494
21.5,1305167.0,-14.23949,68.0571
46.4,1136471.0,-13.5673,68.0447
100.0,870102.0,-12.25527,68.0487
215.4,926509.1,-12.41854,68.0613
464.2,848124.3,-32.93948,68.0724
1000.0,705257.6,-38.72691,68.0659
2154.4,463781.7,-55.58307,68.0441
4641.6,243720.7,-70.18891,68.039
10000.0,125334.4,-84.38909,68.0552
