Frequency,Impedance,Phase Angle,Temperature (Dry Bath)
10.0,225786.7,-23.1477,67.16
21.5,190169.7,-20.42767,67.1707
46.4,164443.1,-17.7513,67.1764
100.0,146342.0,-14.19214,67.177
215.4,132486.3,-14.34165,67.1646
464.2,122602.4,-13.49118,67.1737
1000.0,108904.1,-15.76502,67.1669
2154.4,98150.87,-21.7944,67.1702
4641.6,80781.64,-30.2515,67.1881
10000.0,61191.57,-42.42157,67.1785
