Frequency,Impedance,Phase Angle,Temperature (Dry Bath)
10.0,1420233.0,-15.05104,68.0944
21.5,1227887.0,-13.50137,68.0887
46.4,1119669.0,-13.98702,68.0845
100.0,841755.4,-15.35317,68.0759
215.4,878249.7,-21.26581,68.1083
464.2,910060.5,-23.14005,68.0884
1000.0,688955.9,-33.53863,68.1026
2154.4,452378.3,-54.55844,68.0867
4641.6,272630.0,-71.34192,68.0863
10000.0,143603.6,-82.53241,68.0876
