Frequency,Impedance,Phase Angle,Temperature (Dry Bath)
10.0,1552660.0,-19.43036,67.283
21.5,1400578.0,-16.66543,67.2774
46.4,1261281.0,-15.28582,67.2835
100.0,1070144.0,-23.76068,67.2927
215.4,1035760.0,-2.780446,67.2936
464.2,875049.0,-32.28478,67.2837
1000.0,741422.4,-50.18068,67.2857
2154.4,411396.8,-62.30836,67.2846
4641.6,219365.7,-70.74985,67.2978
10000.0,110938.3,-81.12127,67.3027
