Frequency,Impedance,Phase Angle,Temperature (Dry Bath)
10.0,21159260.0,-12.49797,68.246
21.5,23373290.0,-33.9953,68.2614
46.4,30728690.0,-54.55134,68.2547
100.0,7323322.0,5.189842,68.2534
215.4,28373760.0,-149.9587,68.2629
464.2,2981603.0,-83.13764,68.2626
1000.0,1345895.0,-90.27367,68.2503
2154.4,665070.1,-87.87491,68.2528
4641.6,295492.7,-93.77798,68.254
10000.0,146445.1,-97.299,68.238
