Frequency,Impedance,Phase Angle,Temperature (Dry Bath)
10.0,1540439.0,-15.63563,68.147
21.5,1373182.0,-13.50647,68.1543
46.4,1231951.0,-13.25215,68.1532
100.0,986739.1,-17.76473,68.1641
215.4,987572.8,-21.68967,68.1721
464.2,827670.2,-24.40418,68.1538
1000.0,804064.7,-39.01068,68.1664
2154.4,519786.8,-63.28859,68.1827
4641.6,304245.1,-72.94994,68.1464
10000.0,132462.1,-89.92883,68.1603
