Frequency,Impedance,Phase Angle,Temperature (Dry Bath)
10.0,22987110.0,-22.1085,67.2061
21.5,34550390.0,-46.16156,67.2005
46.4,21758450.0,-12.12582,67.2003
100.0,6509713.0,-0.7960178,67.2061
215.4,178962.1,83.00966,67.2034
464.2,1994128.0,-76.90008,67.2012
1000.0,1175001.0,-84.38667,67.2136
2154.4,569338.5,-84.62828,67.2072
4641.6,255015.8,-84.59381,67.213
10000.0,124605.5,-85.52984,67.2092
