Frequency,Impedance,Phase Angle,Temperature (Dry Bath)
10.0,5946575.0,-31.96096,71.2906
21.544346900318832,6414239.0,-22.68924,71.2786
46.41588833612777,4316798.0,-4.584045,71.2845
100.0,1011520.0,2.175346,71.3006
215.44346900318823,397225.3,-73.87925,71.2738
464.15888336127773,618751.4,-129.3687,71.2946
1000.0,718717.2,-138.4457,71.292
2154.4346900318824,241254.8,-76.06596,71.2842
4641.588833612777,105022.3,-82.32904,71.2948
10000.0,65275.51,-88.65044,71.2997
