Frequency,Impedance,Phase Angle,Temperature (Dry Bath)
10.0,4575809.0,-28.9219,71.4722
21.544346900318832,4365386.0,-10.93742,71.4747
46.41588833612777,6059839.0,-31.4662,71.4636
100.0,857813.7,-23.13872,71.4703
215.44346900318823,548186.1,-49.38838,71.4699
464.15888336127773,3915070.0,-132.7409,71.4739
1000.0,196071.6,-44.53969,71.4648
2154.4346900318824,266831.8,-89.43598,71.4886
4641.588833612777,146947.9,-78.17035,71.491
10000.0,85650.41,-86.98125,71.4758
