Frequency,Impedance,Phase Angle,Temperature (Dry Bath)
10.0,26656350.0,-8.321868,67.9807
21.5,28465560.0,-28.54337,67.9939
46.4,29282450.0,-37.60644,67.9782
100.0,3649867.0,-60.40722,67.9902
215.4,7036780.0,-74.22386,67.9723
464.2,3247861.0,-72.27245,67.9805
1000.0,1405489.0,-90.82055,67.9742
2154.4,745117.3,-88.49971,67.9763
4641.6,319544.1,-89.23031,67.9603
10000.0,153952.5,-102.1348,67.9857
