Frequency,Impedance,Phase Angle,Temperature (Dry Bath)
10.0,4596519.0,15.82248,70.9997
21.544346900318832,7135583.0,-29.51184,70.9867
46.41588833612777,5319213.0,-16.25799,71.0016
100.0,582832.8,12.41025,70.9968
215.44346900318823,838891.4,173.8885,70.9999
464.15888336127773,294272.1,2.371318,70.997
1000.0,877752.3,-32.31222,70.9966
2154.4346900318824,376347.1,-82.63037,70.9954
4641.588833612777,582951.3,-80.79982,70.9905
10000.0,129421.4,-89.193,70.9994
