Frequency,Impedance,Phase Angle,Temperature (Dry Bath)
10.0,22129380.0,-2.116493,67.4462
21.5,26209980.0,-30.70856,67.4255
46.4,16838670.0,-53.02165,67.4367
100.0,6768477.0,-28.38075,67.4275
215.4,10985030.0,-50.87356,67.4284
464.2,3070964.0,-91.43493,67.4158
1000.0,1301427.0,-90.49699,67.4165
2154.4,523217.7,-82.85022,67.4143
4641.6,261283.5,-82.45427,67.4149
10000.0,126166.2,-85.19792,67.4166
