Frequency,Impedance,Phase Angle,Temperature (Dry Bath)
10.0,173789.4,-11.49092,65.8122
21.544346900318832,157864.1,-11.30335,65.8036
46.41588833612777,146021.4,-10.14319,65.8087
100.0,119029.6,0.470807,65.804
215.44346900318823,16194.71,-33.1983,65.8124
464.15888336127773,112591.2,-5.296294,65.807
1000.0,98449.84,-20.92386,65.8255
2154.4346900318824,104547.7,-27.40192,65.8294
4641.588833612777,84536.1,-43.60717,65.8284
10000.0,53503.86,-55.02212,65.8166
