Frequency,Impedance,Phase Angle,Temperature (Dry Bath)
10.0,199350.2,-23.6816,67.2369
21.5,167063.2,-20.56506,67.2036
46.4,144693.0,-17.86006,67.2312
100.0,128040.9,-15.43312,67.2166
215.4,128626.5,-13.59654,67.2296
464.2,108167.3,-13.06295,67.2209
1000.0,97566.09,-15.13561,67.2309
2154.4,89472.7,-19.50554,67.2284
4641.6,74806.6,-27.20876,67.2214
10000.0,58658.5,-39.05529,67.2357
