Frequency,Impedance,Phase Angle,Temperature (Dry Bath)
10.0,32999770.0,-26.4297,67.6642
21.5,43353030.0,-17.38826,67.663
46.4,28825570.0,-56.74334,67.6638
100.0,4316623.0,-14.43702,67.6719
215.4,7846888.0,-67.74158,67.6559
464.2,3479982.0,-77.49861,67.669
1000.0,1315577.0,-88.88407,67.6596
2154.4,585586.3,-86.15079,67.6671
4641.6,283033.9,-84.5174,67.6722
10000.0,128503.8,-93.40993,67.6647
