Frequency,Impedance,Phase Angle,Temperature (Dry Bath)
10.0,6196000.0,-16.89226,71.5078
21.544346900318832,4687780.0,29.52109,71.5051
46.41588833612777,5565251.0,4.988021,71.4869
100.0,1026648.0,1.567489,71.5011
215.44346900318823,2889170.0,170.3959,71.5102
464.15888336127773,4559612.0,-33.97401,71.5133
1000.0,816843.8,-96.85635,71.5091
2154.4346900318824,540173.9,-51.00897,71.5269
4641.588833612777,287079.9,-95.96003,71.4957
10000.0,108485.3,-93.80408,71.5247
