Frequency,Impedance,Phase Angle,Temperature (Dry Bath)
10.0,205795.1,-23.55173,68.1732
21.5,172920.1,-20.47636,68.185
46.4,149793.6,-17.76605,68.1853
100.0,128864.6,-16.22745,68.1777
215.4,119076.0,-14.88449,68.1828
464.2,105815.9,-13.05018,68.1882
1000.0,99932.65,-13.87301,68.1781
2154.4,89098.52,-18.95246,68.1855
4641.6,77930.42,-27.5006,68.1824
10000.0,63852.07,-39.62493,68.1648
