Frequency,Impedance,Phase Angle,Temperature (Dry Bath)
10.0,3479800.0,4.171369,67.3
21.544346900318832,4854946.0,21.54876,67.3
46.41588833612777,4685448.0,20.92205,67.3
100.0,3741644.0,32.24011,67.3
215.44346900318823,4948873.0,-44.65507,67.3
464.15888336127773,12743150.0,47.92105,67.3
1000.0,5431804.0,0.04393667,67.3
2154.4346900318824,1951702.0,-8.20008,67.3
4641.588833612777,3078247.0,17.74961,67.3
10000.0,1920744.0,-40.33243,67.3
