Frequency,Impedance,Phase Angle,Temperature (Dry Bath)
10.0,17727110.0,-17.27437,68.0021
21.5,15676450.0,-37.78902,67.9985
46.4,17455150.0,-48.63243,67.9833
100.0,9084323.0,-46.66851,67.9886
215.4,5868782.0,-3.825237,68.0096
464.2,2588991.0,-78.71631,67.9807
1000.0,1227115.0,-87.00373,68.0034
2154.4,593094.2,-87.78333,67.98
4641.6,280212.5,-91.12649,67.9952
10000.0,137201.5,-96.6207,67.986
