Frequency,Impedance,Phase Angle,Temperature (Dry Bath)
10.0,85030.55,-3.191483,67.046
21.5,83077.97,-2.685929,67.0131
46.4,81406.66,-2.40902,67.0364
100.0,80521.56,-2.857569,67.0639
215.4,67247.02,-8.48715,67.047
464.2,78165.74,-3.85071,67.03
1000.0,75183.11,-6.978696,67.0225
2154.4,74158.93,-11.95897,67.0285
4641.6,68611.11,-19.90165,67.0321
10000.0,57171.32,-34.11086,67.016
