Frequency,Impedance,Phase Angle,Temperature (Dry Bath)
10.0,24430110.0,-33.14523,67.3653
21.5,25325910.0,-35.55147,67.3621
46.4,16570250.0,-60.8807,67.3716
100.0,4419532.0,-74.01877,67.3599
215.4,2193040.0,-94.70113,67.3633
464.2,2151709.0,-92.73253,67.3627
1000.0,1026610.0,-85.33221,67.3633
2154.4,556765.5,-89.0105,67.3615
4641.6,245629.3,-84.99874,67.3624
10000.0,125227.0,-83.39822,67.3652
