Frequency,Impedance,Phase Angle,Temperature (Dry Bath)
10.0,22685940.0,-22.92599,67.9696
21.5,25350250.0,-40.66986,67.97
46.4,30621080.0,-49.57896,67.97
100.0,3942255.0,-51.80228,67.9557
215.4,3649269.0,-78.40554,67.9635
464.2,2085443.0,-79.98223,67.9765
1000.0,1197497.0,-90.18218,67.9661
2154.4,593483.5,-90.18366,67.9569
4641.6,303090.5,-88.77616,67.9703
10000.0,148354.9,-96.93511,67.9681
