Frequency,Impedance,Phase Angle,Temperature (Dry Bath)
10.0,2179743.0,-28.99161,65.8352
21.544346900318832,1562961.0,-15.23788,65.8144
46.41588833612777,1469585.0,-20.28766,65.8292
100.0,772741.1,42.84567,65.8224
215.44346900318823,19098.35,-46.8939,65.8411
464.15888336127773,3859204.0,176.6829,65.8293
1000.0,258195.4,-72.49425,65.8321
2154.4346900318824,575079.2,-50.25579,65.8287
4641.588833612777,132949.3,-69.73889,65.8325
10000.0,80124.33,-93.12644,65.8235
