Frequency,Impedance,Phase Angle,Temperature (Dry Bath)
10.0,15866680.0,-16.33272,68.0658
21.5,18964290.0,-34.74374,68.0658
46.4,21294260.0,-38.53061,68.0658
100.0,5943786.0,-22.08237,68.0658
215.4,4686962.0,-75.67598,68.0658
464.2,2992222.0,-78.02021,68.0658
1000.0,1332127.0,-88.49638,68.0658
2154.4,633471.1,-90.86217,68.0658
4641.6,314380.7,-91.82498,68.0658
10000.0,140724.6,-98.32659,68.0658
