Frequency,Impedance,Phase Angle,Temperature (Dry Bath)
10.0,1475386.0,-16.1798,67.2359
21.5,1294938.0,-14.98493,67.2275
46.4,1144576.0,-15.61902,67.2193
100.0,913077.7,-7.029794,67.2063
215.4,395762.2,-140.3534,67.2308
464.2,876666.5,-32.39551,67.2236
1000.0,684755.9,-47.15928,67.2009
2154.4,457657.9,-60.16692,67.2048
4641.6,222633.4,-71.37386,67.2081
10000.0,112913.0,-79.03144,67.2419
