Frequency,Impedance,Phase Angle,Temperature (Dry Bath)
10.0,32399820.0,-19.66487,67.9779
21.5,20664070.0,-27.06666,67.9937
46.4,11389050.0,-55.69705,67.9849
100.0,4826888.0,-29.63155,67.9927
215.4,3654952.0,-85.52098,67.9924
464.2,2456515.0,-92.72647,67.9912
1000.0,1215638.0,-77.6179,68.0
2154.4,560733.7,-84.26296,67.9955
4641.6,265116.0,-87.67004,67.9887
10000.0,126064.4,-90.52559,67.9966
