Frequency,Impedance,Phase Angle,Temperature (Dry Bath)
10.0,62213.54,-15.42043,71.5365
21.544346900318832,55791.94,-14.74337,71.5296
46.41588833612777,49816.63,-13.7999,71.5572
100.0,43808.62,-6.026698,71.5386
215.44346900318823,40865.75,-8.688273,71.5414
464.15888336127773,36820.63,-13.06181,71.5403
1000.0,32391.78,-11.30004,71.5471
2154.4346900318824,31013.21,-14.2625,71.5434
4641.588833612777,28659.76,-19.25744,71.5437
10000.0,24592.97,-34.31183,71.5511
