Frequency,Impedance,Phase Angle,Temperature (Dry Bath)
10.0,7033753.0,-41.41445,71.1661
21.544346900318832,5776798.0,-27.60387,71.1671
46.41588833612777,4820810.0,-33.93412,71.1731
100.0,339792.1,2.836684,71.1537
215.44346900318823,550662.9,-32.67874,71.1564
464.15888336127773,679528.5,-38.66708,71.1483
1000.0,2519612.0,-164.4753,71.1388
2154.4346900318824,243331.5,-94.34164,71.1459
4641.588833612777,211550.9,-85.13294,71.1336
10000.0,66225.68,-89.04138,71.1544
