Frequency,Impedance,Phase Angle,Temperature (Dry Bath)
10.0,1522979.0,-18.28815,67.2487
21.5,1355357.0,-16.21088,67.2679
46.4,1251247.0,-15.56616,67.2634
100.0,1221342.0,-8.078645,67.2631
215.4,246876.9,63.3455,67.268
464.2,955023.6,-34.55521,67.2785
1000.0,699761.2,-44.3928,67.2462
2154.4,447927.1,-59.13596,67.2495
4641.6,208599.5,-73.23604,67.2542
10000.0,112706.2,-79.40431,67.2573
