Frequency,Impedance,Phase Angle,Temperature (Dry Bath)
10.0,16698510.0,-24.63936,67.9659
21.5,17919740.0,-18.57951,67.9398
46.4,21078990.0,-44.36065,67.9485
100.0,4830504.0,-3.410474,67.9562
215.4,6522744.0,-103.302,67.9591
464.2,2700080.0,-72.46144,67.9378
1000.0,1237552.0,-86.45539,67.9505
2154.4,690373.8,-88.75956,67.9768
4641.6,332613.2,-90.72382,67.9538
10000.0,148267.0,-97.52749,67.9668
