Frequency,Impedance,Phase Angle,Temperature (Dry Bath)
10.0,5215931.0,37.28538,65.7141
21.544346900318832,4256326.0,-40.55944,65.7165
46.41588833612777,4170269.0,-10.48883,65.7225
100.0,380150.0,132.729,65.7177
215.44346900318823,6089.466,85.18826,65.7322
464.15888336127773,714605.0,-92.65521,65.7275
1000.0,969423.3,-43.59969,65.7342
2154.4346900318824,394939.5,-57.28079,65.7193
4641.588833612777,147021.4,-97.2664,65.7454
10000.0,70470.18,-78.56624,65.714
