Frequency,Impedance,Phase Angle,Temperature (Dry Bath)
10.0,52398.54,-33.9839,67.4337
21.5,40387.9,-30.06186,67.4372
46.4,32613.12,-26.06458,67.4303
100.0,27301.45,-21.86755,67.4232
215.4,23888.36,-18.42561,67.4193
464.2,21147.59,-15.61283,67.4172
1000.0,19033.94,-13.52001,67.4235
2154.4,17411.13,-12.43977,67.4277
4641.6,16167.87,-12.20576,67.4261
10000.0,14943.18,-14.19559,67.4118
