Frequency,Impedance,Phase Angle,Temperature (Dry Bath)
10.0,3901356.0,18.45866,71.3617
21.544346900318832,4963659.0,-32.35765,71.3573
46.41588833612777,4911478.0,-0.9700119,71.3537
100.0,873777.4,64.41193,71.3625
215.44346900318823,1556790.0,-68.46162,71.3428
464.15888336127773,816401.2,-58.5976,71.3474
1000.0,681545.0,-106.2724,71.3667
2154.4346900318824,399206.5,-59.17329,71.3534
4641.588833612777,393394.6,-63.74209,71.3603
10000.0,134509.5,-92.57344,71.3848
