Frequency,Impedance,Phase Angle,Temperature (Dry Bath)
10.0,28568640.0,-32.33473,67.09
21.5,26912830.0,-31.47498,67.0605
46.4,17539270.0,-55.26163,67.0714
100.0,5178861.0,-178.9738,67.0737
215.4,4102825.0,-38.37701,67.0714
464.2,2164709.0,-49.75337,67.0771
1000.0,1255357.0,-89.84467,67.0787
2154.4,529084.0,-91.19156,67.0761
4641.6,270354.0,-86.27776,67.0787
10000.0,119839.5,-84.37129,67.0753
