Frequency,Impedance,Phase Angle,Temperature (Dry Bath)
10.0,230615.9,-22.93117,67.1048
21.5,194041.8,-20.41442,67.1115
46.4,167590.6,-17.80581,67.0936
100.0,145365.3,-16.4454,67.0879
215.4,134788.9,-15.2101,67.1015
464.2,123239.8,-14.82458,67.1037
1000.0,109786.9,-16.75405,67.1183
2154.4,99921.56,-23.01515,67.104
4641.6,80734.91,-30.94466,67.1087
10000.0,61000.07,-42.85781,67.1011
