Frequency,Impedance,Phase Angle,Temperature (Dry Bath)
10.0,32780330.0,-12.09905,67.5
21.5,22197110.0,-40.97482,67.5068
46.4,15098220.0,-27.7102,67.5137
100.0,11511140.0,-63.75994,67.4866
215.4,236747.6,147.0223,67.496
464.2,2557979.0,-61.07681,67.4983
1000.0,1189763.0,-93.18787,67.5011
2154.4,560737.6,-87.94266,67.4912
4641.6,250332.6,-88.42128,67.4924
10000.0,122944.7,-86.14028,67.507
