Frequency,Impedance,Phase Angle,Temperature (Dry Bath)
10.0,18498510.0,-15.0858,68.0854
21.5,21927840.0,-37.82875,68.0777
46.4,20624800.0,-56.30024,68.0863
100.0,5017751.0,-45.82731,68.0768
215.4,3906281.0,-74.45732,68.0767
464.2,2595741.0,-75.10299,68.0667
1000.0,1244335.0,-79.06199,68.0892
2154.4,610208.5,-84.6917,68.0879
4641.6,267924.5,-86.84831,68.0719
10000.0,147791.8,-95.71195,68.0772
