Frequency,Impedance,Phase Angle,Temperature (Dry Bath)
10.0,4857578.0,1.057559,71.3201
21.544346900318832,6151542.0,23.74043,71.3117
46.41588833612777,3014708.0,-27.11014,71.325
100.0,846329.5,27.47959,71.3228
215.44346900318823,26031.79,-60.76009,71.3046
464.15888336127773,817989.8,-124.5493,71.3104
1000.0,419663.2,-97.92055,71.3231
2154.4346900318824,232450.8,-84.99057,71.3263
4641.588833612777,143593.6,-93.36131,71.3045
10000.0,68223.56,-80.01396,71.3212
