Frequency,Impedance,Phase Angle,Temperature (Dry Bath)
10.0,239768.7,-22.84038,67.05
21.5,201869.2,-20.21735,67.0456
46.4,174832.1,-17.77293,67.0602
100.0,154843.4,-15.91751,67.0486
215.4,143279.1,-20.25064,67.0665
464.2,128091.8,-15.35633,67.0586
1000.0,114254.2,-18.07213,67.056
2154.4,101428.1,-21.90218,67.0464
4641.6,86055.57,-31.45924,67.058
10000.0,64251.02,-43.77354,67.0574
