Frequency,Impedance,Phase Angle,Temperature (Dry Bath)
10.0,19611070.0,-10.12031,68.2339
21.5,23563290.0,-22.76834,68.2404
46.4,30752780.0,-42.57483,68.2496
100.0,7786665.0,-47.60574,68.2472
215.4,4675295.0,-72.18816,68.2615
464.2,3929048.0,-69.00499,68.2619
1000.0,1601106.0,-83.69148,68.251
2154.4,660863.4,-84.14099,68.2427
4641.6,324516.7,-88.42827,68.2473
10000.0,160615.6,-96.4908,68.246
