Frequency,Impedance,Phase Angle,Temperature (Dry Bath)
10.0,2028203.0,-24.69166,65.6638
21.544346900318832,1680765.0,-23.06926,65.6763
46.41588833612777,1472032.0,-20.31449,65.6636
100.0,498536.1,-4.886843,65.6543
215.44346900318823,248488.2,-72.31819,65.658
464.15888336127773,1082970.0,-31.51183,65.6332
1000.0,553313.8,-65.51088,65.654
2154.4346900318824,237913.6,-68.79128,65.6588
4641.588833612777,142273.6,-83.31774,65.6182
10000.0,82688.1,-81.04329,65.6422
