Frequency,Impedance,Phase Angle,Temperature (Dry Bath)
10.0,61394.05,-32.52113,67.039
21.5,47860.32,-28.59374,67.0261
46.4,39316.75,-24.83214,67.0142
100.0,33224.66,-21.02231,67.0358
215.4,29085.22,-18.01734,67.0234
464.2,25792.54,-15.17703,67.0303
1000.0,23171.96,-13.63809,67.0267
2154.4,21358.38,-12.53331,67.029
4641.6,19661.89,-13.12207,67.0381
10000.0,18003.63,-16.02852,67.0417
