Frequency,Impedance,Phase Angle,Temperature (Dry Bath)
10.0,1459070.0,-14.54676,68.0784
21.5,1287259.0,-12.97696,68.0958
46.4,1115935.0,-13.19387,68.0818
100.0,936903.9,-5.715815,68.084
215.4,971681.8,-12.68774,68.0885
464.2,862109.5,-24.75677,68.0902
1000.0,652710.6,-38.2537,68.097
2154.4,502546.7,-57.81072,68.0902
4641.6,243338.8,-75.80862,68.0957
10000.0,134021.3,-88.98704,68.0791
