Frequency,Impedance,Phase Angle,Temperature (Dry Bath)
10.0,4071640.0,-1.444138,67.4089
21.5,4093847.0,-2.927668,67.4242
46.4,3851905.0,-3.957674,67.4179
100.0,2626246.0,-16.56778,67.4305
215.4,236066.8,-91.03286,67.4211
464.2,2238101.0,-45.07905,67.4151
1000.0,1102163.0,-74.59427,67.4219
2154.4,537676.9,-72.78934,67.4011
4641.6,252726.7,-78.71883,67.415
10000.0,128633.1,-84.35478,67.4273
