Frequency,Impedance,Phase Angle,Temperature (Dry Bath)
10.0,110107.1,-3.042981,67.3138
21.5,108109.6,-2.623148,67.3096
46.4,106505.5,-2.566686,67.3079
100.0,105018.1,-2.619522,67.3008
215.4,96315.93,-28.34181,67.3104
464.2,102279.8,-4.938377,67.2922
1000.0,99229.35,-7.427684,67.3019
2154.4,94538.82,-13.18126,67.311
4641.6,85923.31,-24.31982,67.3183
10000.0,69451.97,-38.7858,67.3068
