Frequency,Impedance,Phase Angle,Temperature (Dry Bath)
10.0,31605900.0,0.4410214,68.0692
21.5,24156420.0,-40.14889,68.0692
46.4,18018050.0,-53.43889,68.0692
100.0,5328720.0,-28.20266,68.0692
215.4,3178167.0,-63.99377,68.0692
464.2,2035015.0,-69.58606,68.0692
1000.0,1286514.0,-78.59555,68.0692
2154.4,537674.7,-85.71471,68.0692
4641.6,271886.3,-88.01198,68.0692
10000.0,136786.6,-96.25681,68.0692
