Frequency,Impedance,Phase Angle,Temperature (Dry Bath)
10.0,40912130.0,-22.57735,68.3172
21.5,32114300.0,-51.21422,68.3172
46.4,13746620.0,-44.50797,68.3172
100.0,15119310.0,-96.03212,68.3172
215.4,5725686.0,-80.66818,68.3172
464.2,2902260.0,-102.2937,68.3172
1000.0,1360849.0,-88.90589,68.3172
2154.4,751864.9,-91.05889,68.3172
4641.6,319471.1,-91.31375,68.3172
10000.0,156330.0,-94.36429,68.3172
