Frequency,Impedance,Phase Angle,Temperature (Dry Bath)
10.0,5089749.0,8.663288,70.8067
21.544346900318832,4557629.0,9.426717,70.8381
46.41588833612777,4222244.0,-34.23882,70.8261
100.0,1001377.0,3.339132,70.8144
215.44346900318823,772228.7,-8.80155,70.7986
464.15888336127773,1097519.0,-17.76269,70.8109
1000.0,185847.5,-141.1407,70.8154
2154.4346900318824,250259.9,-97.48487,70.8113
4641.588833612777,186505.9,-98.67754,70.7852
10000.0,60616.29,-78.51853,70.8161
