Frequency,Impedance,Phase Angle,Temperature (Dry Bath)
10.0,1507748.0,-16.90235,67.3744
21.5,1324659.0,-16.12113,67.3726
46.4,1205563.0,-15.49668,67.3616
100.0,1033517.0,-22.17762,67.3691
215.4,211748.7,-71.52533,67.3685
464.2,999745.7,-30.69803,67.3615
1000.0,714059.3,-42.97308,67.3705
2154.4,423894.8,-57.98852,67.3787
4641.6,236692.2,-71.04837,67.3705
10000.0,117859.2,-78.7479,67.3843
