Frequency,Impedance,Phase Angle,Temperature (Dry Bath)
10.0,34202480.0,-24.98145,66.5578
21.5,19896310.0,-46.76644,66.5641
46.4,11788400.0,-64.75161,66.5723
100.0,7928476.0,-115.6557,66.5496
215.4,112690.9,-5.923799,66.5856
464.2,2590820.0,-78.87446,66.5875
1000.0,773098.3,-92.0411,66.5667
2154.4,409640.6,-84.92679,66.577
4641.6,206251.9,-82.95553,66.5839
10000.0,100699.7,-80.31353,66.6007
