Frequency,Impedance,Phase Angle,Temperature (Dry Bath)
10.0,4380944.0,15.23944,71.252
21.544346900318832,5997853.0,13.50892,71.2635
46.41588833612777,5686314.0,-34.25121,71.2358
100.0,1135103.0,-69.33778,71.2488
215.44346900318823,702225.5,28.11009,71.2815
464.15888336127773,637688.7,-97.01534,71.2575
1000.0,313443.7,-26.80285,71.2722
2154.4346900318824,299561.0,-82.35298,71.242
4641.588833612777,196049.3,-77.56322,71.2565
10000.0,68877.58,-80.03842,71.2587
