Frequency,Impedance,Phase Angle,Temperature (Dry Bath)
10.0,5406509.0,-7.129873,70.7248
21.544346900318832,6662974.0,-20.54338,70.7428
46.41588833612777,4603115.0,-8.959947,70.7505
100.0,797701.9,-41.86011,70.7429
215.44346900318823,462627.1,-12.92676,70.7347
464.15888336127773,1072469.0,-67.85575,70.7511
1000.0,366562.9,-34.34621,70.736
2154.4346900318824,286141.9,-55.42605,70.7335
4641.588833612777,142526.1,-95.27815,70.7402
10000.0,60715.5,-82.86046,70.7441
