Frequency,Impedance,Phase Angle,Temperature (Dry Bath)
10.0,30366200.0,-15.06406,67.2646
21.5,25835830.0,-29.39125,67.2526
46.4,24665060.0,-70.46209,67.2613
100.0,10089080.0,-29.85675,67.2495
215.4,209416.2,156.1419,67.2517
464.2,3256806.0,-94.76743,67.2571
1000.0,1177244.0,-83.53231,67.2541
2154.4,543667.2,-93.46519,67.2468
4641.6,254503.0,-87.39334,67.2569
10000.0,124149.1,-87.38967,67.2322
