Frequency,Impedance,Phase Angle,Temperature (Dry Bath)
10.0,16850580.0,-17.85768,68.2248
21.5,27022850.0,-45.28267,68.2362
46.4,24313750.0,-55.12653,68.2429
100.0,9369661.0,16.40778,68.2467
215.4,3522998.0,-73.35506,68.2454
464.2,3240862.0,-70.94531,68.2314
1000.0,1514767.0,-72.89317,68.2566
2154.4,680564.4,-86.03602,68.2553
4641.6,316447.0,-88.68237,68.2499
10000.0,141408.0,-96.52519,68.2453
