Frequency,Impedance,Phase Angle,Temperature (Dry Bath)
10.0,228750.5,-22.72612,67.5053
21.5,192353.5,-20.19391,67.5268
46.4,166775.4,-17.87159,67.5147
100.0,148034.0,-16.26105,67.5157
215.4,141947.7,-11.3283,67.5267
464.2,122342.3,-13.51212,67.5222
1000.0,109633.1,-16.7721,67.5153
2154.4,99997.26,-21.26579,67.5248
4641.6,81098.34,-29.89469,67.5246
10000.0,62149.64,-40.33008,67.5206
