Frequency,Impedance,Phase Angle,Temperature (Dry Bath)
10.0,55512.58,-33.38292,66.9966
21.5,42992.92,-29.47482,67.0
46.4,34886.56,-25.79773,66.9989
100.0,29346.69,-22.00069,66.99
215.4,23482.45,-15.1756,66.99
464.2,22609.55,-15.78312,66.9888
1000.0,20195.41,-13.93672,66.9938
2154.4,18473.44,-12.69411,67.0097
4641.6,16984.05,-12.96529,66.9874
10000.0,15606.46,-15.37581,66.9864
