Frequency,Impedance,Phase Angle,Temperature (Dry Bath)
10.0,117013.8,-3.131663,67.1595
21.5,114866.4,-2.581553,67.1618
46.4,113038.1,-2.552559,67.1544
100.0,111559.4,-3.803982,67.1677
215.4,110884.7,-3.737445,67.1304
464.2,108784.4,-4.803775,67.1374
1000.0,104995.4,-8.553364,67.1485
2154.4,99137.4,-14.33096,67.1407
4641.6,90209.06,-25.24716,67.152
10000.0,71247.93,-42.26785,67.1379
