Frequency,Impedance,Phase Angle,Temperature (Dry Bath)
10.0,117592.2,-3.095682,67.2958
21.5,115245.6,-2.632481,67.302
46.4,113395.2,-2.55378,67.2874
100.0,110200.9,-2.636647,67.3013
215.4,164043.9,-34.13629,67.3022
464.2,108912.4,-5.478352,67.3027
1000.0,104940.2,-8.596163,67.295
2154.4,98938.68,-13.34367,67.2977
4641.6,90155.86,-25.42532,67.3002
10000.0,69689.37,-41.54522,67.303
