Frequency,Impedance,Phase Angle,Temperature (Dry Bath)
10.0,46214920.0,-12.49499,68.0348
21.5,47639720.0,-28.14743,68.0515
46.4,30720200.0,-56.01275,68.0319
100.0,3098503.0,-32.51573,68.0275
215.4,8447680.0,-76.35984,68.0277
464.2,2045663.0,-75.50972,68.0219
1000.0,1428548.0,-86.16018,68.0473
2154.4,647879.2,-93.95264,68.0258
4641.6,324558.1,-95.16913,68.0407
10000.0,144443.2,-94.87936,68.025
