Frequency,Impedance,Phase Angle,Temperature (Dry Bath)
10.0,4053531.0,-1.180593,71.7458
21.544346900318832,4426485.0,-12.31794,71.7378
46.41588833612777,11058580.0,-11.80099,71.7389
100.0,317568.3,-21.61664,71.7438
215.44346900318823,1141242.0,-47.20046,71.7469
464.15888336127773,295414.3,-96.00932,71.7648
1000.0,379922.8,-23.15282,71.7527
2154.4346900318824,515269.6,-156.1846,71.7476
4641.588833612777,489355.9,-19.63747,71.768
10000.0,120116.9,-89.19001,71.7502
