Frequency,Impedance,Phase Angle,Temperature (Dry Bath)
10.0,2166737.0,-11.51223,67.9523
21.5,2072453.0,-11.07036,67.9373
46.4,1887880.0,-13.26587,67.9298
100.0,1382488.0,-16.31782,67.9395
215.4,1352441.0,-21.79198,67.941
464.2,1072824.0,-36.52914,67.9339
1000.0,824928.4,-46.93487,67.9271
2154.4,588639.8,-63.1173,67.9307
4641.6,304778.4,-74.20116,67.9309
10000.0,147490.4,-92.28746,67.9324
