Frequency,Impedance,Phase Angle,Temperature (Dry Bath)
10.0,22080000.0,0.4160678,68.081
21.5,25910980.0,-27.4891,68.1141
46.4,37682330.0,-50.61015,68.0922
100.0,7466513.0,-29.52202,68.1141
215.4,9095089.0,-114.8813,68.0921
464.2,2682951.0,-73.02994,68.102
1000.0,1374260.0,-84.56301,68.103
2154.4,714391.6,-94.54981,68.1198
4641.6,317561.1,-89.65027,68.0994
10000.0,144534.9,-96.20264,68.1025
