Frequency,Impedance,Phase Angle,Temperature (Dry Bath)
10.0,1537764.0,-15.5047,68.003
21.5,1415566.0,-14.64327,68.0033
46.4,1271506.0,-14.36741,67.995
100.0,1052388.0,-20.85395,67.9866
215.4,1013931.0,-20.32138,67.994
464.2,1004646.0,-25.15889,68.0045
1000.0,732661.1,-38.99194,67.9847
2154.4,515204.7,-50.26788,68.0025
4641.6,290592.1,-73.00275,68.0085
10000.0,138269.2,-91.24179,68.0014
