Frequency,Impedance,Phase Angle,Temperature (Dry Bath)
10.0,133756.9,-3.819548,67.32
21.5,130903.1,-3.544164,67.3217
46.4,127732.5,-3.139869,67.3171
100.0,125204.9,-3.355847,67.3327
215.4,90495.49,4.683806,67.3177
464.2,119178.8,-6.38688,67.3078
1000.0,113521.8,-9.183481,67.3143
2154.4,109824.9,-15.31155,67.3381
4641.6,95381.52,-27.34038,67.3203
10000.0,73781.05,-43.09427,67.3104
