Frequency,Impedance,Phase Angle,Temperature (Dry Bath)
10.0,22111810.0,-11.80425,67.3139
21.5,25394440.0,-19.42467,67.3151
46.4,22391510.0,-46.8172,67.3182
100.0,3145413.0,-33.84522,67.314
215.4,2121481.0,-60.39276,67.3165
464.2,3367251.0,-82.90331,67.3131
1000.0,1225824.0,-77.33075,67.3045
2154.4,610254.8,-92.53887,67.3151
4641.6,282002.3,-84.73036,67.3155
10000.0,131231.1,-86.34976,67.3186
