Frequency,Impedance,Phase Angle,Temperature (Dry Bath)
10.0,18063920.0,-11.51213,67.3621
21.5,16072840.0,-32.62828,67.3538
46.4,11462940.0,-36.35718,67.3534
100.0,32108130.0,2.840601,67.3511
215.4,190581.6,-83.0552,67.3614
464.2,1965094.0,-104.1887,67.3684
1000.0,1130809.0,-78.67284,67.3552
2154.4,556323.8,-82.84791,67.3571
4641.6,266140.7,-84.23105,67.3467
10000.0,122531.4,-85.44992,67.3704
