Frequency,Impedance,Phase Angle,Temperature (Dry Bath)
10.0,269606.2,-6.260155,70.7933
21.544346900318832,260070.8,-4.921587,70.7893
46.41588833612777,250254.9,-6.875185,70.7803
100.0,228145.1,-5.049376,70.7955
215.44346900318823,353134.7,7.923388,70.7863
464.15888336127773,253153.5,-19.74244,70.7932
1000.0,204066.3,-45.30797,70.7935
2154.4346900318824,159499.9,-41.15273,70.8045
4641.588833612777,108339.7,-44.20612,70.7852
10000.0,55323.35,-75.13099,70.796
