Frequency,Impedance,Phase Angle,Temperature (Dry Bath)
10.0,17895430.0,-17.3355,68.1654
21.5,16130650.0,-29.6091,68.1535
46.4,20915890.0,-40.96965,68.1618
100.0,6585292.0,-67.91578,68.1603
215.4,6930053.0,-83.80466,68.1502
464.2,4242996.0,-82.73556,68.1512
1000.0,1523090.0,-92.84368,68.1593
2154.4,713878.8,-85.06154,68.1557
4641.6,338873.9,-94.91218,68.1562
10000.0,148685.1,-92.47903,68.1853
