Frequency,Impedance,Phase Angle,Temperature (Dry Bath)
10.0,4521415.0,18.31358,71.0172
21.544346900318832,5602603.0,-41.80275,71.0203
46.41588833612777,4233546.0,-11.22606,71.0158
100.0,628959.4,-31.40868,71.0115
215.44346900318823,703131.4,-69.09522,71.0256
464.15888336127773,433407.1,-62.92486,71.0243
1000.0,273406.2,-88.00827,71.0292
2154.4346900318824,314904.3,-108.1394,71.0295
4641.588833612777,117532.8,-84.23772,71.0393
10000.0,53995.43,-87.39562,71.0261
