Frequency,Impedance,Phase Angle,Temperature (Dry Bath)
10.0,5542597.0,-6.786491,71.4526
21.544346900318832,3760048.0,-25.94045,71.4527
46.41588833612777,4733310.0,-19.20912,71.4429
100.0,795443.9,-112.8751,71.473
215.44346900318823,4534577.0,40.92298,71.4433
464.15888336127773,902768.0,-37.20736,71.4524
1000.0,581830.6,-50.65999,71.4421
2154.4346900318824,241504.8,-83.05392,71.4399
4641.588833612777,145481.7,-83.8436,71.4266
10000.0,61559.36,-85.19778,71.4131
