Frequency,Impedance,Phase Angle,Temperature (Dry Bath)
10.0,240123.2,-22.9468,67.0334
21.5,202015.4,-20.16377,67.0544
46.4,175036.5,-17.7915,67.0514
100.0,155655.2,-17.03545,67.0587
215.4,139784.0,-15.32762,67.043
464.2,128067.2,-14.1476,67.0632
1000.0,113655.0,-17.73175,67.0341
2154.4,102698.4,-22.90747,67.0557
4641.6,85717.16,-30.8851,67.045
10000.0,63516.78,-42.80444,67.0627
