Frequency,Impedance,Phase Angle,Temperature (Dry Bath)
10.0,4194504.0,-10.75296,65.801
21.544346900318832,3822210.0,-15.79929,65.8084
46.41588833612777,3514196.0,-56.91654,65.8055
100.0,1174690.0,-117.032,65.8042
215.44346900318823,64004.01,-47.19244,65.8014
464.15888336127773,1647655.0,-90.84543,65.7916
1000.0,716077.9,-43.13136,65.8004
2154.4346900318824,425110.3,-98.22926,65.7958
4641.588833612777,189217.0,-79.01403,65.7857
10000.0,74886.57,-93.10882,65.7988
