Frequency,Impedance,Phase Angle,Temperature (Dry Bath)
10.0,149895.9,-4.894306,67.7955
21.5,145415.6,-4.197526,67.8028
46.4,141615.7,-3.827918,67.8007
100.0,136579.2,-4.499213,67.7874
215.4,132346.3,-3.805673,67.7966
464.2,135069.5,-7.014648,67.7814
1000.0,127813.8,-9.496658,67.7857
2154.4,122559.5,-16.48291,67.7905
4641.6,105896.5,-29.297,67.7733
10000.0,82725.47,-53.23485,67.7825
