Frequency,Impedance,Phase Angle,Temperature (Dry Bath)
10.0,177650.8,-22.2481,68.1525
21.5,150999.8,-19.24948,68.134
46.4,132061.2,-16.84521,68.1352
100.0,116061.3,-14.24644,68.1417
215.4,107516.1,-13.10732,68.1413
464.2,96108.67,-11.94103,68.1476
1000.0,87404.25,-14.24433,68.1528
2154.4,80200.83,-19.05983,68.1336
4641.6,73241.92,-25.66662,68.138
10000.0,59765.16,-40.07685,68.1457
