Frequency,Impedance,Phase Angle,Temperature (Dry Bath)
10.0,23540540.0,-38.3013,68.1776
21.5,23215400.0,-34.15084,68.1849
46.4,15526140.0,-51.01671,68.1702
100.0,14260690.0,-93.27884,68.1811
215.4,6099388.0,-97.2223,68.1726
464.2,2487509.0,-85.94684,68.1858
1000.0,1406760.0,-90.37066,68.1703
2154.4,716191.7,-83.28738,68.1795
4641.6,297566.6,-94.2737,68.1739
10000.0,145247.8,-94.50144,68.175
