Frequency,Impedance,Phase Angle,Temperature (Dry Bath)
10.0,5731859.0,0.870529,71.3084
21.544346900318832,5978305.0,7.154879,71.3129
46.41588833612777,6742008.0,-23.44591,71.305
100.0,1139351.0,-4.194606,71.3197
215.44346900318823,382999.4,-117.4303,71.3121
464.15888336127773,950102.0,-23.45535,71.303
1000.0,101235.3,-50.13565,71.316
2154.4346900318824,506408.6,-39.90923,71.3132
4641.588833612777,358706.4,-101.8613,71.3173
10000.0,143237.2,-74.51657,71.3022
