Frequency,Impedance,Phase Angle,Temperature (Dry Bath)
10.0,6289101.0,-15.8034,71.409
21.544346900318832,4985774.0,-14.35237,71.3927
46.41588833612777,4290490.0,-3.912664,71.415
100.0,1255584.0,48.9154,71.3999
215.44346900318823,1005744.0,68.69503,71.3981
464.15888336127773,541189.0,-157.1368,71.4039
1000.0,659283.8,-7.917248,71.4081
2154.4346900318824,335790.9,-45.54947,71.3972
4641.588833612777,148757.5,-79.43298,71.3886
10000.0,138773.5,-74.38229,71.4094
