Frequency,Impedance,Phase Angle,Temperature (Dry Bath)
10.0,4824715.0,-3.118848,65.7492
21.544346900318832,3906435.0,-20.04816,65.7342
46.41588833612777,3860402.0,-12.40405,65.7466
100.0,528007.0,-22.51851,65.7507
215.44346900318823,13425.61,56.16071,65.754
464.15888336127773,623910.1,-88.69503,65.7566
1000.0,1354751.0,-178.8393,65.7403
2154.4346900318824,333385.8,-72.75489,65.7522
4641.588833612777,151268.9,-79.93561,65.7478
10000.0,76066.11,-84.75561,65.7528
