Frequency,Impedance,Phase Angle,Temperature (Dry Bath)
10.0,6841751.0,-0.1658706,71.1779
21.544346900318832,4814367.0,16.85609,71.1843
46.41588833612777,4358016.0,-23.10669,71.1723
100.0,478158.0,-2.261207,71.1768
215.44346900318823,912084.9,15.09164,71.1783
464.15888336127773,2555183.0,-35.19547,71.1678
1000.0,213245.9,-100.574,71.1793
2154.4346900318824,280321.9,-90.04547,71.1739
4641.588833612777,184951.6,-51.30464,71.1811
10000.0,148809.3,-84.96205,71.1831
