Frequency,Impedance,Phase Angle,Temperature (Dry Bath)
10.0,26916230.0,-33.86137,67.4432
21.5,20586310.0,-41.77271,67.4451
46.4,14818690.0,-55.9696,67.4588
100.0,6026671.0,-93.21203,67.441
215.4,3511624.0,-119.154,67.4544
464.2,2600858.0,-86.23585,67.4453
1000.0,807363.8,-81.44893,67.4411
2154.4,450848.1,-84.61548,67.4403
4641.6,217794.0,-83.44688,67.4469
10000.0,107899.9,-80.73623,67.441
