Frequency,Impedance,Phase Angle,Temperature (Dry Bath)
10.0,45933850.0,-36.01395,67.4059
21.5,23777740.0,-35.66172,67.3983
46.4,12892620.0,-27.34585,67.394
100.0,6363677.0,-47.95386,67.4133
215.4,2946129.0,5.84906,67.4239
464.2,3013462.0,-114.7681,67.4001
1000.0,1037252.0,-84.32116,67.3948
2154.4,580646.8,-93.08717,67.4101
4641.6,256004.6,-84.88512,67.4077
10000.0,124623.2,-83.72811,67.3868
