Frequency,Impedance,Phase Angle,Temperature (Dry Bath)
10.0,4682618.0,1.728898,71.2374
21.544346900318832,4864403.0,-16.92901,71.2417
46.41588833612777,5002870.0,-13.1608,71.2576
100.0,762913.2,-15.22065,71.2517
215.44346900318823,2339950.0,-149.9658,71.2523
464.15888336127773,523541.7,-82.77873,71.2457
1000.0,660753.8,-49.76422,71.2509
2154.4346900318824,512199.7,-109.244,71.2608
4641.588833612777,170168.6,-91.9525,71.2443
10000.0,237433.0,-120.1314,71.2787
