Frequency,Impedance,Phase Angle,Temperature (Dry Bath)
10.0,34055850.0,-10.17166,67.9939
21.5,36901870.0,-27.35646,67.9883
46.4,25725550.0,-47.50762,67.9829
100.0,6950652.0,-41.14992,67.9686
215.4,4351823.0,-116.7126,67.9735
464.2,2633573.0,-96.89934,67.9739
1000.0,1153142.0,-81.37582,67.9747
2154.4,599402.9,-86.90655,67.9689
4641.6,271534.0,-93.21827,67.9718
10000.0,138462.6,-95.53599,67.9819
