Frequency,Impedance,Phase Angle,Temperature (Dry Bath)
10.0,30112350.0,-10.63086,68.1439
21.5,25987230.0,-21.16567,68.1439
46.4,28095930.0,-43.8655,68.1439
100.0,4402682.0,-28.04899,68.1439
215.4,4584068.0,-79.85094,68.1439
464.2,3136462.0,-79.28271,68.1439
1000.0,1351412.0,-88.69066,68.1439
2154.4,643157.8,-88.0727,68.1439
4641.6,303911.4,-87.11502,68.1439
10000.0,145163.1,-95.32686,68.1439
