Frequency,Impedance,Phase Angle,Temperature (Dry Bath)
10.0,34697240.0,-30.64627,67.4145
21.5,17032540.0,-20.78744,67.4127
46.4,15871070.0,-59.04518,67.3831
100.0,6445592.0,-0.6457793,67.4003
215.4,988028.3,-140.9529,67.418
464.2,4453041.0,-73.70277,67.4043
1000.0,1117328.0,-77.85996,67.3955
2154.4,515498.4,-85.43392,67.41
4641.6,263343.4,-83.81697,67.4062
10000.0,130793.6,-84.61704,67.4206
