Frequency,Impedance,Phase Angle,Temperature (Dry Bath)
10.0,3980916.0,-11.75237,71.2862
21.544346900318832,7623337.0,-7.266742,71.2903
46.41588833612777,3474383.0,-24.92345,71.286
100.0,553494.5,90.9399,71.2712
215.44346900318823,1341474.0,-88.9472,71.2836
464.15888336127773,1296200.0,-124.5669,71.2836
1000.0,715740.4,-12.11431,71.2626
2154.4346900318824,213799.2,-74.55067,71.2774
4641.588833612777,151977.5,-88.44253,71.266
10000.0,69499.82,-88.75107,71.2708
