Frequency,Impedance,Phase Angle,Temperature (Dry Bath)
10.0,5740655.0,-7.608305,70.8181
21.544346900318832,6379228.0,33.22358,70.8209
46.41588833612777,3716810.0,-23.14513,70.8278
100.0,715228.5,-115.2746,70.8106
215.44346900318823,1417492.0,-1.108835,70.8118
464.15888336127773,6135347.0,48.18287,70.8043
1000.0,475602.9,-104.2709,70.8194
2154.4346900318824,493594.3,-70.1613,70.8029
4641.588833612777,110198.6,-90.17199,70.8127
10000.0,64127.65,-79.53004,70.8063
