Frequency,Impedance,Phase Angle,Temperature (Dry Bath)
10.0,59660650.0,-8.946684,68.2404
21.5,23062130.0,-38.99659,68.2277
46.4,28885930.0,-54.15868,68.2313
100.0,4908123.0,-63.79169,68.2288
215.4,3957347.0,-77.26659,68.2357
464.2,2700816.0,-81.08335,68.213
1000.0,1023833.0,-79.01831,68.1973
2154.4,597105.4,-83.57273,68.2338
4641.6,300580.4,-95.9961,68.2153
10000.0,130656.5,-95.14881,68.229
