Frequency,Impedance,Phase Angle,Temperature (Dry Bath)
10.0,31102330.0,-12.09619,68.0316
21.5,35904690.0,-37.37417,68.0471
46.4,26101820.0,-39.59518,68.0417
100.0,4022530.0,-42.65207,68.0298
215.4,2901950.0,-74.44974,68.0357
464.2,1991933.0,-64.33945,68.026
1000.0,1279198.0,-80.91716,68.0116
2154.4,581215.9,-82.7594,68.0268
4641.6,303232.6,-81.0149,68.0221
10000.0,143363.7,-90.67332,68.0215
