Frequency,Impedance,Phase Angle,Temperature (Dry Bath)
10.0,19288570.0,-25.09805,68.0835
21.5,23101800.0,-24.69086,68.1028
46.4,24340100.0,-39.63577,68.0839
100.0,10575930.0,-36.73451,68.1115
215.4,6095510.0,-112.8888,68.0881
464.2,3684473.0,-75.08566,68.0998
1000.0,1489046.0,-87.92506,68.0832
2154.4,701912.3,-93.71233,68.1024
4641.6,321019.9,-94.12501,68.0958
10000.0,150323.2,-97.98372,68.0906
