Frequency,Impedance,Phase Angle,Temperature (Dry Bath)
10.0,126532.2,-4.143474,67.1284
21.5,123627.2,-3.597719,67.1423
46.4,122084.1,-3.621956,67.1326
100.0,117959.1,-4.837937,67.1247
215.4,118157.2,-5.685909,67.1303
464.2,114763.5,-5.877296,67.1297
1000.0,110106.0,-9.019512,67.1286
2154.4,103497.4,-14.41843,67.1388
4641.6,93957.95,-26.75578,67.1358
10000.0,72019.81,-42.25538,67.1178
