Frequency,Impedance,Phase Angle,Temperature (Dry Bath)
10.0,1469192.0,-17.41499,67.4846
21.5,1296971.0,-15.87022,67.474
46.4,1208525.0,-17.33286,67.4834
100.0,926343.1,-16.81049,67.4814
215.4,151657.5,-155.177,67.4703
464.2,829011.0,-30.70533,67.4853
1000.0,640685.3,-41.4442,67.4732
2154.4,417082.1,-64.38755,67.4596
4641.6,233663.2,-70.90013,67.4679
10000.0,109728.4,-79.45829,67.4673
