Frequency,Impedance,Phase Angle,Temperature (Dry Bath)
10.0,1590842.0,-9.787323,70.4
21.544346900318832,1342081.0,-15.95411,70.4
46.41588833612777,1390501.0,-7.779099,70.4
100.0,1553333.0,-5.749581,70.4
215.44346900318823,896398.2,-8.301892,70.4
464.15888336127773,1139995.0,-9.403959,70.4
1000.0,3126404.0,-114.2118,70.4
2154.4346900318824,704832.3,-32.31095,70.4
4641.588833612777,636363.7,-49.3195,70.4
10000.0,325575.5,-50.39526,70.4
