Frequency,Impedance,Phase Angle,Temperature (Dry Bath)
10.0,1580714.0,-15.8076,67.9687
21.5,1434044.0,-14.33987,67.9687
46.4,1207891.0,-13.39899,67.9687
100.0,867148.8,-13.59945,67.9687
215.4,1072949.0,-11.33918,67.9687
464.2,834807.4,-26.07492,67.9687
1000.0,726394.3,-37.0587,67.9687
2154.4,535473.9,-55.91679,67.9687
4641.6,279840.8,-74.03676,67.9687
10000.0,137242.0,-88.88476,67.9687
