Frequency,Impedance,Phase Angle,Temperature (Dry Bath)
10.0,4330806.0,4.464993,71.3973
21.544346900318832,4039003.0,-0.05005298,71.3946
46.41588833612777,4869858.0,-9.537099,71.384
100.0,726310.6,79.79976,71.3894
215.44346900318823,849614.6,-110.6305,71.3941
464.15888336127773,635482.2,0.2727536,71.4018
1000.0,1924262.0,35.04709,71.3901
2154.4346900318824,510191.7,-68.28957,71.4212
4641.588833612777,168419.6,-81.24262,71.4026
10000.0,159127.3,-81.68484,71.3945
