Frequency,Impedance,Phase Angle,Temperature (Dry Bath)
10.0,262985.2,-18.2793,71.7561
21.544346900318832,215333.6,-18.87077,71.756
46.41588833612777,188097.1,-19.05407,71.7338
100.0,160803.3,-29.87858,71.7727
215.44346900318823,102348.2,-26.3304,71.7643
464.15888336127773,97902.83,-17.52377,71.7481
1000.0,84243.45,-3.723206,71.7709
2154.4346900318824,85804.36,-17.05805,71.7591
4641.588833612777,75529.61,-4.158177,71.759
10000.0,62343.43,-41.97009,71.762
