Frequency,Impedance,Phase Angle,Temperature (Dry Bath)
10.0,34620650.0,-14.35401,67.9638
21.5,50653310.0,-43.71677,67.987
46.4,26110240.0,-47.84165,67.9759
100.0,4697084.0,-26.88992,67.9701
215.4,9884055.0,-86.5107,67.9669
464.2,2156771.0,-73.1407,67.9686
1000.0,1365932.0,-88.09537,67.9603
2154.4,655667.7,-87.23841,67.9504
4641.6,262403.3,-94.77298,67.9628
10000.0,136342.9,-94.3078,67.9645
