Frequency,Impedance,Phase Angle,Temperature (Dry Bath)
10.0,7558034.0,0.5881466,71.2698
21.544346900318832,6070082.0,-11.47481,71.2437
46.41588833612777,4613419.0,-33.73163,71.2672
100.0,1100124.0,-16.23039,71.2604
215.44346900318823,1027675.0,-160.196,71.2681
464.15888336127773,929040.7,-73.71895,71.265
1000.0,582078.3,-100.5871,71.2736
2154.4346900318824,248970.7,-78.55264,71.2848
4641.588833612777,231904.8,-87.52773,71.264
10000.0,75072.55,-83.54708,71.275
