Frequency,Impedance,Phase Angle,Temperature (Dry Bath)
10.0,1406900.0,-10.30855,67.8989
21.5,1251513.0,-10.33569,67.8831
46.4,1151970.0,-10.86812,67.8751
100.0,934445.1,-9.291708,67.8803
215.4,1002246.0,-16.35304,67.8848
464.2,831882.6,-31.11504,67.8643
1000.0,651194.2,-40.82085,67.8654
2154.4,472077.6,-55.5152,67.8749
4641.6,266034.0,-68.55867,67.8737
10000.0,132913.7,-86.4272,67.8789
