Frequency,Impedance,Phase Angle,Temperature (Dry Bath)
10.0,22399310.0,-11.70397,67.298
21.5,35146650.0,-28.50276,67.2797
46.4,17270020.0,-48.77336,67.3045
100.0,9039377.0,140.8663,67.2917
215.4,1641442.0,-71.14088,67.2609
464.2,2419541.0,-81.43294,67.3034
1000.0,1119589.0,-84.34465,67.2657
2154.4,530999.0,-82.76365,67.2771
4641.6,258161.6,-87.67362,67.2755
10000.0,123384.4,-84.52292,67.2855
