Frequency,Impedance,Phase Angle,Temperature (Dry Bath)
10.0,162346.4,-21.5261,67.7937
21.5,140198.1,-18.29206,67.7875
46.4,123624.3,-15.82258,67.8147
100.0,110109.5,-13.88146,67.8091
215.4,101254.8,-12.6536,67.8047
464.2,93563.27,-11.94352,67.8018
1000.0,84457.62,-13.92079,67.8035
2154.4,77141.0,-17.30143,67.8015
4641.6,68824.92,-26.02826,67.8097
10000.0,58142.95,-37.47729,67.8041
