Frequency,Impedance,Phase Angle,Temperature (Dry Bath)
10.0,23228610.0,-33.40288,68.1439
21.5,24733190.0,-11.38732,68.1439
46.4,20700970.0,-44.70124,68.1439
100.0,12231910.0,-40.01179,68.1439
215.4,5848623.0,-93.67165,68.1439
464.2,2618069.0,-90.38722,68.1439
1000.0,1355042.0,-79.86722,68.1439
2154.4,666286.9,-86.49877,68.1439
4641.6,330418.0,-85.98118,68.1439
10000.0,153433.0,-97.47863,68.1439
