Frequency,Impedance,Phase Angle,Temperature (Dry Bath)
10.0,3828464.0,-9.643229,68.0414
21.5,4621823.0,-12.2739,68.0463
46.4,4332827.0,-14.01992,68.0589
100.0,2606958.0,-32.02381,68.0429
215.4,2868718.0,-40.70233,68.0552
464.2,1803124.0,-49.34913,68.0548
1000.0,1110502.0,-65.36409,68.0254
2154.4,610327.2,-78.48432,68.0377
4641.6,265379.7,-82.71398,68.0461
10000.0,129925.2,-90.41995,68.0361
