Frequency,Impedance,Phase Angle,Temperature (Dry Bath)
10.0,55188190.0,-3.832911,68.4038
21.5,32716990.0,-26.06576,68.4282
46.4,16369640.0,-46.1835,68.4145
100.0,5698523.0,-68.35222,68.3995
215.4,5265174.0,-78.28425,68.4293
464.2,3656076.0,-78.70715,68.3993
1000.0,1202619.0,-79.69314,68.4059
2154.4,592955.8,-85.68886,68.3982
4641.6,284658.6,-94.11741,68.3867
10000.0,135018.3,-99.69211,68.3916
