Frequency,Impedance,Phase Angle,Temperature (Dry Bath)
10.0,5355520.0,4.135582,65.8361
21.544346900318832,4812094.0,-22.95971,65.8466
46.41588833612777,4003369.0,-25.90478,65.8461
100.0,834266.8,5.555851,65.8405
215.44346900318823,593167.7,-73.8178,65.8465
464.15888336127773,1508230.0,-158.6013,65.8548
1000.0,196154.0,-74.51092,65.8413
2154.4346900318824,207640.1,-96.50347,65.8475
4641.588833612777,113652.3,-85.03248,65.8491
10000.0,77381.26,-79.11187,65.838
