Frequency,Impedance,Phase Angle,Temperature (Dry Bath)
10.0,4786947.0,-14.09476,71.2087
21.544346900318832,4125548.0,11.33999,71.215
46.41588833612777,5517806.0,-12.22241,71.202
100.0,2101849.0,160.7937,71.2013
215.44346900318823,743787.8,156.6781,71.2128
464.15888336127773,523394.7,-55.60721,71.2149
1000.0,435480.6,-55.92674,71.2157
2154.4346900318824,498016.3,-115.644,71.207
4641.588833612777,225097.1,-89.82389,71.2081
10000.0,117937.3,-89.60924,71.2107
