Frequency,Impedance,Phase Angle,Temperature (Dry Bath)
10.0,4611355.0,-23.9181,71.3753
21.544346900318832,6372516.0,9.752046,71.3603
46.41588833612777,4316123.0,-13.57033,71.3648
100.0,1343083.0,-100.2676,71.3666
215.44346900318823,678868.9,-5.370758,71.3551
464.15888336127773,630019.1,37.28568,71.3717
1000.0,432008.4,-77.04625,71.3641
2154.4346900318824,357264.9,-99.15458,71.3743
4641.588833612777,208788.8,-84.4317,71.3589
10000.0,109503.6,-86.98222,71.3567
