Frequency,Impedance,Phase Angle,Temperature (Dry Bath)
10.0,625471.5,-10.04118,71.0878
21.544346900318832,588041.0,-11.11214,71.1031
46.41588833612777,525802.6,-13.74051,71.1069
100.0,381434.4,-4.099533,71.1018
215.44346900318823,292477.7,86.35753,71.0928
464.15888336127773,488841.9,-26.21288,71.0905
1000.0,324989.7,-26.44674,71.0889
2154.4346900318824,245029.4,-73.80688,71.0908
4641.588833612777,155845.3,-31.57884,71.0841
10000.0,100128.8,-67.96236,71.0997
