Frequency,Impedance,Phase Angle,Temperature (Dry Bath)
10.0,32097080.0,-12.22016,68.1287
21.5,22471800.0,-17.01366,68.1376
46.4,29239880.0,-48.89835,68.1421
100.0,31920630.0,-74.23533,68.1398
215.4,5798695.0,-102.9569,68.1406
464.2,1969963.0,-70.14079,68.1391
1000.0,1199448.0,-83.80656,68.1335
2154.4,573379.8,-90.42896,68.1318
4641.6,290021.7,-88.24686,68.1476
10000.0,130542.3,-94.53412,68.1382
