Frequency,Impedance,Phase Angle,Temperature (Dry Bath)
10.0,151436.1,-4.665392,67.743
21.5,147043.5,-3.999307,67.7469
46.4,143731.1,-3.703234,67.7444
100.0,141586.6,-4.901667,67.7402
215.4,135364.9,-5.064305,67.743
464.2,133231.4,-6.967809,67.7573
1000.0,129827.2,-9.870013,67.7425
2154.4,126910.1,-16.88357,67.7507
4641.6,107665.7,-30.0848,67.7743
10000.0,87128.06,-50.42306,67.7452
