Frequency,Impedance,Phase Angle,Temperature (Dry Bath)
10.0,17785330.0,-12.67837,67.7977
21.5,19539780.0,-24.42939,67.7981
46.4,17380700.0,-54.70341,67.788
100.0,5624139.0,-32.27385,67.7636
215.4,5843064.0,-66.58721,67.7923
464.2,2812264.0,-89.36226,67.7864
1000.0,1330900.0,-87.49315,67.7828
2154.4,637925.7,-80.5534,67.7904
4641.6,303261.3,-85.50591,67.7731
10000.0,129501.3,-98.86831,67.7809
