Frequency,Impedance,Phase Angle,Temperature (Dry Bath)
10.0,5194122.0,-22.32509,66.3617
21.544346900318832,10362750.0,-37.45872,66.3678
46.41588833612777,5479102.0,-14.02377,66.3543
100.0,560157.4,-164.7922,66.3454
215.44346900318823,716432.4,-110.398,66.3408
464.15888336127773,934936.4,-131.8009,66.3419
1000.0,1569942.0,-65.27779,66.3585
2154.4346900318824,296826.6,-82.20892,66.3555
4641.588833612777,140713.2,-101.0316,66.3496
10000.0,72201.65,-83.33982,66.3541
