Frequency,Impedance,Phase Angle,Temperature (Dry Bath)
10.0,54646.38,-33.45239,67.192
21.5,42270.85,-29.46029,67.1938
46.4,34294.67,-25.22264,67.1924
100.0,28926.22,-21.62895,67.1881
215.4,21733.62,-10.48513,67.1867
464.2,22651.64,-15.14507,67.1908
1000.0,20410.82,-12.98606,67.1868
2154.4,18743.1,-11.86785,67.1997
4641.6,17405.21,-11.99878,67.206
10000.0,16107.03,-14.35273,67.1894
