Frequency,Impedance,Phase Angle,Temperature (Dry Bath)
10.0,34337510.0,-42.42198,68.3061
21.5,23060350.0,-41.75858,68.3119
46.4,13781670.0,-48.3145,68.3206
100.0,10497040.0,-37.49232,68.3071
215.4,5726760.0,-69.4622,68.3197
464.2,2779434.0,-107.6509,68.3216
1000.0,1260367.0,-82.43369,68.3098
2154.4,635228.2,-89.76104,68.3131
4641.6,290556.9,-90.65125,68.3223
10000.0,154687.5,-98.76511,68.3377
