Frequency,Impedance,Phase Angle,Temperature (Dry Bath)
10.0,206498.5,-23.43224,67.2152
21.5,173603.9,-20.5789,67.2284
46.4,150145.8,-17.74443,67.2128
100.0,131215.9,-16.39447,67.2102
215.4,119188.2,-14.08256,67.2215
464.2,108603.5,-13.11036,67.2199
1000.0,100282.3,-15.74171,67.2175
2154.4,90548.99,-19.97228,67.205
4641.6,76858.77,-28.47434,67.2201
10000.0,60483.12,-39.43496,67.2286
