Frequency,Impedance,Phase Angle,Temperature (Dry Bath)
10.0,16695.55,-12.54815,71.5434
21.544346900318832,15255.67,-10.93582,71.5452
46.41588833612777,14063.27,-10.07496,71.5422
100.0,12944.83,-10.51146,71.5461
215.44346900318823,12046.03,-8.44958,71.5497
464.15888336127773,11272.81,-8.743336,71.5386
1000.0,10585.34,-7.181453,71.5539
2154.4346900318824,9981.706,-6.845938,71.5509
4641.588833612777,9590.38,-7.213884,71.5602
10000.0,9055.868,-8.499801,71.5444
