Frequency,Impedance,Phase Angle,Temperature (Dry Bath)
10.0,119246.2,-3.197625,67.4242
21.5,117111.2,-2.756865,67.4273
46.4,115572.9,-2.79684,67.4382
100.0,114388.6,-4.811355,67.422
215.4,111378.3,-3.905213,67.4149
464.2,109540.6,-5.55071,67.4206
1000.0,105890.4,-9.328106,67.4192
2154.4,101912.4,-13.6419,67.4111
4641.6,92049.99,-24.59561,67.4082
10000.0,73695.23,-39.61614,67.4078
