Frequency,Impedance,Phase Angle,Temperature (Dry Bath)
10.0,725823.5,-10.62716,68.1645
21.5,671621.4,-10.42033,68.1604
46.4,644030.2,-10.74665,68.1543
100.0,538540.2,-12.09998,68.1675
215.4,544722.2,-16.69737,68.1744
464.2,461550.5,-19.82751,68.1485
1000.0,404059.0,-27.1522,68.1596
2154.4,322784.7,-41.66768,68.156
4641.6,219305.2,-56.1765,68.1699
10000.0,129024.2,-73.84154,68.1656
