Frequency,Impedance,Phase Angle,Temperature (Dry Bath)
10.0,528633.2,-24.33147,66.2358
21.544346900318832,414390.1,-27.29134,66.2091
46.41588833612777,334128.1,-24.29238,66.2185
100.0,287555.4,-11.74787,66.201
215.44346900318823,154581.9,-15.38205,66.213
464.15888336127773,213345.8,-26.87681,66.1944
1000.0,158707.4,-38.76796,66.2478
2154.4346900318824,135631.1,-47.71697,66.2132
4641.588833612777,79845.75,-52.9708,66.2108
10000.0,51733.09,-67.92172,66.2048
