Frequency,Impedance,Phase Angle,Temperature (Dry Bath)
10.0,54607.8,-33.56463,67.1285
21.5,42228.49,-29.67508,67.0971
46.4,34177.81,-26.01346,67.1211
100.0,28685.0,-22.2445,67.1206
215.4,27159.69,-17.56745,67.1257
464.2,21989.5,-16.17009,67.12
1000.0,19688.79,-14.07077,67.0973
2154.4,17981.17,-12.86328,67.1289
4641.6,16578.12,-12.93127,67.1393
10000.0,15264.13,-15.12241,67.1248
