Frequency,Impedance,Phase Angle,Temperature (Dry Bath)
10.0,173461.7,-12.35751,65.8501
21.544346900318832,159635.6,-12.00155,65.8488
46.41588833612777,145366.8,-10.20065,65.8484
100.0,149205.2,-2.24535,65.8343
215.44346900318823,7473.199,56.90772,65.8424
464.15888336127773,133503.1,-7.489603,65.8436
1000.0,91750.48,-24.54173,65.8505
2154.4346900318824,97137.2,-22.86448,65.8392
4641.588833612777,78748.07,-30.2689,65.8474
10000.0,54081.56,-51.05582,65.8314
