Frequency,Impedance,Phase Angle,Temperature (Dry Bath)
10.0,2310038.0,-11.14148,68.2042
21.5,2285349.0,-10.56242,68.2042
46.4,2201351.0,-14.00317,68.2042
100.0,1816788.0,-18.28809,68.2042
215.4,1523018.0,-23.5646,68.2042
464.2,1312571.0,-28.96592,68.2042
1000.0,982800.2,-51.77061,68.2042
2154.4,547096.1,-66.43348,68.2042
4641.6,296234.2,-79.78791,68.2042
10000.0,161368.1,-94.61715,68.2042
