Frequency,Impedance,Phase Angle,Temperature (Dry Bath)
10.0,4760893.0,16.48875,71.2667
21.544346900318832,4736842.0,-46.99387,71.284
46.41588833612777,3299140.0,-21.71806,71.2729
100.0,895617.7,-65.88704,71.2764
215.44346900318823,719476.0,155.8243,71.263
464.15888336127773,876633.1,-64.31567,71.2799
1000.0,782924.8,-109.9895,71.2723
2154.4346900318824,237903.1,-80.42893,71.278
4641.588833612777,123689.4,-85.1843,71.2618
10000.0,63182.19,-76.34369,71.2539
