Frequency,Impedance,Phase Angle,Temperature (Dry Bath)
10.0,20710580.0,-5.896613,67.4237
21.5,26390750.0,-35.3193,67.409
46.4,17708740.0,-54.5573,67.3903
100.0,5166534.0,-32.33825,67.3939
215.4,9746667.0,-126.7472,67.3913
464.2,2017553.0,-95.45091,67.378
1000.0,1125462.0,-80.75686,67.3855
2154.4,551862.0,-85.21498,67.3865
4641.6,273488.8,-86.69916,67.4083
10000.0,130502.5,-86.14577,67.3826
