Frequency,Impedance,Phase Angle,Temperature (Dry Bath)
10.0,24473850.0,-3.472417,68.1512
21.5,22279340.0,-39.08622,68.1474
46.4,22941270.0,-48.23964,68.1718
100.0,11956970.0,-14.59783,68.1715
215.4,6104464.0,-58.46858,68.1653
464.2,3018430.0,-78.09031,68.1708
1000.0,1408252.0,-79.73576,68.1637
2154.4,637682.5,-88.65281,68.1577
4641.6,304160.0,-93.86611,68.1654
10000.0,151654.6,-99.53361,68.1693
