Frequency,Impedance,Phase Angle,Temperature (Dry Bath)
10.0,1478236.0,-15.64881,67.8468
21.5,1268119.0,-14.19161,67.8704
46.4,1138006.0,-13.47552,67.8597
100.0,958297.5,-10.89787,67.8426
215.4,1094917.0,-15.43891,67.8365
464.2,797256.4,-31.31579,67.8482
1000.0,727551.5,-40.46765,67.8577
2154.4,505291.1,-57.32237,67.8585
4641.6,249991.8,-73.43066,67.8548
10000.0,133208.7,-89.01681,67.8449
