Frequency,Impedance,Phase Angle,Temperature (Dry Bath)
10.0,1555286.0,-16.96233,67.7502
21.5,1379886.0,-15.19498,67.7513
46.4,1187875.0,-13.69451,67.743
100.0,984513.2,-7.846223,67.7811
215.4,968776.4,-19.16066,67.7675
464.2,939374.6,-37.09524,67.7921
1000.0,695549.4,-40.67982,67.7851
2154.4,487712.4,-58.92656,67.7876
4641.6,305124.4,-76.96755,67.7773
10000.0,132635.8,-82.76507,67.7794
