Frequency,Impedance,Phase Angle,Temperature (Dry Bath)
10.0,3149939.0,-4.77509,70.3741
21.544346900318832,4699948.0,-9.653998,70.3647
46.41588833612777,3638382.0,-17.6407,70.3769
100.0,1289824.0,77.95396,70.3675
215.44346900318823,620972.4,87.63613,70.3727
464.15888336127773,344511.5,-34.09509,70.3556
1000.0,312859.1,-81.30925,70.365
2154.4346900318824,205532.4,-88.01706,70.3504
4641.588833612777,92434.56,-76.39804,70.3674
10000.0,52036.42,-81.04537,70.3817
