Frequency,Impedance,Phase Angle,Temperature (Dry Bath)
10.0,27087680.0,-28.99998,68.0208
21.5,29597920.0,-16.37807,68.0193
46.4,31794410.0,-51.41451,68.0276
100.0,10136790.0,-38.4436,68.0361
215.4,8989203.0,-78.75396,68.0397
464.2,2319634.0,-86.61437,68.0398
1000.0,1113793.0,-84.04683,68.0188
2154.4,598327.9,-88.11989,68.0146
4641.6,284091.0,-88.70934,68.0154
10000.0,133750.4,-94.55715,68.0366
