Frequency,Impedance,Phase Angle,Temperature (Dry Bath)
10.0,29946430.0,-19.72012,67.3598
21.5,22116730.0,-44.47453,67.3486
46.4,12873320.0,-56.75712,67.3494
100.0,4402396.0,-46.85411,67.3474
215.4,2954462.0,-90.52349,67.355
464.2,1714436.0,-75.82119,67.3469
1000.0,796735.8,-79.19003,67.346
2154.4,423324.8,-82.29355,67.3633
4641.6,200215.1,-81.95399,67.3544
10000.0,100445.7,-81.75216,67.3597
