Frequency,Impedance,Phase Angle,Temperature (Dry Bath)
10.0,39907560.0,-37.57866,67.4397
21.5,24582550.0,-30.55708,67.4461
46.4,15832760.0,-63.94585,67.4405
100.0,4918444.0,-39.30082,67.4556
215.4,207648.7,77.17379,67.4382
464.2,3422905.0,-73.85517,67.4367
1000.0,1142123.0,-82.87295,67.4433
2154.4,540078.3,-87.819,67.4359
4641.6,262863.4,-86.99573,67.438
10000.0,127520.9,-87.09872,67.4321
