Frequency,Impedance,Phase Angle,Temperature (Dry Bath)
10.0,730668.9,-10.59235,68.25
21.5,680797.3,-10.22142,68.2726
46.4,636882.6,-10.86949,68.2621
100.0,547881.0,-11.34467,68.2653
215.4,579747.9,-12.77149,68.2555
464.2,462033.7,-21.51209,68.2538
1000.0,416570.4,-28.42736,68.2596
2154.4,325825.0,-40.39912,68.2504
4641.6,234398.1,-59.02573,68.2419
10000.0,122773.0,-71.68887,68.2518
