Frequency,Impedance,Phase Angle,Temperature (Dry Bath)
10.0,132017.2,-3.944886,67.4741
21.5,129074.5,-3.481493,67.4887
46.4,125776.9,-3.488704,67.4868
100.0,124111.3,-3.790531,67.4934
215.4,67358.47,17.37242,67.492
464.2,119229.5,-6.756845,67.4976
1000.0,112869.5,-9.448076,67.4759
2154.4,105940.0,-15.9873,67.4874
4641.6,93092.96,-26.70725,67.4821
10000.0,71535.76,-42.03358,67.4838
