Frequency,Impedance,Phase Angle,Temperature (Dry Bath)
10.0,24560790.0,-4.961355,67.4205
21.5,19819370.0,-25.00915,67.3989
46.4,19527140.0,-48.07372,67.401
100.0,6362775.0,-79.39505,67.4181
215.4,2074431.0,-71.47098,67.4194
464.2,2361117.0,-89.76312,67.4348
1000.0,1079985.0,-86.62498,67.3978
2154.4,593018.6,-84.83731,67.4297
4641.6,269280.8,-87.18043,67.4186
10000.0,120433.0,-87.01709,67.4104
