Frequency,Impedance,Phase Angle,Temperature (Dry Bath)
10.0,19553200.0,-31.56439,68.0139
21.5,19703130.0,-30.86072,68.0139
46.4,24715790.0,-60.00454,68.0139
100.0,7478452.0,-54.75215,68.0139
215.4,6174107.0,-78.54705,68.0139
464.2,2631416.0,-71.20376,68.0139
1000.0,1457093.0,-88.15681,68.0139
2154.4,646929.2,-85.99706,68.0139
4641.6,272651.1,-90.9372,68.0139
10000.0,164106.9,-97.32764,68.0139
