Frequency,Impedance,Phase Angle,Temperature (Dry Bath)
10.0,43854010.0,-14.72075,68.1326
21.5,32968520.0,-26.01449,68.148
46.4,14549950.0,-42.09628,68.166
100.0,5492907.0,-62.3356,68.1465
215.4,6932979.0,-58.6574,68.1561
464.2,3088565.0,-67.24052,68.1518
1000.0,1416020.0,-80.43268,68.1494
2154.4,672211.3,-85.63656,68.1415
4641.6,342836.2,-88.69698,68.1665
10000.0,148417.0,-96.39548,68.1478
