Frequency,Impedance,Phase Angle,Temperature (Dry Bath)
10.0,574334.3,-25.19645,71.4721
21.544346900318832,428457.3,-28.25021,71.4612
46.41588833612777,349892.6,-23.06189,71.4699
100.0,241293.6,-27.06937,71.4642
215.44346900318823,201942.5,-16.014,71.4639
464.15888336127773,217230.8,-12.03452,71.4691
1000.0,173232.6,-48.62211,71.485
2154.4346900318824,105196.4,-30.87329,71.4724
4641.588833612777,91138.99,-50.51221,71.4791
10000.0,43156.42,-68.95544,71.4734
