Frequency,Impedance,Phase Angle,Temperature (Dry Bath)
10.0,4933663.0,-0.4737072,65.8153
21.544346900318832,5969341.0,-16.1589,65.8295
46.41588833612777,4657721.0,-17.76233,65.824
100.0,965524.5,-173.1117,65.8201
215.44346900318823,962566.6,64.74264,65.8093
464.15888336127773,718045.0,-148.9592,65.8173
1000.0,1042385.0,-125.2518,65.8128
2154.4346900318824,227711.2,-78.85913,65.8147
4641.588833612777,187797.5,-99.33852,65.8105
10000.0,65881.42,-80.52108,65.8158
