Frequency,Impedance,Phase Angle,Temperature (Dry Bath)
10.0,32569240.0,-10.19009,68.2754
21.5,27728560.0,-32.41548,68.2754
46.4,15729580.0,-49.11067,68.2754
100.0,5178956.0,-17.80654,68.2754
215.4,4456871.0,-76.79888,68.2754
464.2,2873929.0,-75.85066,68.2754
1000.0,1351858.0,-85.24057,68.2754
2154.4,657162.4,-85.96071,68.2754
4641.6,316526.4,-89.87311,68.2754
10000.0,152015.5,-98.04412,68.2754
