Frequency,Impedance,Phase Angle,Temperature (Dry Bath)
10.0,24894600.0,-22.27376,67.3401
21.5,21130790.0,-41.91641,67.3241
46.4,19127700.0,-51.74164,67.3317
100.0,2992994.0,-5.421116,67.3276
215.4,1244729.0,-149.4631,67.323
464.2,2123763.0,-98.37827,67.3367
1000.0,1094982.0,-92.44875,67.3273
2154.4,586870.7,-90.15708,67.3287
4641.6,276762.1,-84.52557,67.3512
10000.0,123891.4,-85.4841,67.3514
