Frequency,Impedance,Phase Angle,Temperature (Dry Bath)
10.0,29005110.0,-24.04184,68.1735
21.5,18138650.0,-23.34403,68.1841
46.4,18205110.0,-53.06253,68.1864
100.0,5012848.0,-63.59888,68.1914
215.4,5326112.0,-68.52207,68.178
464.2,2693489.0,-67.74406,68.1853
1000.0,1141814.0,-87.14916,68.1848
2154.4,583578.8,-83.4935,68.1878
4641.6,285001.0,-89.86486,68.1958
10000.0,128012.5,-92.77455,68.1959
