Frequency,Impedance,Phase Angle,Temperature (Dry Bath)
10.0,50402640.0,-9.109515,67.8867
21.5,37200760.0,-31.68076,67.8882
46.4,33586980.0,-46.79321,67.8936
100.0,7001555.0,-46.06689,67.8787
215.4,5040841.0,-70.80436,67.8794
464.2,2166733.0,-100.7529,67.8934
1000.0,1188053.0,-77.89171,67.8935
2154.4,622083.6,-87.01482,67.8981
4641.6,305920.9,-88.05073,67.8907
10000.0,149318.3,-101.1403,67.887
