Frequency,Impedance,Phase Angle,Temperature (Dry Bath)
10.0,5970571.0,-2.344676,28.7656
21.544346900318832,4891938.0,8.072069,28.9603
46.41588833612777,4354009.0,-26.54095,28.8138
100.0,2481671.0,-63.95867,28.9647
215.44346900318823,1391681.0,-131.6623,28.9493
464.15888336127773,894766.5,-106.2827,28.9936
1000.0,524810.7,-158.9377,28.984
2154.4346900318824,762362.1,-84.9068,28.9549
4641.588833612777,358366.0,-70.79997,28.7988
10000.0,126350.5,-80.1547,28.8777
