Frequency,Impedance,Phase Angle,Temperature (Dry Bath)
10.0,55182.57,-33.45468,67.0752
21.5,42569.14,-29.23953,67.0693
46.4,34707.26,-25.36912,67.0771
100.0,29451.14,-21.54284,67.0734
215.4,25548.11,-18.07905,67.0674
464.2,22843.53,-15.03949,67.065
1000.0,20624.54,-13.07848,67.0728
2154.4,19017.66,-12.00179,67.0934
4641.6,17571.88,-12.09032,67.0769
10000.0,16307.74,-14.43988,67.0918
