Frequency,Impedance,Phase Angle,Temperature (Dry Bath)
10.0,1451849.0,-16.82289,67.2883
21.5,1313054.0,-15.23498,67.2681
46.4,1228474.0,-13.01203,67.3204
100.0,854197.3,-2.239271,67.2934
215.4,879580.0,-33.65032,67.3004
464.2,892487.2,-27.51923,67.2793
1000.0,624239.1,-40.38783,67.2892
2154.4,428552.1,-65.34445,67.2869
4641.6,235146.4,-72.26401,67.2873
10000.0,112105.1,-77.21359,67.3108
