Frequency,Impedance,Phase Angle,Temperature (Dry Bath)
10.0,114712.3,-3.655252,67.5716
21.5,112740.6,-3.328087,67.5657
46.4,111195.7,-3.417902,67.559
100.0,111125.4,-4.107092,67.5485
215.4,61388.29,-35.42975,67.566
464.2,108617.5,-5.235047,67.5465
1000.0,102727.2,-8.646946,67.5569
2154.4,99352.57,-14.3667,67.5747
4641.6,89229.33,-22.98138,67.5643
10000.0,72559.74,-38.92435,67.5704
