Frequency,Impedance,Phase Angle,Temperature (Dry Bath)
10.0,21190370.0,-11.97393,67.4296
21.5,23688630.0,-21.04001,67.4243
46.4,16783940.0,-54.14942,67.4238
100.0,7964823.0,-30.20653,67.4249
215.4,4914010.0,99.7965,67.419
464.2,2067720.0,-76.97758,67.4187
1000.0,1058626.0,-87.91224,67.4178
2154.4,549637.0,-82.30732,67.4326
4641.6,254506.0,-86.25904,67.4298
10000.0,124843.4,-85.71622,67.4483
