Frequency,Impedance,Phase Angle,Temperature (Dry Bath)
10.0,1553293.0,-17.93344,67.1737
21.5,1368683.0,-15.70561,67.1635
46.4,1240580.0,-14.86083,67.1648
100.0,1231887.0,-23.0859,67.1504
215.4,722948.7,-158.227,67.157
464.2,938664.2,-26.39829,67.1579
1000.0,725203.7,-44.32004,67.1744
2154.4,450722.7,-57.29023,67.1654
4641.6,231434.7,-74.52249,67.1632
10000.0,110348.2,-79.60697,67.1845
