Frequency,Impedance,Phase Angle,Temperature (Dry Bath)
10.0,151566.6,-4.760035,67.8888
21.5,146477.9,-4.010419,67.8637
46.4,143392.9,-3.791029,67.878
100.0,141449.5,-3.687019,67.8631
215.4,137553.8,-3.881865,67.8671
464.2,130942.9,-5.655577,67.8899
1000.0,128124.0,-9.646086,67.8874
2154.4,123468.8,-16.65567,67.8826
4641.6,104822.0,-30.49288,67.8912
10000.0,81850.84,-52.16861,67.8841
