Frequency,Impedance,Phase Angle,Temperature (Dry Bath)
10.0,22019340.0,-23.70037,67.1641
21.5,25077840.0,-37.39532,67.1744
46.4,13314330.0,-58.74144,67.1592
100.0,9125690.0,19.54473,67.1533
215.4,199709.1,-120.5866,67.1713
464.2,2695437.0,-71.59888,67.1519
1000.0,1029659.0,-87.52522,67.1511
2154.4,426384.2,-84.3842,67.1642
4641.6,200388.3,-82.80743,67.1525
10000.0,101532.7,-80.82172,67.1659
