Frequency,Impedance,Phase Angle,Temperature (Dry Bath)
10.0,554937.1,-13.77628,68.2085
21.5,499874.5,-12.17737,68.2085
46.4,465339.0,-10.15113,68.2085
100.0,385578.3,-11.32368,68.2085
215.4,383443.0,-11.49446,68.2085
464.2,339022.9,-14.67037,68.2085
1000.0,308333.8,-19.66962,68.2085
2154.4,274634.6,-32.60786,68.2085
4641.6,203640.9,-51.05777,68.2085
10000.0,118326.9,-73.35205,68.2085
