Frequency,Impedance,Phase Angle,Temperature (Dry Bath)
10.0,1330906.0,-14.23297,67.9022
21.5,1231571.0,-13.81006,67.8973
46.4,1160954.0,-13.79514,67.8869
100.0,976045.5,-17.42793,67.9008
215.4,932060.8,-21.73018,67.8965
464.2,847428.3,-18.8637,67.9085
1000.0,674242.5,-36.09659,67.8953
2154.4,457387.5,-56.23918,67.9199
4641.6,274847.4,-68.29939,67.8939
10000.0,135138.0,-87.84064,67.9016
