Frequency,Impedance,Phase Angle,Temperature (Dry Bath)
10.0,4942987.0,0.8757934,70.8537
21.544346900318832,4931106.0,-16.04504,70.8252
46.41588833612777,3240496.0,-24.84566,70.8385
100.0,335654.1,-74.49928,70.8476
215.44346900318823,678865.9,161.7155,70.8309
464.15888336127773,969785.5,-99.23118,70.8361
1000.0,2863470.0,166.4265,70.8253
2154.4346900318824,225196.4,-116.061,70.8456
4641.588833612777,135518.6,-112.9493,70.8395
10000.0,59895.25,-86.15885,70.8378
