Frequency,Impedance,Phase Angle,Temperature (Dry Bath)
10.0,4463993.0,-11.59517,68.032
21.5,5204479.0,-17.88648,68.0162
46.4,6572010.0,-18.30463,68.0246
100.0,3592731.0,-20.92411,68.0125
215.4,3517112.0,-42.43994,68.0337
464.2,1976843.0,-50.91143,68.0368
1000.0,1115749.0,-70.65026,68.0282
2154.4,617503.1,-81.32377,68.0245
4641.6,290336.5,-86.52838,68.0317
10000.0,140154.3,-91.66436,68.0215
