Frequency,Impedance,Phase Angle,Temperature (Dry Bath)
10.0,4312076.0,5.21259,66.2642
21.544346900318832,4046345.0,2.504454,66.2711
46.41588833612777,5712043.0,-23.0988,66.2534
100.0,1137537.0,-150.761,66.2887
215.44346900318823,1051033.0,-150.6804,66.2713
464.15888336127773,1071990.0,-139.7778,66.3066
1000.0,342865.6,-113.1953,66.291
2154.4346900318824,355711.2,-122.5737,66.2985
4641.588833612777,163834.6,-83.32339,66.3135
10000.0,69515.77,-79.06229,66.2959
