Frequency,Impedance,Phase Angle,Temperature (Dry Bath)
10.0,1917733.0,-10.06153,68.1305
21.5,1832550.0,-12.25152,68.1453
46.4,1721062.0,-13.99389,68.1276
100.0,1284634.0,-14.39394,68.1238
215.4,1332761.0,-22.22584,68.1157
464.2,1290749.0,-25.70527,68.1316
1000.0,831302.4,-42.54183,68.1375
2154.4,514560.8,-63.57431,68.1412
4641.6,281024.1,-71.41311,68.1411
10000.0,150185.4,-86.93603,68.1413
