Frequency,Impedance,Phase Angle,Temperature (Dry Bath)
10.0,168450.7,-13.79141,71.1757
21.544346900318832,152424.7,-12.74438,71.1628
46.41588833612777,140049.9,-12.18991,71.1528
100.0,115030.1,-8.545785,71.1707
215.44346900318823,120406.8,-16.66063,71.1595
464.15888336127773,103604.9,-13.77204,71.1615
1000.0,93435.51,-12.85011,71.1633
2154.4346900318824,84135.23,-22.45303,71.1678
4641.588833612777,69680.31,-38.58003,71.1753
10000.0,45509.65,-52.79108,71.1598
