Frequency,Impedance,Phase Angle,Temperature (Dry Bath)
10.0,1539431.0,-29.85701,70.9532
21.544346900318832,1281664.0,-21.6138,70.9741
46.41588833612777,1108981.0,-19.09272,70.9575
100.0,491880.7,-61.35263,70.9501
215.44346900318823,467288.5,-57.68674,70.9833
464.15888336127773,398544.2,-31.24183,70.988
1000.0,299373.2,-42.06299,70.9679
2154.4346900318824,209391.2,-68.21392,70.9776
4641.588833612777,123357.6,-77.51904,70.9902
10000.0,58251.91,-79.02801,70.9642
