Frequency,Impedance,Phase Angle,Temperature (Dry Bath)
10.0,235234.8,-22.80384,67.4513
21.5,198729.6,-20.58543,67.4487
46.4,171577.5,-18.21069,67.4509
100.0,147273.3,-13.97806,67.436
215.4,129583.4,-13.26017,67.458
464.2,127233.2,-14.37506,67.4276
1000.0,112414.3,-16.48302,67.4491
2154.4,98284.7,-22.59464,67.4367
4641.6,81831.41,-31.00406,67.4455
10000.0,62703.86,-41.43247,67.4322
