Frequency,Impedance,Phase Angle,Temperature (Dry Bath)
10.0,217070.3,-23.24321,67.3388
21.5,182195.6,-20.32203,67.3406
46.4,158049.6,-17.6497,67.3459
100.0,139877.4,-15.0588,67.3397
215.4,275013.8,14.41257,67.32
464.2,115077.0,-13.40526,67.3246
1000.0,104360.0,-16.08885,67.3446
2154.4,94630.62,-20.08404,67.3377
4641.6,80036.24,-28.99189,67.3461
10000.0,61706.92,-40.76372,67.3431
