Frequency,Impedance,Phase Angle,Temperature (Dry Bath)
10.0,28089430.0,-16.39623,67.2858
21.5,22827690.0,-34.60051,67.282
46.4,17309350.0,-58.16202,67.309
100.0,7440060.0,-17.00274,67.2992
215.4,186564.2,-8.697813,67.302
464.2,7539280.0,-80.17975,67.3114
1000.0,990516.2,-83.70266,67.3005
2154.4,522292.5,-82.28703,67.3119
4641.6,256075.3,-85.2477,67.3027
10000.0,123175.9,-84.97634,67.3072
