Frequency,Impedance,Phase Angle,Temperature (Dry Bath)
10.0,4787435.0,-4.087552,65.8151
21.544346900318832,4907905.0,-12.06361,65.8316
46.41588833612777,3727512.0,-17.77906,65.8163
100.0,610745.3,-3.308647,65.8176
215.44346900318823,507007.4,-86.28095,65.8125
464.15888336127773,848575.6,-93.71536,65.8197
1000.0,476864.7,-119.1643,65.8188
2154.4346900318824,222486.3,-85.73166,65.8117
4641.588833612777,178675.2,-76.62551,65.8153
10000.0,76247.66,-89.67234,65.8202
