Frequency,Impedance,Phase Angle,Temperature (Dry Bath)
10.0,6736433.0,-33.85203,70.9484
21.544346900318832,4588959.0,-46.82318,70.9441
46.41588833612777,4477989.0,-19.22955,70.9402
100.0,401626.8,174.5884,70.9358
215.44346900318823,7290445.0,-11.95946,70.937
464.15888336127773,1920990.0,-67.73152,70.9538
1000.0,1425196.0,-21.67473,70.9531
2154.4346900318824,264178.7,-98.42169,70.9518
4641.588833612777,162149.3,-86.10473,70.9483
10000.0,66471.2,-90.99322,70.9493
