Frequency,Impedance,Phase Angle,Temperature (Dry Bath)
10.0,6024105.0,-9.58116,71.5542
21.544346900318832,5323226.0,-23.49314,71.5559
46.41588833612777,5721831.0,3.828133,71.5593
100.0,1316262.0,20.09047,71.5569
215.44346900318823,701111.7,-57.17666,71.5616
464.15888336127773,1275407.0,179.1147,71.5351
1000.0,739822.8,-1.20252,71.5466
2154.4346900318824,862164.3,-48.40778,71.5633
4641.588833612777,330492.0,-102.0339,71.5585
10000.0,150104.9,-82.43254,71.5584
