Frequency,Impedance,Phase Angle,Temperature (Dry Bath)
10.0,18597530.0,-12.97989,67.9962
21.5,13761980.0,-31.83302,67.9962
46.4,15681920.0,-55.83571,67.9962
100.0,5226007.0,-45.74989,67.9962
215.4,4988479.0,-70.66039,67.9962
464.2,2263726.0,-88.02407,67.9962
1000.0,1224932.0,-86.38172,67.9962
2154.4,582867.3,-80.61696,67.9962
4641.6,288642.4,-92.63076,67.9962
10000.0,131149.2,-98.59168,67.9962
