Frequency,Impedance,Phase Angle,Temperature (Dry Bath)
10.0,19233510.0,-18.11183,68.1636
21.5,19334690.0,-24.10653,68.1564
46.4,19870350.0,-52.07395,68.1669
100.0,9472778.0,-16.52464,68.1761
215.4,3567374.0,-76.49923,68.1763
464.2,2565827.0,-83.31413,68.1806
1000.0,1423603.0,-89.33015,68.1706
2154.4,654025.3,-85.74638,68.1794
4641.6,300993.0,-94.15096,68.1792
10000.0,146283.1,-98.08925,68.1844
