Frequency,Impedance,Phase Angle,Temperature (Dry Bath)
10.0,7607046.0,-2.096693,70.8838
21.544346900318832,4825728.0,7.654984,70.8686
46.41588833612777,4336156.0,-20.1688,70.8594
100.0,738772.0,-37.21313,70.8724
215.44346900318823,1258922.0,76.48613,70.8545
464.15888336127773,1028678.0,-3.255139,70.8519
1000.0,515960.2,-91.32846,70.8777
2154.4346900318824,320958.9,-55.28677,70.8772
4641.588833612777,171942.5,-89.11707,70.8596
10000.0,65017.81,-81.09035,70.8607
