Frequency,Impedance,Phase Angle,Temperature (Dry Bath)
10.0,4889647.0,16.04608,71.3555
21.544346900318832,4969406.0,-8.257737,71.3701
46.41588833612777,6726155.0,-38.43761,71.3601
100.0,623371.4,-110.7535,71.3512
215.44346900318823,2275028.0,10.4147,71.3417
464.15888336127773,1113520.0,35.84946,71.3619
1000.0,666120.6,-80.9612,71.3564
2154.4346900318824,367697.6,-53.54767,71.3571
4641.588833612777,197118.6,-86.9579,71.3609
10000.0,110506.6,-78.79529,71.3597
