Frequency,Impedance,Phase Angle,Temperature (Dry Bath)
10.0,1463828.0,-17.47762,67.4926
21.5,1332422.0,-16.07587,67.4801
46.4,1181842.0,-13.28777,67.4887
100.0,969382.8,-20.9554,67.4801
215.4,110473.1,-74.4801,67.4958
464.2,864931.8,-23.49567,67.4874
1000.0,669942.3,-44.48535,67.4831
2154.4,428699.7,-60.60101,67.4925
4641.6,224051.4,-72.32247,67.4954
10000.0,110432.6,-79.59147,67.4896
