Frequency,Impedance,Phase Angle,Temperature (Dry Bath)
10.0,12878.0,-17.16517,71.334
21.544346900318832,11352.95,-15.68026,71.3351
46.41588833612777,10102.54,-15.0846,71.3423
100.0,8963.936,-14.18191,71.3479
215.44346900318823,8053.613,-14.16007,71.3452
464.15888336127773,7258.485,-13.377,71.3304
1000.0,6451.533,-11.78822,71.3505
2154.4346900318824,5931.414,-10.83278,71.3361
4641.588833612777,5476.387,-10.65892,71.3477
10000.0,5114.786,-11.11937,71.3493
