Frequency,Impedance,Phase Angle,Temperature (Dry Bath)
10.0,8022742.0,-12.49721,65.7907
21.544346900318832,5299780.0,-28.8992,65.7965
46.41588833612777,4939844.0,-31.97753,65.7623
100.0,1215463.0,6.320275,65.7622
215.44346900318823,348387.6,7.918011,65.7906
464.15888336127773,1623666.0,-117.2418,65.7782
1000.0,447762.1,-117.9723,65.7638
2154.4346900318824,226798.8,-61.37538,65.7656
4641.588833612777,150431.3,-94.1416,65.7982
10000.0,69223.48,-80.96954,65.7887
