Frequency,Impedance,Phase Angle,Temperature (Dry Bath)
10.0,6970444.0,-8.97303,66.2879
21.544346900318832,5701133.0,-28.54736,66.2845
46.41588833612777,4122195.0,-0.7792131,66.2967
100.0,571715.9,125.1527,66.2765
215.44346900318823,243169.1,-12.6484,66.2972
464.15888336127773,1409296.0,-135.522,66.3035
1000.0,476683.6,-64.49761,66.2745
2154.4346900318824,292240.9,-85.09045,66.2791
4641.588833612777,122252.2,-102.1973,66.2971
10000.0,68729.34,-77.96791,66.2788
