Frequency,Impedance,Phase Angle,Temperature (Dry Bath)
10.0,215435.9,-23.39163,67.3365
21.5,181626.1,-20.57547,67.3385
46.4,156311.3,-17.54288,67.3509
100.0,134669.2,-14.92041,67.3543
215.4,90950.88,-39.76387,67.3615
464.2,113684.6,-14.29076,67.3324
1000.0,103683.2,-14.97055,67.3511
2154.4,93650.61,-21.05559,67.3236
4641.6,79845.2,-28.04073,67.3251
10000.0,61857.09,-39.51337,67.3367
