Frequency,Impedance,Phase Angle,Temperature (Dry Bath)
10.0,30700090.0,-26.3294,67.3976
21.5,22439330.0,-30.49567,67.3728
46.4,18132540.0,-53.9848,67.3828
100.0,7049046.0,-43.66292,67.3937
215.4,5880431.0,-63.58928,67.3858
464.2,3156354.0,-100.6377,67.3862
1000.0,1115231.0,-83.54861,67.3937
2154.4,592571.5,-89.96839,67.4049
4641.6,250260.7,-83.0063,67.3893
10000.0,121767.3,-85.9166,67.3787
