Frequency,Impedance,Phase Angle,Temperature (Dry Bath)
10.0,19770430.0,-12.11291,68.0658
21.5,20899480.0,-24.72333,68.0658
46.4,15369970.0,-50.42886,68.0658
100.0,3088807.0,-34.58113,68.0658
215.4,5318710.0,-82.3052,68.0658
464.2,2387829.0,-85.66523,68.0658
1000.0,1379514.0,-89.74649,68.0658
2154.4,651703.9,-82.52699,68.0658
4641.6,295111.3,-85.07924,68.0658
10000.0,144272.3,-98.48638,68.0658
