Frequency,Impedance,Phase Angle,Temperature (Dry Bath)
10.0,36652250.0,-17.70965,67.1314
21.5,24034220.0,-30.62946,67.1272
46.4,16163570.0,-47.79877,67.1217
100.0,3963816.0,-21.66726,67.1473
215.4,21389430.0,-97.85128,67.1129
464.2,2336949.0,-85.6966,67.1354
1000.0,1132215.0,-92.46823,67.1344
2154.4,594540.7,-91.34327,67.1201
4641.6,257328.7,-85.81324,67.1233
10000.0,123786.9,-86.81632,67.1346
