Frequency,Impedance,Phase Angle,Temperature (Dry Bath)
10.0,6863728.0,14.5385,66.3309
21.544346900318832,8888879.0,-18.84779,66.3356
46.41588833612777,5698349.0,-5.656053,66.3236
100.0,3919170.0,49.09471,66.3143
215.44346900318823,2751183.0,39.57168,66.3208
464.15888336127773,3235684.0,-169.692,66.3282
1000.0,4696155.0,-107.9125,66.3206
2154.4346900318824,2145639.0,-70.6177,66.3327
4641.588833612777,966662.8,-5.839656,66.3422
10000.0,1106988.0,-96.79216,66.3118
