Frequency,Impedance,Phase Angle,Temperature (Dry Bath)
10.0,30409210.0,-37.17794,67.434
21.5,24903220.0,-28.65646,67.4406
46.4,12807730.0,-77.167,67.439
100.0,5193195.0,75.76614,67.4346
215.4,1757104.0,-83.88251,67.446
464.2,3043570.0,-86.07873,67.436
1000.0,1132045.0,-84.19064,67.4239
2154.4,568594.0,-92.78266,67.4403
4641.6,274085.0,-87.06053,67.4435
10000.0,121858.7,-85.832,67.4354
