Frequency,Impedance,Phase Angle,Temperature (Dry Bath)
10.0,31516000.0,-24.28769,68.1808
21.5,33588940.0,-47.81623,68.1647
46.4,25098870.0,-48.36392,68.1832
100.0,5313153.0,-37.70315,68.183
215.4,5597344.0,-31.24049,68.1819
464.2,3087834.0,-59.28221,68.169
1000.0,1369314.0,-85.75269,68.1749
2154.4,668575.6,-86.02489,68.1839
4641.6,288138.1,-89.50725,68.1801
10000.0,141664.6,-96.73969,68.1684
