Frequency,Impedance,Phase Angle,Temperature (Dry Bath)
10.0,30399710.0,-34.7316,67.1104
21.5,31078040.0,-25.61803,67.1088
46.4,18280120.0,-49.41764,67.0952
100.0,4464987.0,-67.34196,67.0907
215.4,3454072.0,-69.34047,67.0961
464.2,2789212.0,-107.6408,67.1009
1000.0,1221174.0,-78.38802,67.0931
2154.4,558061.1,-85.15297,67.0961
4641.6,288930.4,-89.16044,67.1044
10000.0,125388.7,-86.97513,67.1132
