Frequency,Impedance,Phase Angle,Temperature (Dry Bath)
10.0,31637090.0,1.098046,67.3818
21.5,22968390.0,-21.75355,67.3848
46.4,18991340.0,-49.27653,67.3823
100.0,5495025.0,-107.5458,67.3778
215.4,152565.4,-79.25123,67.3951
464.2,3665118.0,-3.888206,67.3662
1000.0,1271562.0,-80.02896,67.3754
2154.4,543806.7,-84.64147,67.3741
4641.6,266414.0,-85.53479,67.3875
10000.0,127985.5,-85.10035,67.376
