Frequency,Impedance,Phase Angle,Temperature (Dry Bath)
10.0,2354954.0,-12.0316,68.0848
21.5,2240606.0,-11.70815,68.0848
46.4,2124054.0,-12.60626,68.0848
100.0,1693474.0,-19.36386,68.0848
215.4,1448146.0,-32.31116,68.0848
464.2,1351622.0,-32.60109,68.0848
1000.0,993017.6,-51.16173,68.0848
2154.4,558618.1,-64.57599,68.0848
4641.6,298363.2,-76.60741,68.0848
10000.0,149877.0,-93.87608,68.0848
