Frequency,Impedance,Phase Angle,Temperature (Dry Bath)
10.0,1786490.0,-13.12909,65.8764
21.544346900318832,1517991.0,-28.3082,65.8811
46.41588833612777,1309440.0,-22.81493,65.868
100.0,324552.5,-27.86512,65.8746
215.44346900318823,9536.863,-4.608588,65.8829
464.15888336127773,840103.3,-37.43788,65.8789
1000.0,478671.9,-37.80066,65.87
2154.4346900318824,235855.9,-76.77902,65.8679
4641.588833612777,214678.8,-84.67275,65.8563
10000.0,74975.16,-81.64389,65.8634
