Frequency,Impedance,Phase Angle,Temperature (Dry Bath)
10.0,117356.5,-3.20246,67.2155
21.5,115194.7,-2.635141,67.2067
46.4,113358.9,-2.454862,67.2149
100.0,112689.5,-4.26779,67.2043
215.4,110546.4,-2.419765,67.2024
464.2,107712.1,-5.757537,67.1839
1000.0,103148.7,-7.831084,67.1823
2154.4,99500.23,-14.3476,67.1847
4641.6,89084.79,-26.55694,67.1969
10000.0,70144.39,-41.81028,67.2005
