Frequency,Impedance,Phase Angle,Temperature (Dry Bath)
10.0,4677515.0,18.94352,65.7339
21.544346900318832,3367763.0,-6.824977,65.7433
46.41588833612777,7934803.0,-37.27323,65.7344
100.0,665699.1,3.41127,65.7363
215.44346900318823,60128.42,-30.88672,65.7418
464.15888336127773,528853.1,-36.31909,65.7356
1000.0,301883.7,-99.43487,65.7121
2154.4346900318824,244329.6,-89.98151,65.7119
4641.588833612777,183148.7,-92.69702,65.7142
10000.0,76575.55,-87.96007,65.7127
