Frequency,Impedance,Phase Angle,Temperature (Dry Bath)
10.0,1803856.0,-33.09114,70.5619
21.544346900318832,1485946.0,-31.6358,70.5565
46.41588833612777,1036536.0,-35.72481,70.5717
100.0,318072.4,-76.81278,70.5606
215.44346900318823,358610.3,-5.581253,70.5656
464.15888336127773,310594.8,-64.04415,70.5738
1000.0,196207.4,-40.54278,70.5565
2154.4346900318824,133773.5,-52.09164,70.5877
4641.588833612777,84633.94,-57.50965,70.5723
10000.0,47677.16,-72.59854,70.5698
