Frequency,Impedance,Phase Angle,Temperature (Dry Bath)
10.0,4831146.0,-15.21217,71.2906
21.544346900318832,4970645.0,-10.14773,71.2747
46.41588833612777,4769531.0,-22.24163,71.3005
100.0,481476.0,-171.2424,71.2966
215.44346900318823,235993.8,54.42066,71.2714
464.15888336127773,1146654.0,-91.39557,71.2825
1000.0,1030359.0,-39.38054,71.2895
2154.4346900318824,265291.7,-71.53528,71.2923
4641.588833612777,133868.2,-96.10792,71.2915
10000.0,66670.64,-82.44049,71.2872
