Frequency,Impedance,Phase Angle,Temperature (Dry Bath)
10.0,2333638.0,12.21957,67.0664
21.5,2699636.0,10.18648,67.0707
46.4,3530561.0,-9.133218,67.0826
100.0,1839438.0,-7.321502,67.0581
215.4,1728794.0,-51.04344,67.0704
464.2,1736076.0,-41.45525,67.0727
1000.0,886133.9,-55.97223,67.05
2154.4,494891.4,-81.68781,67.0506
4641.6,252983.4,-85.57815,67.0576
10000.0,125975.8,-82.14515,67.0524
