Frequency,Impedance,Phase Angle,Temperature (Dry Bath)
10.0,3407569.0,-9.692694,68.0904
21.5,3806258.0,-14.37052,68.0823
46.4,4880002.0,-16.757,68.0811
100.0,3080983.0,-25.37539,68.0937
215.4,2051729.0,-29.60357,68.0778
464.2,1806966.0,-46.96189,68.0759
1000.0,1185309.0,-65.32511,68.0896
2154.4,634276.7,-79.30623,68.0844
4641.6,297521.8,-89.37455,68.0804
10000.0,132810.2,-90.5145,68.0924
