Frequency,Impedance,Phase Angle,Temperature (Dry Bath)
10.0,6036753.0,-21.3324,71.3971
21.544346900318832,6568210.0,-23.48068,71.3905
46.41588833612777,6017666.0,-11.11952,71.4068
100.0,2096421.0,-156.7324,71.3867
215.44346900318823,1259312.0,81.50785,71.3902
464.15888336127773,1319578.0,-11.71836,71.3933
1000.0,935435.5,-45.10206,71.3788
2154.4346900318824,688535.1,-86.2844,71.3916
4641.588833612777,266676.4,-78.38186,71.401
10000.0,129001.6,-81.20766,71.3907
