Frequency,Impedance,Phase Angle,Temperature (Dry Bath)
10.0,5740509.0,-4.329201,71.3963
21.544346900318832,5424015.0,-0.4637741,71.3981
46.41588833612777,4747590.0,-11.89571,71.4007
100.0,356734.2,134.1813,71.385
215.44346900318823,737941.9,-9.408675,71.3882
464.15888336127773,1852149.0,159.8783,71.4109
1000.0,566462.2,-63.86471,71.3998
2154.4346900318824,304961.3,-96.19283,71.3936
4641.588833612777,231874.1,-89.74301,71.3926
10000.0,108228.9,-76.88374,71.4037
