Frequency,Impedance,Phase Angle,Temperature (Dry Bath)
10.0,24323390.0,-6.12037,68.0918
21.5,21245730.0,-21.00437,68.1043
46.4,19057280.0,-54.5932,68.105
100.0,10304720.0,-29.83899,68.1129
215.4,6147106.0,-87.04592,68.12
464.2,2761808.0,-84.18477,68.1151
1000.0,1560361.0,-93.51761,68.1097
2154.4,656158.4,-89.2654,68.1112
4641.6,338000.2,-95.12668,68.1248
10000.0,157863.8,-97.53428,68.1135
