Frequency,Impedance,Phase Angle,Temperature (Dry Bath)
10.0,145843.4,-5.092495,68.0496
21.5,141469.8,-4.220251,68.033
46.4,137835.4,-3.851803,68.0546
100.0,132862.0,-3.495765,68.0502
215.4,130077.8,-4.45533,68.0614
464.2,131662.0,-6.621196,68.0432
1000.0,123133.5,-10.67148,68.0487
2154.4,119820.4,-13.63719,68.0409
4641.6,104181.8,-27.09366,68.0449
10000.0,83495.96,-51.6444,68.0445
