Frequency,Impedance,Phase Angle,Temperature (Dry Bath)
10.0,24908760.0,-17.29082,67.8795
21.5,30921720.0,-29.10543,67.8694
46.4,29310250.0,-50.79679,67.8978
100.0,3596032.0,13.72674,67.8944
215.4,6869581.0,-67.18918,67.8967
464.2,2991016.0,-84.08596,67.8992
1000.0,1186088.0,-86.77893,67.8901
2154.4,558005.7,-89.39143,67.8876
4641.6,284208.1,-91.86325,67.8796
10000.0,131166.6,-97.27613,67.9054
