Frequency,Impedance,Phase Angle,Temperature (Dry Bath)
10.0,233471.8,-22.78669,67.3174
21.5,196132.5,-20.38107,67.3303
46.4,169630.6,-17.98939,67.3181
100.0,149433.7,-17.3625,67.3239
215.4,141484.1,-10.98061,67.3133
464.2,124900.2,-14.04099,67.3122
1000.0,112513.7,-17.97576,67.3237
2154.4,98781.68,-21.82279,67.327
4641.6,80667.12,-29.2942,67.3273
10000.0,62038.08,-41.19473,67.3156
