Frequency,Impedance,Phase Angle,Temperature (Dry Bath)
10.0,28683260.0,-26.23773,67.1434
21.5,21375810.0,-38.70599,67.1379
46.4,21035550.0,-55.94223,67.1567
100.0,8919576.0,-110.2844,67.1518
215.4,114485.8,-128.1532,67.1466
464.2,1596263.0,-94.80353,67.168
1000.0,839976.1,-82.40325,67.1666
2154.4,397498.6,-86.09997,67.1444
4641.6,203205.7,-81.68574,67.1661
10000.0,101384.1,-80.5071,67.1545
