Frequency,Impedance,Phase Angle,Temperature (Dry Bath)
10.0,114347.7,-3.121027,67.4241
21.5,111977.5,-2.617774,67.454
46.4,110250.6,-2.484131,67.452
100.0,107930.5,-2.851445,67.4572
215.4,202731.1,-11.29014,67.4507
464.2,107720.0,-4.663689,67.441
1000.0,101666.0,-8.774246,67.4393
2154.4,97079.72,-14.59877,67.4465
4641.6,88470.72,-24.32623,67.4601
10000.0,69437.44,-41.18489,67.4559
