Frequency,Impedance,Phase Angle,Temperature (Dry Bath)
10.0,1382580.0,-16.45526,68.0629
21.5,1249364.0,-14.78331,68.0492
46.4,1101557.0,-13.22978,68.0432
100.0,1068244.0,-21.24335,68.0495
215.4,971166.3,-22.04922,68.053
464.2,931383.0,-23.82838,68.0527
1000.0,733773.1,-30.85428,68.0797
2154.4,456618.0,-46.98716,68.0494
4641.6,256534.9,-78.21235,68.0583
10000.0,135063.7,-91.32796,68.0664
