Frequency,Impedance,Phase Angle,Temperature (Dry Bath)
10.0,533778.6,-26.57572,66.4137
21.544346900318832,418403.7,-24.92745,66.4182
46.41588833612777,331947.5,-25.50336,66.4112
100.0,297272.7,-3.02457,66.4139
215.44346900318823,406045.3,-20.74808,66.4158
464.15888336127773,153230.7,-33.55999,66.4219
1000.0,167946.8,-19.96095,66.3965
2154.4346900318824,116161.3,-46.41341,66.4033
4641.588833612777,89618.41,-54.63929,66.4002
10000.0,45696.48,-60.41095,66.4183
