Frequency,Impedance,Phase Angle,Temperature (Dry Bath)
10.0,1571439.0,-18.82042,67.1339
21.5,1365010.0,-16.39722,67.1249
46.4,1252037.0,-15.64722,67.1189
100.0,1329799.0,-8.450812,67.1305
215.4,1038148.0,11.00039,67.1225
464.2,981908.8,-25.04874,67.124
1000.0,622872.4,-42.76994,67.1219
2154.4,423434.5,-63.52513,67.1202
4641.6,222015.6,-75.41817,67.1103
10000.0,110559.9,-79.174,67.1237
