Frequency,Impedance,Phase Angle,Temperature (Dry Bath)
10.0,1459067.0,-17.08494,67.4547
21.5,1301425.0,-16.00399,67.4656
46.4,1205535.0,-12.3413,67.4557
100.0,1093822.0,-16.46966,67.4667
215.4,163550.6,-84.94495,67.4756
464.2,824838.2,-26.93828,67.4527
1000.0,670732.8,-42.54762,67.4253
2154.4,438048.7,-61.0587,67.4525
4641.6,238409.8,-73.46473,67.4638
10000.0,111237.2,-78.34715,67.4605
