Frequency,Impedance,Phase Angle,Temperature (Dry Bath)
10.0,1994492.0,-10.48922,71.5864
21.544346900318832,1778049.0,4.260136,71.6124
46.41588833612777,2114586.0,-8.229798,71.5906
100.0,634018.5,-13.89511,71.5866
215.44346900318823,533168.0,-7.521257,71.6095
464.15888336127773,1076119.0,-55.35476,71.5958
1000.0,833103.1,-25.67111,71.5855
2154.4346900318824,497610.4,-23.91194,71.5836
4641.588833612777,157921.9,-90.88879,71.5875
10000.0,126335.7,-74.68863,71.5964
