Frequency,Impedance,Phase Angle,Temperature (Dry Bath)
10.0,1511053.0,-17.2038,67.1607
21.5,1347706.0,-16.04777,67.1499
46.4,1229019.0,-15.05755,67.1638
100.0,1022732.0,-13.4221,67.1637
215.4,1163969.0,-3.65137,67.1859
464.2,1011282.0,-31.0502,67.1576
1000.0,697434.7,-47.80003,67.1888
2154.4,431702.9,-57.3801,67.1772
4641.6,223889.0,-75.02368,67.1795
10000.0,113648.4,-78.14323,67.1896
