Frequency,Impedance,Phase Angle,Temperature (Dry Bath)
10.0,230332.9,-23.19682,67.1658
21.5,194350.2,-20.31795,67.1667
46.4,168380.0,-17.77279,67.161
100.0,149351.9,-14.33681,67.1737
215.4,90584.72,-13.9857,67.1521
464.2,124669.2,-14.12735,67.1645
1000.0,112272.6,-17.24478,67.1694
2154.4,100653.0,-22.75874,67.1657
4641.6,82588.43,-30.3526,67.1602
10000.0,61629.45,-42.27348,67.1792
