Frequency,Impedance,Phase Angle,Temperature (Dry Bath)
10.0,492957.9,-26.38126,66.3803
21.544346900318832,410820.9,-23.58866,66.3667
46.41588833612777,331532.2,-23.84267,66.3584
100.0,273630.5,-27.25027,66.3705
215.44346900318823,237181.1,-27.22624,66.3735
464.15888336127773,133267.4,-59.23849,66.3888
1000.0,154570.6,-27.19721,66.3802
2154.4346900318824,127813.7,-47.84048,66.3437
4641.588833612777,83160.08,-49.72375,66.3662
10000.0,50785.03,-61.02811,66.3775
