Frequency,Impedance,Phase Angle,Temperature (Dry Bath)
10.0,4287231.0,-10.96987,71.6052
21.544346900318832,6138164.0,4.919417,71.6065
46.41588833612777,5010098.0,-7.566887,71.5939
100.0,783685.3,-27.21975,71.602
215.44346900318823,1699014.0,91.62719,71.592
464.15888336127773,2659360.0,-101.4556,71.6007
1000.0,1381636.0,-54.30066,71.6084
2154.4346900318824,975200.2,-79.38141,71.6021
4641.588833612777,189342.6,-84.57331,71.6108
10000.0,151601.8,-76.94694,71.6002
