Frequency,Impedance,Phase Angle,Temperature (Dry Bath)
10.0,22019590.0,-25.16511,68.3172
21.5,23139430.0,-31.9877,68.3172
46.4,11129160.0,-43.93472,68.3172
100.0,8180017.0,-45.25697,68.3172
215.4,9325931.0,-58.30451,68.3172
464.2,3225254.0,-72.59433,68.3172
1000.0,1266571.0,-92.11452,68.3172
2154.4,589198.5,-88.81776,68.3172
4641.6,301000.3,-90.05013,68.3172
10000.0,140270.0,-93.49352,68.3172
