Frequency,Impedance,Phase Angle,Temperature (Dry Bath)
10.0,235282.5,-22.46397,67.0542
21.5,198925.0,-19.89161,67.059
46.4,172078.6,-17.64358,67.0706
100.0,148630.3,-15.03556,67.0656
215.4,137885.9,-13.64075,67.0768
464.2,125687.5,-13.90477,67.0668
1000.0,113381.9,-19.48796,67.0779
2154.4,99909.57,-22.89323,67.0708
4641.6,83620.52,-31.30128,67.0735
10000.0,62835.07,-42.09605,67.0567
