Frequency,Impedance,Phase Angle,Temperature (Dry Bath)
10.0,1441199.0,-17.68878,67.4921
21.5,1308782.0,-15.27932,67.4954
46.4,1171835.0,-13.93467,67.4967
100.0,1006961.0,-5.247292,67.4781
215.4,253510.6,12.724,67.5083
464.2,842600.3,-20.29388,67.4894
1000.0,673549.9,-43.11588,67.5025
2154.4,433529.3,-63.52714,67.4854
4641.6,220164.2,-71.42577,67.4872
10000.0,114772.8,-78.8948,67.5004
