Frequency,Impedance,Phase Angle,Temperature (Dry Bath)
10.0,17746230.0,-13.6523,68.0848
21.5,18253960.0,-37.46955,68.0848
46.4,21370500.0,-42.69241,68.0848
100.0,4409573.0,-52.4515,68.0848
215.4,5566042.0,-56.97837,68.0848
464.2,2375486.0,-71.62101,68.0848
1000.0,1371228.0,-89.15708,68.0848
2154.4,615053.4,-88.4937,68.0848
4641.6,313517.3,-90.07338,68.0848
10000.0,149665.2,-96.43201,68.0848
