Frequency,Impedance,Phase Angle,Temperature (Dry Bath)
10.0,441484.6,-27.81307,65.7679
21.544346900318832,354180.5,-24.05757,65.781
46.41588833612777,279044.8,-22.71348,65.7725
100.0,574891.5,-40.71057,65.7755
215.44346900318823,5126.806,95.64559,65.7733
464.15888336127773,185775.9,-25.74483,65.7682
1000.0,191359.6,-26.24536,65.78
2154.4346900318824,125465.9,-29.81006,65.7602
4641.588833612777,91554.59,-43.15825,65.7939
10000.0,45802.59,-58.04735,65.7699
