Frequency,Impedance,Phase Angle,Temperature (Dry Bath)
10.0,4262135.0,5.373038,70.6367
21.544346900318832,4404535.0,-22.79293,70.6409
46.41588833612777,4271731.0,-26.71632,70.6548
100.0,564103.6,23.04194,70.6479
215.44346900318823,394765.9,-25.68249,70.6575
464.15888336127773,845617.3,-164.8487,70.6467
1000.0,300068.3,-87.05644,70.6571
2154.4346900318824,277352.0,-73.89986,70.6401
4641.588833612777,135142.5,-99.64705,70.6414
10000.0,56926.32,-85.86187,70.637
