Frequency,Impedance,Phase Angle,Temperature (Dry Bath)
10.0,227146.3,-23.10704,67.092
21.5,191665.9,-20.32944,67.1117
46.4,166000.4,-17.67131,67.1038
100.0,143343.0,-14.20506,67.1083
215.4,217081.0,38.79161,67.1032
464.2,125159.6,-13.81891,67.1024
1000.0,112802.3,-17.28232,67.1056
2154.4,97748.36,-22.00776,67.1015
4641.6,80615.59,-31.74568,67.098
10000.0,61734.89,-41.86933,67.1167
