Frequency,Impedance,Phase Angle,Temperature (Dry Bath)
10.0,26068040.0,-13.39194,67.9891
21.5,35012560.0,-36.39237,67.9909
46.4,30442380.0,-45.84868,67.9592
100.0,5957346.0,-40.42095,67.9702
215.4,4735566.0,-69.62827,67.9886
464.2,3254880.0,-101.9584,67.9664
1000.0,1250959.0,-94.50513,67.975
2154.4,637312.0,-87.28652,67.9716
4641.6,306748.9,-89.55947,67.973
10000.0,148841.2,-96.87694,67.9716
