Frequency,Impedance,Phase Angle,Temperature (Dry Bath)
10.0,5845338.0,2.1078,71.4537
21.544346900318832,5088720.0,-19.83228,71.4574
46.41588833612777,4884284.0,3.284146,71.4603
100.0,476927.3,28.95198,71.4616
215.44346900318823,702041.7,-78.11129,71.4625
464.15888336127773,480040.9,-139.0449,71.4786
1000.0,242811.3,42.38139,71.4682
2154.4346900318824,225627.0,-75.36868,71.4727
4641.588833612777,114588.1,-102.1061,71.4682
10000.0,50211.63,-89.13124,71.47
