Frequency,Impedance,Phase Angle,Temperature (Dry Bath)
10.0,123559.0,-4.132916,67.1709
21.5,120054.4,-3.279839,67.1642
46.4,118422.6,-3.249032,67.1603
100.0,117177.1,-3.907859,67.1422
215.4,109601.6,90.43739,67.1601
464.2,112928.3,-6.759232,67.1579
1000.0,108129.8,-8.581407,67.1407
2154.4,101318.0,-15.30649,67.1479
4641.6,89823.6,-25.34952,67.1443
10000.0,71103.27,-41.27988,67.1633
