Frequency,Impedance,Phase Angle,Temperature (Dry Bath)
10.0,55450.53,-33.36183,67.0664
21.5,42938.7,-29.45581,67.0594
46.4,34875.24,-25.72547,67.0725
100.0,29283.37,-22.0966,67.066
215.4,25366.08,-18.88485,67.0586
464.2,22548.84,-16.09451,67.0412
1000.0,20241.92,-13.85503,67.0704
2154.4,18475.87,-12.78763,67.0793
4641.6,16955.37,-12.90941,67.0758
10000.0,15655.33,-15.15756,67.067
