Frequency,Impedance,Phase Angle,Temperature (Dry Bath)
10.0,8817115.0,5.338396,28.9321
21.544346900318832,5416245.0,13.2561,29.03
46.41588833612777,4677628.0,-22.95187,29.0703
100.0,1262669.0,16.64727,29.0899
215.44346900318823,1445332.0,-64.24528,29.1676
464.15888336127773,1042465.0,-77.17655,29.1342
1000.0,525111.3,16.20241,28.4445
2154.4346900318824,394417.2,-86.42611,28.5792
4641.588833612777,267478.7,-72.28222,28.6856
10000.0,141166.9,-81.19686,28.606
