Frequency,Impedance,Phase Angle,Temperature (Dry Bath)
10.0,6934491.0,11.60535,71.1639
21.544346900318832,5540224.0,-0.8509817,71.168
46.41588833612777,3824536.0,-25.49579,71.1678
100.0,293188.8,-2.324496,71.1686
215.44346900318823,599122.6,-60.69771,71.1862
464.15888336127773,605037.9,-69.91122,71.174
1000.0,325276.1,-165.8489,71.1748
2154.4346900318824,337938.5,-98.08222,71.1788
4641.588833612777,142101.5,-101.662,71.1718
10000.0,70045.79,-92.61911,71.1986
