Frequency,Impedance,Phase Angle,Temperature (Dry Bath)
10.0,43514580.0,-10.0866,67.7478
21.5,42951820.0,-39.78405,67.7666
46.4,30156030.0,-48.66069,67.7571
100.0,34463820.0,178.9528,67.767
215.4,7403700.0,-80.31057,67.7688
464.2,4895036.0,-115.7938,67.7575
1000.0,1402546.0,-87.92909,67.773
2154.4,582595.5,-86.57505,67.7601
4641.6,295688.8,-90.77459,67.7659
10000.0,131485.8,-95.02995,67.7729
