Frequency,Impedance,Phase Angle,Temperature (Dry Bath)
10.0,82965.01,-36.46144,66.1338
21.544346900318832,61612.78,-32.15047,66.1431
46.41588833612777,47661.65,-28.48346,66.1261
100.0,42375.36,-25.3268,66.1323
215.44346900318823,32207.79,-18.12164,66.14
464.15888336127773,27586.78,-17.57128,66.1365
1000.0,24079.93,-13.69546,66.1402
2154.4346900318824,22120.63,-13.23006,66.128
4641.588833612777,19171.31,-18.52211,66.1231
10000.0,17364.35,-23.39848,66.1439
