Frequency,Impedance,Phase Angle,Temperature (Dry Bath)
10.0,18790940.0,-7.476852,67.9089
21.5,23752380.0,-21.17737,67.922
46.4,18299200.0,-45.80259,67.8993
100.0,4956846.0,-37.22641,67.8986
215.4,5174563.0,-58.57537,67.8956
464.2,3939671.0,-106.9648,67.8857
1000.0,1416717.0,-88.76587,67.9164
2154.4,700733.9,-83.28219,67.9075
4641.6,319897.4,-94.79721,67.9131
10000.0,156249.8,-97.83101,67.9178
