Frequency,Impedance,Phase Angle,Temperature (Dry Bath)
10.0,119980.8,-3.344818,67.4183
21.5,118034.3,-3.033388,67.4449
46.4,115106.2,-2.710122,67.4393
100.0,112768.9,-3.000472,67.4494
215.4,111681.1,-5.861116,67.4444
464.2,113104.9,-5.477843,67.4424
1000.0,107256.1,-8.193484,67.4446
2154.4,102570.5,-14.2629,67.4368
4641.6,93137.78,-24.39054,67.423
10000.0,72929.1,-38.85616,67.4388
