Frequency,Impedance,Phase Angle,Temperature (Dry Bath)
10.0,5435481.0,9.994521,71.378
21.544346900318832,7115433.0,-34.08994,71.3726
46.41588833612777,4765624.0,-23.11989,71.3821
100.0,352915.3,-29.75973,71.3665
215.44346900318823,24780.2,-11.43411,71.3687
464.15888336127773,662625.7,-76.43215,71.3761
1000.0,203845.2,-122.2006,71.375
2154.4346900318824,361711.8,-84.10764,71.3697
4641.588833612777,128507.7,-93.55434,71.3731
10000.0,67173.14,-88.10125,71.3777
