Frequency,Impedance,Phase Angle,Temperature (Dry Bath)
10.0,27849460.0,-16.61328,67.4512
21.5,20365560.0,-34.00927,67.4491
46.4,17031340.0,-53.12829,67.4528
100.0,4954189.0,-11.04233,67.4505
215.4,1118990.0,-85.83314,67.4553
464.2,2417770.0,-86.69521,67.4397
1000.0,1235993.0,-69.70209,67.4584
2154.4,583907.0,-84.32018,67.4655
4641.6,283338.3,-86.57974,67.4596
10000.0,131646.1,-85.3534,67.4575
