Frequency,Impedance,Phase Angle,Temperature (Dry Bath)
10.0,23251410.0,-21.85829,67.2594
21.5,21117740.0,-45.29286,67.2606
46.4,14145240.0,-54.10799,67.2332
100.0,3605964.0,-33.79114,67.2161
215.4,2377933.0,-53.49464,67.2492
464.2,1756165.0,-82.90048,67.2284
1000.0,829051.6,-87.06592,67.2098
2154.4,443267.4,-86.83513,67.2119
4641.6,208960.0,-82.23028,67.2215
10000.0,107472.3,-81.25353,67.2336
