Frequency,Impedance,Phase Angle,Temperature (Dry Bath)
10.0,117842.8,-3.759322,67.2579
21.5,115314.3,-3.290456,67.2698
46.4,112238.9,-2.805388,67.2598
100.0,113195.1,-5.034392,67.2402
215.4,110830.0,-5.22132,67.2565
464.2,108936.0,-6.455029,67.2607
1000.0,104568.8,-10.95268,67.2698
2154.4,98527.69,-15.11585,67.2589
4641.6,89961.6,-24.9721,67.2672
10000.0,73670.98,-40.02799,67.2557
