Frequency,Impedance,Phase Angle,Temperature (Dry Bath)
10.0,1460450.0,-16.97577,67.2513
21.5,1287079.0,-15.76118,67.2539
46.4,1224016.0,-14.88048,67.2558
100.0,976136.6,-8.292277,67.2861
215.4,370336.5,-77.67136,67.2556
464.2,992180.7,-33.72096,67.2823
1000.0,609530.9,-43.35869,67.27
2154.4,429167.2,-56.13418,67.2812
4641.6,235247.7,-72.899,67.2776
10000.0,111062.5,-79.72657,67.2905
