Frequency,Impedance,Phase Angle,Temperature (Dry Bath)
10.0,852370.8,-1.621847,71.1053
21.544346900318832,847840.0,-2.250207,71.1033
46.41588833612777,809220.4,-9.632161,71.1021
100.0,260402.6,5.492817,71.1118
215.44346900318823,601383.0,-28.28381,71.0991
464.15888336127773,2683044.0,-35.55782,71.1015
1000.0,306380.3,-6.49584,71.1147
2154.4346900318824,241485.4,-68.67973,71.1116
4641.588833612777,158320.0,-45.64825,71.1078
10000.0,101338.3,-60.63601,71.1049
