Frequency,Impedance,Phase Angle,Temperature (Dry Bath)
10.0,6354088.0,-29.36068,71.4701
21.544346900318832,3881403.0,-36.53058,71.4649
46.41588833612777,4179429.0,-19.80136,71.4775
100.0,272301.3,95.86516,71.4794
215.44346900318823,480493.8,-104.5825,71.4657
464.15888336127773,458365.1,-54.3735,71.4768
1000.0,547570.2,-84.18105,71.4664
2154.4346900318824,320529.2,-101.248,71.4711
4641.588833612777,112942.3,-92.30683,71.4842
10000.0,67479.56,-81.92007,71.4756
