Frequency,Impedance,Phase Angle,Temperature (Dry Bath)
10.0,33240850.0,-23.64027,67.167
21.5,29120870.0,-29.97122,67.1701
46.4,12205530.0,-62.6811,67.1797
100.0,3041546.0,-53.29857,67.1702
215.4,546191.1,-3.025258,67.1757
464.2,2113538.0,-72.10913,67.1836
1000.0,857200.9,-83.01051,67.1859
2154.4,405201.5,-81.35967,67.1761
4641.6,204981.8,-81.62625,67.1575
10000.0,99353.82,-80.08566,67.1826
