Frequency,Impedance,Phase Angle,Temperature (Dry Bath)
10.0,81002860.0,-9.072649,67.8867
21.5,47591990.0,-0.6147346,67.8928
46.4,23130560.0,-46.78815,67.8857
100.0,4013739.0,-60.38484,67.8858
215.4,5707107.0,-78.17752,67.9017
464.2,3899480.0,-79.98399,67.8828
1000.0,1495529.0,-92.96747,67.8842
2154.4,730378.3,-85.32607,67.886
4641.6,319722.8,-88.78951,67.8972
10000.0,148823.3,-97.23054,67.8905
