Frequency,Impedance,Phase Angle,Temperature (Dry Bath)
10.0,130639.5,-18.09256,67.8332
21.5,114732.5,-15.81532,67.8567
46.4,102794.7,-14.00411,67.8474
100.0,92625.16,-13.42265,67.8474
215.4,84392.54,-11.29224,67.8522
464.2,79869.69,-11.62872,67.8556
1000.0,74468.71,-12.88982,67.8441
2154.4,68762.11,-15.54141,67.862
4641.6,61296.29,-21.78738,67.8448
10000.0,54276.86,-34.83619,67.849
