Frequency,Impedance,Phase Angle,Temperature (Dry Bath)
10.0,116344.6,-3.109854,67.2963
21.5,113930.1,-2.586674,67.2991
46.4,112166.0,-2.401297,67.2906
100.0,113892.1,-1.899751,67.3041
215.4,117659.2,48.80468,67.2983
464.2,108292.9,-4.989706,67.2763
1000.0,102987.4,-8.257746,67.3005
2154.4,99014.03,-14.93636,67.2878
4641.6,88737.45,-24.10277,67.272
10000.0,69894.66,-41.12851,67.297
