Frequency,Impedance,Phase Angle,Temperature (Dry Bath)
10.0,25596050.0,0.1760421,67.1002
21.5,25301760.0,-22.79826,67.0969
46.4,19194950.0,-41.59475,67.1063
100.0,2957998.0,-35.36432,67.0998
215.4,259332.3,135.3449,67.0903
464.2,2452344.0,-75.56876,67.1055
1000.0,1079360.0,-77.91631,67.1037
2154.4,561948.8,-91.98216,67.088
4641.6,265854.0,-90.09023,67.102
10000.0,121877.0,-86.8964,67.1013
