Frequency,Impedance,Phase Angle,Temperature (Dry Bath)
10.0,113972.1,-3.167643,67.2107
21.5,111745.1,-2.622705,67.2143
46.4,109813.9,-2.645236,67.2023
100.0,106112.4,-2.916935,67.1986
215.4,81280.88,33.84606,67.219
464.2,105179.0,-5.254408,67.2151
1000.0,100639.5,-8.079346,67.1978
2154.4,97786.48,-13.50558,67.2214
4641.6,87609.52,-23.81749,67.2169
10000.0,69948.16,-39.84106,67.2081
