Frequency,Impedance,Phase Angle,Temperature (Dry Bath)
10.0,41231.49,-14.51047,71.438
21.544346900318832,37234.0,-12.46102,71.4282
46.41588833612777,34258.62,-11.4385,71.4196
100.0,32258.92,-10.83169,71.4312
215.44346900318823,29114.47,-9.238928,71.4261
464.15888336127773,26860.21,-10.63943,71.4279
1000.0,22722.45,-15.24731,71.4161
2154.4346900318824,22664.05,-13.70902,71.428
4641.588833612777,20158.27,-15.52909,71.4366
10000.0,19116.77,-21.94918,71.4305
