Frequency,Impedance,Phase Angle,Temperature (Dry Bath)
10.0,115050.6,-15.83869,67.9373
21.5,102947.2,-13.70456,67.9097
46.4,93294.17,-12.16211,67.934
100.0,84023.26,-11.32248,67.9271
215.4,79849.24,-10.0565,67.9225
464.2,75553.91,-9.465373,67.9271
1000.0,70875.91,-12.27791,67.9159
2154.4,66261.52,-15.76371,67.9255
4641.6,59545.45,-20.35724,67.9264
10000.0,50822.91,-32.29169,67.9321
