Frequency,Impedance,Phase Angle,Temperature (Dry Bath)
10.0,1133842.0,-4.648157,71.3846
21.544346900318832,1096662.0,-6.064622,71.3598
46.41588833612777,956317.4,-5.322373,71.3679
100.0,438911.4,31.7421,71.3735
215.44346900318823,941207.3,-121.7951,71.3698
464.15888336127773,492326.4,27.65866,71.3751
1000.0,456868.8,-62.63235,71.3874
2154.4346900318824,260092.4,-49.61175,71.3997
4641.588833612777,230807.8,-49.75338,71.3946
10000.0,102476.6,-76.3081,71.3801
