Frequency,Impedance,Phase Angle,Temperature (Dry Bath)
10.0,22725600.0,-13.4139,68.1617
21.5,16431100.0,-17.8194,68.1477
46.4,18306670.0,-50.10108,68.1469
100.0,6038883.0,-12.50606,68.1761
215.4,6529604.0,-63.69369,68.1559
464.2,2473479.0,-80.33811,68.1398
1000.0,1631258.0,-94.73654,68.1663
2154.4,695414.9,-93.62932,68.1461
4641.6,304219.6,-91.67783,68.149
10000.0,146297.4,-99.30134,68.1457
