Frequency,Impedance,Phase Angle,Temperature (Dry Bath)
10.0,10750530.0,32.90532,71.3446
21.544346900318832,4583541.0,-0.3163511,71.338
46.41588833612777,3328014.0,-37.49588,71.3475
100.0,2070604.0,-134.4968,71.3461
215.44346900318823,1994510.0,-37.16587,71.3538
464.15888336127773,429283.6,-89.93426,71.3387
1000.0,259581.7,-78.4821,71.338
2154.4346900318824,148468.3,-84.00203,71.3379
4641.588833612777,79281.37,-80.99957,71.3296
10000.0,36442.29,-85.38272,71.3212
