Frequency,Impedance,Phase Angle,Temperature (Dry Bath)
10.0,21795140.0,-0.8092685,68.0941
21.5,18987000.0,-24.30435,68.099
46.4,18429540.0,-52.6201,68.1074
100.0,35133940.0,45.66466,68.0956
215.4,7721930.0,-76.83888,68.087
464.2,3087077.0,-99.74102,68.1081
1000.0,1450919.0,-86.55507,68.09
2154.4,745252.5,-96.40831,68.0934
4641.6,341358.1,-86.61411,68.0875
10000.0,163287.6,-98.31026,68.1049
