Frequency,Impedance,Phase Angle,Temperature (Dry Bath)
10.0,2032575.0,-10.69888,68.0875
21.5,1862667.0,-11.69256,68.1062
46.4,1747901.0,-13.97245,68.0885
100.0,1418896.0,-14.02033,68.1028
215.4,1420767.0,-20.10275,68.108
464.2,1186566.0,-37.70831,68.1103
1000.0,869224.4,-47.57046,68.1066
2154.4,543646.8,-59.00644,68.1058
4641.6,272463.6,-68.21464,68.1133
10000.0,140512.1,-87.72391,68.1148
