Frequency,Impedance,Phase Angle,Temperature (Dry Bath)
10.0,1700792.0,-18.48082,67.3974
21.5,1496776.0,-17.03602,67.3942
46.4,1315870.0,-16.52087,67.3959
100.0,1158647.0,-21.23978,67.4021
215.4,153170.6,-16.70929,67.3857
464.2,901154.7,-33.76296,67.4111
1000.0,697322.6,-44.62326,67.4018
2154.4,508857.6,-60.14576,67.3913
4641.6,262234.9,-72.80047,67.3884
10000.0,130485.9,-79.2437,67.4012
