Frequency,Impedance,Phase Angle,Temperature (Dry Bath)
10.0,114131.1,-3.219563,67.4309
21.5,111895.2,-2.609319,67.4322
46.4,110044.3,-2.497209,67.4359
100.0,110260.2,-3.094343,67.4222
215.4,109118.1,-2.568581,67.4468
464.2,106403.7,-5.675451,67.4267
1000.0,101629.7,-8.298616,67.4277
2154.4,97537.29,-14.13954,67.4392
4641.6,88211.84,-25.34893,67.4346
10000.0,69527.07,-40.66475,67.432
