Frequency,Impedance,Phase Angle,Temperature (Dry Bath)
10.0,40389010.0,-22.74003,67.9857
21.5,37726680.0,-38.13326,67.9942
46.4,12745100.0,-58.07018,67.9812
100.0,4945942.0,-77.93074,67.9942
215.4,4608707.0,-75.12677,67.9913
464.2,2599179.0,-91.45775,67.9816
1000.0,1104855.0,-81.81439,67.9866
2154.4,619335.4,-87.24355,67.9965
4641.6,274958.0,-88.49763,68.0018
10000.0,139689.7,-95.07798,67.9958
