Frequency,Impedance,Phase Angle,Temperature (Dry Bath)
10.0,6857640.0,0.9594607,71.176
21.544346900318832,5016659.0,-42.08207,71.1766
46.41588833612777,4474665.0,-4.074783,71.1807
100.0,986982.8,-140.3069,71.181
215.44346900318823,1051072.0,-1.208811,71.1728
464.15888336127773,503436.0,-93.92316,71.1754
1000.0,331898.1,-108.8781,71.1813
2154.4346900318824,225538.8,-96.44871,71.1859
4641.588833612777,125772.1,-90.77049,71.1896
10000.0,70072.31,-84.8899,71.1828
