Frequency,Impedance,Phase Angle,Temperature (Dry Bath)
10.0,7928566.0,-15.62581,71.7155
21.544346900318832,5053970.0,13.29829,71.6852
46.41588833612777,6231483.0,-26.51654,71.6773
100.0,554380.3,90.33698,71.682
215.44346900318823,1205267.0,-129.5896,71.6844
464.15888336127773,2291405.0,44.82437,71.6887
1000.0,565807.6,-110.1647,71.6755
2154.4346900318824,295828.1,-83.56551,71.6854
4641.588833612777,328584.1,-62.93414,71.6764
10000.0,141455.6,-90.08546,71.6812
