Frequency,Impedance,Phase Angle,Temperature (Dry Bath)
10.0,43802.52,-14.73673,70.6373
21.544346900318832,39723.56,-12.57489,70.6421
46.41588833612777,36165.37,-11.49473,70.6111
100.0,29624.64,-13.40658,70.6393
215.44346900318823,30157.22,-12.29836,70.6418
464.15888336127773,27994.03,-12.26003,70.6381
1000.0,26599.41,-10.44009,70.6306
2154.4346900318824,23871.2,-14.02178,70.6358
4641.588833612777,22221.78,-15.18221,70.6244
10000.0,19459.3,-23.27444,70.6279
