Frequency,Impedance,Phase Angle,Temperature (Dry Bath)
10.0,180904.2,-12.51832,71.261
21.544346900318832,162354.5,-12.29014,71.2461
46.41588833612777,148484.7,-11.44444,71.2524
100.0,122601.4,5.969252,71.2566
215.44346900318823,173361.5,24.8611,71.243
464.15888336127773,107652.9,-6.905145,71.2437
1000.0,76833.19,-18.98589,71.267
2154.4346900318824,96902.28,-30.03955,71.2561
4641.588833612777,76155.85,-35.57312,71.248
10000.0,47870.15,-53.25666,71.2364
