Frequency,Impedance,Phase Angle,Temperature (Dry Bath)
10.0,73925410.0,-30.15895,67.7741
21.5,30879900.0,-21.47298,67.7745
46.4,17363320.0,-43.74629,67.7738
100.0,4854249.0,7.83736,67.7641
215.4,7337464.0,-100.8757,67.7589
464.2,3965990.0,-89.08473,67.7784
1000.0,1428054.0,-78.17892,67.7495
2154.4,628337.6,-89.47124,67.7644
4641.6,287476.8,-94.74569,67.7638
10000.0,147238.8,-98.08269,67.7411
