Frequency,Impedance,Phase Angle,Temperature (Dry Bath)
10.0,1586099.0,-18.9639,67.1034
21.5,1409024.0,-17.11635,67.0985
46.4,1274292.0,-15.86462,67.1144
100.0,826914.7,-10.40845,67.096
215.4,1164201.0,-28.30987,67.1011
464.2,948729.9,-29.8058,67.1076
1000.0,739145.2,-49.82224,67.0991
2154.4,414882.2,-63.80121,67.1063
4641.6,223054.8,-74.97778,67.0986
10000.0,111954.6,-80.66091,67.1136
