Frequency,Impedance,Phase Angle,Temperature (Dry Bath)
10.0,67424.67,-31.54334,67.1131
21.5,53105.59,-27.709,67.0985
46.4,43849.78,-23.96059,67.1129
100.0,37426.7,-20.64729,67.1035
215.4,32807.53,-17.36168,67.1084
464.2,29489.38,-14.82261,67.1105
1000.0,26338.1,-12.97714,67.1132
2154.4,24326.69,-12.55166,67.0887
4641.6,22493.2,-13.33428,67.1016
10000.0,20739.43,-16.72741,67.1125
