Frequency,Impedance,Phase Angle,Temperature (Dry Bath)
10.0,152030.6,-5.02454,67.7071
21.5,147422.1,-4.114026,67.6947
46.4,143573.7,-3.87047,67.6969
100.0,139571.8,-3.91106,67.7101
215.4,139202.9,-6.363485,67.6703
464.2,130200.1,-6.574167,67.6989
1000.0,128493.6,-9.964371,67.6997
2154.4,125003.8,-17.76487,67.7016
4641.6,108559.8,-29.60305,67.6987
10000.0,84196.69,-46.09136,67.6988
