Frequency,Impedance,Phase Angle,Temperature (Dry Bath)
10.0,20689620.0,-25.54205,68.2593
21.5,40532610.0,-24.38903,68.2532
46.4,27745380.0,-56.09828,68.244
100.0,5941718.0,-92.20925,68.2618
215.4,6316793.0,-101.8278,68.2515
464.2,3442910.0,-73.75732,68.2549
1000.0,1324906.0,-85.37351,68.2469
2154.4,679014.8,-85.49377,68.2474
4641.6,311332.0,-85.04722,68.2581
10000.0,146161.6,-96.84616,68.2515
