Frequency,Impedance,Phase Angle,Temperature (Dry Bath)
10.0,4354032.0,-9.664957,65.6679
21.544346900318832,3988406.0,8.753084,65.6585
46.41588833612777,4316387.0,-42.78219,65.6642
100.0,690722.6,56.75589,65.6616
215.44346900318823,60272.68,74.74767,65.6655
464.15888336127773,700883.3,34.90205,65.6631
1000.0,350491.6,-88.00253,65.661
2154.4346900318824,304523.6,-104.1915,65.6727
4641.588833612777,144918.1,-73.70079,65.667
10000.0,62817.0,-80.79376,65.6671
