Frequency,Impedance,Phase Angle,Temperature (Dry Bath)
10.0,22249120.0,-26.83276,68.2157
21.5,14977680.0,-31.26848,68.2196
46.4,27321440.0,-47.91863,68.1957
100.0,6566876.0,-42.4245,68.2232
215.4,4241744.0,-70.06868,68.2353
464.2,2126778.0,-62.89209,68.2088
1000.0,1275640.0,-81.63278,68.212
2154.4,676495.3,-85.60942,68.2363
4641.6,308354.2,-93.06125,68.2396
10000.0,143938.1,-97.01644,68.2248
