Frequency,Impedance,Phase Angle,Temperature (Dry Bath)
10.0,102823.0,-3.05217,67.0599
21.5,100908.9,-2.61218,67.0581
46.4,99154.99,-2.483275,67.0623
100.0,99235.29,-2.331759,67.0375
215.4,94899.38,-3.106098,67.0474
464.2,95901.11,-4.223757,67.0617
1000.0,90792.98,-7.828762,67.0516
2154.4,88259.0,-12.69355,67.0464
4641.6,79839.15,-22.26756,67.0561
10000.0,65347.14,-39.18631,67.0476
