Frequency,Impedance,Phase Angle,Temperature (Dry Bath)
10.0,19785070.0,-17.81364,68.2286
21.5,27261540.0,-15.46195,68.2143
46.4,29345660.0,-51.60465,68.2231
100.0,9716423.0,-24.11493,68.2212
215.4,5268922.0,-106.9702,68.2314
464.2,2835789.0,-87.61394,68.219
1000.0,1512597.0,-80.69447,68.2211
2154.4,728998.3,-84.29248,68.2242
4641.6,304117.8,-90.98056,68.2279
10000.0,157198.7,-98.30644,68.2198
