Frequency,Impedance,Phase Angle,Temperature (Dry Bath)
10.0,24524330.0,-14.64743,67.3988
21.5,26354060.0,-37.90596,67.3779
46.4,17143930.0,-58.48464,67.3988
100.0,2881059.0,-63.6907,67.3975
215.4,3212694.0,-43.22783,67.3947
464.2,1992376.0,-97.4741,67.3966
1000.0,1053290.0,-92.88934,67.3683
2154.4,588792.7,-90.55213,67.3898
4641.6,260978.4,-89.28169,67.3804
10000.0,124120.4,-84.6671,67.3809
