Frequency,Impedance,Phase Angle,Temperature (Dry Bath)
10.0,3183814.0,-31.42462,71.2731
21.544346900318832,4759037.0,-15.32952,71.271
46.41588833612777,3713613.0,-19.97152,71.2607
100.0,690296.1,115.2946,71.257
215.44346900318823,10313.92,5.578357,71.2653
464.15888336127773,659284.2,34.09145,71.2715
1000.0,390429.9,-176.7801,71.2509
2154.4346900318824,337243.9,-94.05068,71.2549
4641.588833612777,156744.4,-88.49689,71.2598
10000.0,58468.62,-81.89211,71.2441
