Frequency,Impedance,Phase Angle,Temperature (Dry Bath)
10.0,121002.4,-3.270851,67.3013
21.5,119455.4,-3.106591,67.2945
46.4,117993.7,-3.165657,67.296
100.0,114965.5,-2.573257,67.2993
215.4,90358.62,25.36625,67.2909
464.2,112340.3,-5.544769,67.2948
1000.0,107436.4,-8.961361,67.2951
2154.4,103356.7,-14.67122,67.3006
4641.6,92136.07,-24.57002,67.2959
10000.0,74448.3,-40.37161,67.2959
