Frequency,Impedance,Phase Angle,Temperature (Dry Bath)
10.0,1584360.0,-18.05014,67.0903
21.5,1404269.0,-16.51724,67.1055
46.4,1251956.0,-15.63224,67.1028
100.0,1319180.0,-22.49065,67.1166
215.4,1094630.0,-23.69467,67.1242
464.2,912861.6,-30.06285,67.1154
1000.0,742009.8,-38.84009,67.1179
2154.4,421259.4,-55.93964,67.108
4641.6,238956.5,-73.91012,67.1135
10000.0,110254.6,-80.40506,67.1297
