Frequency,Impedance,Phase Angle,Temperature (Dry Bath)
10.0,19129200.0,-18.39501,68.0569
21.5,18355840.0,-37.36561,68.0676
46.4,20339360.0,-48.38069,68.0646
100.0,4312948.0,-17.24431,68.0619
215.4,3696747.0,-67.9832,68.0492
464.2,2115203.0,-75.80154,68.068
1000.0,1252510.0,-77.09981,68.0437
2154.4,587739.3,-87.33471,68.0784
4641.6,276399.6,-94.58448,68.0456
10000.0,137701.8,-96.08625,68.0648
