Frequency,Impedance,Phase Angle,Temperature (Dry Bath)
10.0,29117890.0,-36.05719,67.2966
21.5,26242940.0,-39.0958,67.2851
46.4,16760720.0,-61.53955,67.283
100.0,3980329.0,-8.701316,67.2803
215.4,185381.8,65.11475,67.2797
464.2,43443560.0,172.5319,67.2614
1000.0,1105976.0,-81.32788,67.2706
2154.4,598601.2,-89.51239,67.2763
4641.6,274200.1,-88.68623,67.2703
10000.0,133380.0,-86.75148,67.2639
