Frequency,Impedance,Phase Angle,Temperature (Dry Bath)
10.0,1600041.0,-15.63224,68.1016
21.5,1419327.0,-13.40426,68.1016
46.4,1228123.0,-13.56948,68.1016
100.0,1109054.0,-15.58914,68.1016
215.4,1045162.0,-21.06438,68.1016
464.2,934191.6,-27.46011,68.1016
1000.0,795946.2,-40.02063,68.1016
2154.4,510615.5,-62.36456,68.1016
4641.6,260353.8,-78.69304,68.1016
10000.0,136090.3,-87.13044,68.1016
