Frequency,Impedance,Phase Angle,Temperature (Dry Bath)
10.0,2670195.0,-13.58423,71.3227
21.544346900318832,2229134.0,-19.08165,71.3401
46.41588833612777,2670943.0,-28.36983,71.3324
100.0,2019726.0,162.0263,71.3281
215.44346900318823,26439.62,117.2354,71.3436
464.15888336127773,1191559.0,27.33497,71.32
1000.0,197076.9,-52.98622,71.3211
2154.4346900318824,275148.3,-70.37238,71.3263
4641.588833612777,215145.5,-74.53943,71.331
10000.0,63320.08,-92.09175,71.3281
