Frequency,Impedance,Phase Angle,Temperature (Dry Bath)
10.0,18640760.0,-12.61227,67.975
21.5,34673800.0,-45.53711,67.959
46.4,26946470.0,-54.58089,67.9661
100.0,3669770.0,-44.53282,67.9812
215.4,4029629.0,-87.91438,67.9634
464.2,2077551.0,-70.94935,67.9647
1000.0,1160343.0,-84.01792,67.9644
2154.4,559703.2,-84.53854,67.9636
4641.6,273232.1,-92.23863,67.9674
10000.0,126729.6,-91.1468,67.9675
