Frequency,Impedance,Phase Angle,Temperature (Dry Bath)
10.0,1499914.0,-16.8057,67.8916
21.5,1298319.0,-15.37783,67.8959
46.4,1260453.0,-14.75641,67.8834
100.0,902369.2,-13.12145,67.9105
215.4,972888.1,-13.33443,67.8866
464.2,914328.2,-26.68505,67.9018
1000.0,704884.7,-45.11014,67.8824
2154.4,509315.9,-53.41736,67.8878
4641.6,262623.2,-74.25319,67.8835
10000.0,123370.6,-92.11592,67.8899
