Frequency,Impedance,Phase Angle,Temperature (Dry Bath)
10.0,2861858.0,-20.87938,70.9858
21.544346900318832,2892769.0,-30.76582,70.9735
46.41588833612777,2593044.0,-23.70108,70.9689
100.0,379853.9,-33.0986,70.9548
215.44346900318823,1648536.0,59.13227,70.9623
464.15888336127773,444144.4,-80.05373,70.9823
1000.0,404299.6,-70.67261,70.9538
2154.4346900318824,269914.9,-62.49647,70.954
4641.588833612777,121596.3,-94.17894,70.9643
10000.0,64400.27,-82.47039,70.9599
