Frequency,Impedance,Phase Angle,Temperature (Dry Bath)
10.0,28374740.0,-16.10884,67.4317
21.5,23067570.0,-7.632124,67.4258
46.4,15281980.0,-53.7084,67.4241
100.0,2631200.0,-54.02343,67.433
215.4,436141.7,-92.74532,67.4262
464.2,1860678.0,-87.8688,67.4235
1000.0,1008552.0,-93.33963,67.4313
2154.4,501653.9,-81.84624,67.4356
4641.6,261552.1,-85.23442,67.4295
10000.0,124134.6,-86.46201,67.4242
