Frequency,Impedance,Phase Angle,Temperature (Dry Bath)
10.0,253354.6,-23.28989,67.3764
21.5,212165.1,-21.166,67.3643
46.4,181804.5,-18.87396,67.37
100.0,162576.7,-17.29581,67.3664
215.4,138294.6,-14.54648,67.3468
464.2,130787.4,-14.88076,67.3591
1000.0,115435.4,-18.38822,67.3736
2154.4,103204.6,-23.44199,67.372
4641.6,83245.55,-31.57308,67.3761
10000.0,62422.1,-42.17794,67.3816
