Frequency,Impedance,Phase Angle,Temperature (Dry Bath)
10.0,1551237.0,-18.30459,66.9985
21.5,1400978.0,-16.86134,67.0017
46.4,1265131.0,-15.37446,67.0094
100.0,1254872.0,-10.71427,66.9984
215.4,966761.8,-29.64755,66.9973
464.2,1052989.0,-26.3642,67.0005
1000.0,737426.8,-48.57863,66.9947
2154.4,440234.3,-60.50466,66.9863
4641.6,232865.2,-72.93464,66.9913
10000.0,115231.2,-79.43529,66.9911
