Frequency,Impedance,Phase Angle,Temperature (Dry Bath)
10.0,242282.0,-22.98932,67.4543
21.5,204141.9,-20.67069,67.447
46.4,175255.1,-18.33324,67.4455
100.0,149548.8,-15.29171,67.4453
215.4,146475.8,-17.16293,67.4529
464.2,126684.0,-14.44857,67.4439
1000.0,115417.6,-16.57412,67.443
2154.4,100663.6,-22.69402,67.4475
4641.6,82752.79,-29.95545,67.4518
10000.0,61920.7,-41.46699,67.427
