Frequency,Impedance,Phase Angle,Temperature (Dry Bath)
10.0,144555.3,-4.862364,67.9753
21.5,139958.2,-4.063236,67.981
46.4,136347.4,-3.728232,67.9814
100.0,130561.6,-3.171746,67.9769
215.4,129883.5,-6.268421,67.9818
464.2,124680.2,-6.386391,67.9866
1000.0,122571.0,-9.728056,67.9809
2154.4,116685.8,-16.97623,67.9709
4641.6,104429.6,-27.45619,67.9689
10000.0,82583.66,-47.28793,67.9741
