Frequency,Impedance,Phase Angle,Temperature (Dry Bath)
10.0,9916011.0,-28.92787,65.7516
21.544346900318832,7427750.0,-4.678223,65.7575
46.41588833612777,8193882.0,-48.47576,65.7679
100.0,447146.1,19.81447,65.7466
215.44346900318823,10122.22,-140.0429,65.7463
464.15888336127773,3444578.0,-75.05414,65.7699
1000.0,409554.3,-99.02645,65.7545
2154.4346900318824,186417.9,-84.93814,65.7722
4641.588833612777,126914.9,-89.44065,65.7487
10000.0,62884.02,-85.38308,65.7532
