Frequency,Impedance,Phase Angle,Temperature (Dry Bath)
10.0,25297730.0,-16.46123,68.2085
21.5,17259680.0,-29.06421,68.2085
46.4,11997620.0,-42.34401,68.2085
100.0,5175446.0,-30.71702,68.2085
215.4,5415579.0,-76.68857,68.2085
464.2,3072556.0,-71.78424,68.2085
1000.0,1427304.0,-87.89601,68.2085
2154.4,689628.7,-92.96645,68.2085
4641.6,332287.1,-90.60569,68.2085
10000.0,149201.0,-95.49777,68.2085
