Frequency,Impedance,Phase Angle,Temperature (Dry Bath)
10.0,7582902.0,-22.60674,71.3711
21.544346900318832,4335288.0,-13.6695,71.3721
46.41588833612777,5987436.0,-25.81496,71.3815
100.0,694885.6,22.04589,71.3775
215.44346900318823,550167.4,32.04844,71.3865
464.15888336127773,1439598.0,-43.4065,71.3674
1000.0,805619.7,-20.07486,71.3682
2154.4346900318824,355960.8,-78.51598,71.3821
4641.588833612777,148460.7,-88.04491,71.3758
10000.0,62209.41,-90.5012,71.3774
