Frequency,Impedance,Phase Angle,Temperature (Dry Bath)
10.0,1576076.0,-14.3764,68.2568
21.5,1435850.0,-14.02922,68.2568
46.4,1349239.0,-13.01323,68.2568
100.0,1011666.0,-11.22592,68.2568
215.4,1080917.0,-13.00101,68.2568
464.2,959656.9,-26.85384,68.2568
1000.0,746147.8,-41.17512,68.2568
2154.4,555772.0,-61.3171,68.2568
4641.6,288399.0,-76.15759,68.2568
10000.0,140800.8,-86.28492,68.2568
