Frequency,Impedance,Phase Angle,Temperature (Dry Bath)
10.0,112839.9,-3.097157,67.0783
21.5,110560.6,-2.654544,67.0705
46.4,108869.0,-2.466043,67.0878
100.0,105356.4,-3.300931,67.0722
215.4,108272.6,-4.198441,67.073
464.2,104831.7,-5.126246,67.0715
1000.0,99797.83,-8.839294,67.08
2154.4,97019.42,-14.20436,67.0815
4641.6,87095.42,-24.93149,67.0772
10000.0,70170.34,-40.29073,67.0991
