Frequency,Impedance,Phase Angle,Temperature (Dry Bath)
10.0,1215000.0,-10.33471,67.9899
21.5,1108710.0,-10.95115,67.9731
46.4,1005046.0,-11.23368,67.9698
100.0,857547.8,-13.14048,67.9734
215.4,825865.2,-17.2944,67.9772
464.2,706872.1,-21.81157,67.9644
1000.0,630353.9,-33.95986,67.978
2154.4,440203.3,-50.14587,67.9694
4641.6,244157.8,-66.04514,67.9761
10000.0,137719.1,-76.72366,67.9846
