Frequency,Impedance,Phase Angle,Temperature (Dry Bath)
10.0,52578010.0,6.301534,68.0314
21.5,19468380.0,-31.17243,68.0274
46.4,16334620.0,-54.30742,68.0378
100.0,5292418.0,-85.36069,68.0251
215.4,13261270.0,-38.09008,68.0217
464.2,2656085.0,-113.8295,68.045
1000.0,1213407.0,-96.22423,68.0168
2154.4,671881.1,-83.51782,68.0279
4641.6,324956.9,-91.67086,68.0146
10000.0,140987.3,-99.17817,68.0075
