Frequency,Impedance,Phase Angle,Temperature (Dry Bath)
10.0,4890589.0,-6.276692,70.6127
21.544346900318832,4473618.0,-15.22226,70.618
46.41588833612777,4555401.0,-23.85744,70.6033
100.0,674679.0,-174.6744,70.6062
215.44346900318823,3047502.0,17.27233,70.5968
464.15888336127773,1378771.0,-67.56165,70.5992
1000.0,428200.5,-100.816,70.6081
2154.4346900318824,297478.7,-84.94451,70.6155
4641.588833612777,203604.6,-77.87817,70.601
10000.0,56318.82,-94.03264,70.6105
