Frequency,Impedance,Phase Angle,Temperature (Dry Bath)
10.0,22561590.0,-8.898357,68.1603
21.5,17658720.0,-35.07352,68.1361
46.4,29392040.0,-42.13167,68.1626
100.0,4952753.0,-31.2296,68.1422
215.4,5415120.0,-68.67545,68.1423
464.2,2245976.0,-78.16578,68.1321
1000.0,1355752.0,-81.02836,68.142
2154.4,658112.8,-88.21879,68.1396
4641.6,322088.6,-87.35254,68.1423
10000.0,147915.1,-96.91776,68.1461
