Frequency,Impedance,Phase Angle,Temperature (Dry Bath)
10.0,2453219.0,-8.962615,66.2965
21.544346900318832,2410403.0,-14.38173,66.3037
46.41588833612777,2028700.0,-26.43142,66.3033
100.0,394900.8,48.78801,66.2916
215.44346900318823,614783.4,-80.13696,66.2894
464.15888336127773,734808.0,-57.89546,66.2837
1000.0,416295.0,114.8734,66.301
2154.4346900318824,294634.1,-81.31318,66.2944
4641.588833612777,120519.6,-86.77742,66.289
10000.0,62459.15,-79.57321,66.2838
