Frequency,Impedance,Phase Angle,Temperature (Dry Bath)
10.0,143431.9,-4.850408,67.9451
21.5,138907.6,-3.986837,67.9435
46.4,135662.3,-3.729777,67.9316
100.0,126329.6,-3.247732,67.9704
215.4,129773.3,-4.940286,67.9537
464.2,124447.3,-6.230587,67.9593
1000.0,123934.2,-9.828582,67.951
2154.4,116550.9,-15.2476,67.9464
4641.6,103681.3,-28.03149,67.9354
10000.0,89186.58,-47.81034,67.9312
