Frequency,Impedance,Phase Angle,Temperature (Dry Bath)
10.0,150877.8,-4.730952,67.6867
21.5,147045.9,-3.922869,67.6936
46.4,143782.9,-3.702767,67.6991
100.0,138666.1,-5.49223,67.6802
215.4,138087.7,-4.511514,67.6844
464.2,136360.6,-5.627004,67.6685
1000.0,128319.6,-9.926452,67.6828
2154.4,125216.6,-16.00086,67.677
4641.6,110161.0,-30.39746,67.6816
10000.0,82751.43,-50.79778,67.674
