Frequency,Impedance,Phase Angle,Temperature (Dry Bath)
10.0,102136.3,-14.16486,71.2667
21.544346900318832,92464.49,-12.95529,71.2549
46.41588833612777,83280.5,-11.85006,71.2462
100.0,65367.47,-2.256445,71.2434
215.44346900318823,27274.66,70.29539,71.2427
464.15888336127773,73073.44,-14.25086,71.234
1000.0,59498.29,-8.039015,71.2444
2154.4346900318824,57671.49,-17.04799,71.2412
4641.588833612777,48793.69,-29.39262,71.2507
10000.0,33467.89,-37.1447,71.2358
