Frequency,Impedance,Phase Angle,Temperature (Dry Bath)
10.0,1500937.0,-17.80529,67.9855
21.5,1352278.0,-15.45575,67.9924
46.4,1279501.0,-14.37112,67.9917
100.0,1040868.0,-20.86717,67.9935
215.4,989151.7,-16.45359,67.9991
464.2,941411.7,-36.30858,68.002
1000.0,756395.1,-43.46768,67.9917
2154.4,472755.9,-59.52051,68.0084
4641.6,248651.6,-72.07086,67.9949
10000.0,125047.6,-87.64508,68.0045
