Frequency,Impedance,Phase Angle,Temperature (Dry Bath)
10.0,4397152.0,11.44761,70.932
21.544346900318832,2642271.0,-0.9620167,70.9345
46.41588833612777,5156110.0,-23.20504,70.9294
100.0,946034.6,-24.18991,70.9516
215.44346900318823,748371.6,122.6247,70.9404
464.15888336127773,563073.1,-40.58007,70.9414
1000.0,226363.5,-77.90087,70.9581
2154.4346900318824,240392.6,-81.38723,70.93
4641.588833612777,151413.5,-75.74259,70.9283
10000.0,78019.76,-89.23064,70.9442
