Frequency,Impedance,Phase Angle,Temperature (Dry Bath)
10.0,1402693.0,-14.26686,67.9183
21.5,1240387.0,-13.56846,67.9505
46.4,1100025.0,-13.69844,67.9345
100.0,930865.2,-17.5422,67.9277
215.4,975105.4,-14.32515,67.9332
464.2,781906.3,-25.81647,67.9247
1000.0,672016.5,-44.62084,67.9324
2154.4,484198.7,-58.52693,67.9223
4641.6,261244.6,-75.23807,67.9266
10000.0,127913.6,-85.47547,67.9309
