Frequency,Impedance,Phase Angle,Temperature (Dry Bath)
10.0,1400588.0,-15.68232,68.0173
21.5,1225300.0,-14.75292,68.023
46.4,1125826.0,-13.60438,68.0403
100.0,1012509.0,-21.6813,68.0293
215.4,1043446.0,-24.04171,68.0259
464.2,920362.2,-21.88112,68.0093
1000.0,625665.0,-41.11078,68.0152
2154.4,483672.5,-57.13679,68.0383
4641.6,269608.6,-77.33258,68.0089
10000.0,141416.4,-83.93103,68.0189
