Frequency,Impedance,Phase Angle,Temperature (Dry Bath)
10.0,8325885.0,-4.861196,65.8237
21.544346900318832,7822766.0,-17.36561,65.8336
46.41588833612777,4084535.0,-20.29869,65.833
100.0,332719.5,3.339421,65.8437
215.44346900318823,18409.06,64.94976,65.8367
464.15888336127773,446903.6,-65.17487,65.8441
1000.0,1600070.0,161.9988,65.826
2154.4346900318824,297787.2,-71.72284,65.846
4641.588833612777,172884.3,-85.76413,65.8324
10000.0,63879.46,-91.06719,65.8298
