Frequency,Impedance,Phase Angle,Temperature (Dry Bath)
10.0,135358.6,-3.802852,67.1318
21.5,132614.9,-3.33147,67.1431
46.4,130966.5,-3.153089,67.1356
100.0,129116.5,-4.268202,67.1569
215.4,123353.2,-5.683739,67.1413
464.2,121589.5,-7.170119,67.1407
1000.0,116875.6,-10.02964,67.1474
2154.4,110747.2,-16.79498,67.1445
4641.6,98703.13,-27.47852,67.1582
10000.0,74355.53,-44.15033,67.1337
