Frequency,Impedance,Phase Angle,Temperature (Dry Bath)
10.0,22215940.0,-26.9519,68.1892
21.5,17931530.0,-40.63916,68.2023
46.4,18645130.0,-45.18963,68.1907
100.0,4992309.0,-46.52016,68.194
215.4,3910730.0,-73.14039,68.1973
464.2,2646706.0,-87.22068,68.2103
1000.0,1335693.0,-85.17544,68.204
2154.4,618236.6,-85.12694,68.2023
4641.6,303455.9,-88.79877,68.194
10000.0,146105.5,-91.28025,68.201
