Frequency,Impedance,Phase Angle,Temperature (Dry Bath)
10.0,25028530.0,-7.559886,67.9137
21.5,31681950.0,-34.40514,67.9027
46.4,29730500.0,-57.0706,67.9092
100.0,5055179.0,-49.9686,67.9063
215.4,5601840.0,-47.77553,67.9184
464.2,2474303.0,-87.1011,67.9091
1000.0,1134596.0,-77.90002,67.9089
2154.4,614870.9,-87.00068,67.9121
4641.6,275685.0,-89.05835,67.927
10000.0,134053.6,-94.70639,67.9116
