Frequency,Impedance,Phase Angle,Temperature (Dry Bath)
10.0,20305020.0,-11.51077,68.2273
21.5,17548590.0,-32.54124,68.2061
46.4,24160550.0,-43.91012,68.2234
100.0,6886857.0,-59.11096,68.2278
215.4,8257848.0,-101.6013,68.2032
464.2,3262506.0,-93.16555,68.2239
1000.0,1199271.0,-83.17128,68.2075
2154.4,625068.8,-85.17626,68.2217
4641.6,297237.8,-91.14406,68.2239
10000.0,156689.7,-93.21518,68.2303
