Frequency,Impedance,Phase Angle,Temperature (Dry Bath)
10.0,4551531.0,-4.064633,70.7542
21.544346900318832,3169108.0,9.334165,70.7713
46.41588833612777,4333035.0,-11.31006,70.7575
100.0,662867.5,51.3671,70.7789
215.44346900318823,868610.8,9.522009,70.7685
464.15888336127773,1667341.0,3.628081,70.7669
1000.0,305504.7,-111.0867,70.7657
2154.4346900318824,226380.2,-84.95991,70.7685
4641.588833612777,151930.9,-74.49063,70.759
10000.0,67353.46,-86.3956,70.7863
