Frequency,Impedance,Phase Angle,Temperature (Dry Bath)
10.0,117182.0,-16.30711,67.8935
21.5,104098.4,-14.18952,67.9032
46.4,94931.09,-12.29787,67.9096
100.0,85687.85,-12.12869,67.8924
215.4,81204.61,-9.874624,67.8873
464.2,76247.86,-11.70813,67.9041
1000.0,71459.62,-11.54789,67.8804
2154.4,65305.93,-14.33634,67.8962
4641.6,59638.08,-22.21601,67.8915
10000.0,53900.66,-33.42588,67.8982
