Frequency,Impedance,Phase Angle,Temperature (Dry Bath)
10.0,3590732.0,-3.349163,65.9021
21.544346900318832,4887045.0,-11.04816,65.8889
46.41588833612777,3785602.0,-38.57733,65.8805
100.0,110535.7,-79.29862,65.8713
215.44346900318823,18660.15,178.0805,65.877
464.15888336127773,881150.8,8.2689,65.8714
1000.0,709284.3,-47.8469,65.8841
2154.4346900318824,887302.9,-51.97232,65.879
4641.588833612777,166509.6,-75.86667,65.8738
10000.0,63148.6,-81.72001,65.877
