Frequency,Impedance,Phase Angle,Temperature (Dry Bath)
10.0,596332.1,-22.98633,71.37
21.544346900318832,486002.5,-26.67772,71.3781
46.41588833612777,378357.0,-24.23238,71.3655
100.0,338522.4,-12.94083,71.3881
215.44346900318823,203420.6,-36.0751,71.3606
464.15888336127773,206426.6,-38.36628,71.3693
1000.0,211830.6,-32.87914,71.3703
2154.4346900318824,162475.8,-45.58472,71.367
4641.588833612777,93267.1,-52.24614,71.3783
10000.0,49581.76,-63.24786,71.3909
