Frequency,Impedance,Phase Angle,Temperature (Dry Bath)
10.0,27193440.0,-14.20724,67.7489
21.5,34095700.0,-28.28223,67.7668
46.4,38492870.0,-40.08324,67.7478
100.0,8773523.0,-11.0827,67.7638
215.4,5337028.0,-101.0416,67.7536
464.2,2839597.0,-96.99633,67.7496
1000.0,1424411.0,-79.55093,67.7722
2154.4,638541.8,-87.52586,67.7827
4641.6,326353.0,-88.98265,67.7831
10000.0,148208.2,-97.26109,67.7743
