Frequency,Impedance,Phase Angle,Temperature (Dry Bath)
10.0,27403450.0,-10.88148,68.0321
21.5,42633010.0,-6.598408,68.0399
46.4,29698460.0,-42.30232,68.0401
100.0,5115846.0,-19.63925,68.0496
215.4,5399226.0,-55.60598,68.0555
464.2,2235430.0,-83.16457,68.0366
1000.0,1306000.0,-85.39783,68.0284
2154.4,718474.3,-84.03105,68.0404
4641.6,320069.1,-94.67696,68.039
10000.0,139055.6,-97.70685,68.0492
