Frequency,Impedance,Phase Angle,Temperature (Dry Bath)
10.0,40411830.0,-27.98278,68.2754
21.5,21939310.0,-19.92403,68.2754
46.4,13054380.0,-48.08755,68.2754
100.0,6764690.0,-22.64912,68.2754
215.4,8825031.0,-35.60647,68.2754
464.2,2690133.0,-81.7958,68.2754
1000.0,1397422.0,-85.86573,68.2754
2154.4,679597.0,-86.55692,68.2754
4641.6,296522.4,-90.76118,68.2754
10000.0,149280.7,-97.32747,68.2754
