Frequency,Impedance,Phase Angle,Temperature (Dry Bath)
10.0,4654709.0,-19.13437,70.4716
21.544346900318832,3841597.0,-23.5804,70.4817
46.41588833612777,4480144.0,-36.60305,70.4639
100.0,333275.4,-118.7361,70.4678
215.44346900318823,2858789.0,169.5359,70.4662
464.15888336127773,569562.9,0.2958319,70.4773
1000.0,529555.9,-130.2,70.4836
2154.4346900318824,270183.3,-92.52276,70.4592
4641.588833612777,115784.1,-97.37491,70.4825
10000.0,58033.97,-85.64113,70.4968
