Frequency,Impedance,Phase Angle,Temperature (Dry Bath)
10.0,3779783.0,-1.353978,66.2809
21.544346900318832,4803391.0,-19.68656,66.2679
46.41588833612777,5679988.0,-32.14373,66.2791
100.0,432980.5,83.80112,66.2668
215.44346900318823,225692.3,97.8285,66.2908
464.15888336127773,912824.0,37.5065,66.2939
1000.0,1774832.0,-23.62823,66.2889
2154.4346900318824,370896.8,-87.37593,66.2865
4641.588833612777,129948.4,-86.22757,66.2668
10000.0,63554.34,-88.7872,66.2785
