Frequency,Impedance,Phase Angle,Temperature (Dry Bath)
10.0,147473.7,-5.147114,67.9904
21.5,142735.4,-4.086112,67.9955
46.4,139224.9,-3.846252,68.0046
100.0,135807.4,-4.897981,67.9848
215.4,130373.9,-4.437415,67.9785
464.2,126936.4,-5.876226,68.0029
1000.0,124509.5,-9.260619,68.0
2154.4,116883.0,-16.96796,67.9978
4641.6,109430.3,-26.81141,68.0057
10000.0,86829.1,-48.35682,68.006
