Frequency,Impedance,Phase Angle,Temperature (Dry Bath)
10.0,7132835.0,-0.9870819,70.6031
21.544346900318832,6037754.0,-34.48654,70.6036
46.41588833612777,5266873.0,-23.47746,70.5994
100.0,826268.6,-20.76567,70.6054
215.44346900318823,546499.6,29.8176,70.5968
464.15888336127773,674106.2,-29.53275,70.5997
1000.0,1008318.0,-75.82956,70.5919
2154.4346900318824,237759.6,-63.50559,70.6013
4641.588833612777,109464.5,-98.09145,70.6043
10000.0,65873.12,-87.6249,70.5885
