Frequency,Impedance,Phase Angle,Temperature (Dry Bath)
10.0,147648.5,-4.826069,68.0176
21.5,143207.7,-4.032028,68.0198
46.4,139517.4,-3.728645,68.0151
100.0,136254.0,-4.989639,68.0101
215.4,132524.1,-4.413154,68.0119
464.2,131492.0,-7.24166,68.0189
1000.0,125372.8,-10.1183,68.0238
2154.4,119391.7,-16.23177,68.0201
4641.6,106760.4,-27.93073,68.0333
10000.0,84004.77,-47.93539,68.0196
