Frequency,Impedance,Phase Angle,Temperature (Dry Bath)
10.0,41568330.0,15.3453,68.2413
21.5,32137170.0,-11.33313,68.2388
46.4,14017240.0,-49.52438,68.2498
100.0,4741030.0,-36.53867,68.2371
215.4,15275450.0,21.008,68.2241
464.2,4081291.0,-77.8006,68.2377
1000.0,1255275.0,-88.61095,68.2246
2154.4,617002.2,-86.32269,68.2232
4641.6,291336.8,-88.2834,68.2286
10000.0,140163.5,-92.9403,68.208
