Frequency,Impedance,Phase Angle,Temperature (Dry Bath)
10.0,7168833.0,-34.73434,66.3624
21.544346900318832,6403280.0,19.33561,66.3471
46.41588833612777,5070933.0,-13.54161,66.3427
100.0,3722843.0,115.4381,66.3296
215.44346900318823,6133978.0,-19.22031,66.3472
464.15888336127773,1713039.0,-23.0284,66.3653
1000.0,6640812.0,-27.00521,66.343
2154.4346900318824,2017041.0,-52.21049,66.3486
4641.588833612777,1733817.0,-28.3124,66.3387
10000.0,642210.8,-61.88232,66.3478
