Frequency,Impedance,Phase Angle,Temperature (Dry Bath)
10.0,21252030.0,-5.003789,68.282
21.5,26009290.0,-43.35015,68.2821
46.4,21178740.0,-43.27481,68.2882
100.0,6520989.0,-97.37965,68.297
215.4,6045758.0,-45.00033,68.2907
464.2,2325838.0,-71.34661,68.2974
1000.0,1345362.0,-84.71235,68.2732
2154.4,699464.5,-88.41237,68.2925
4641.6,327940.0,-91.02722,68.2864
10000.0,139106.8,-95.79856,68.294
