Frequency,Impedance,Phase Angle,Temperature (Dry Bath)
10.0,1998642.0,-10.06241,68.1403
21.5,1855479.0,-12.61871,68.1457
46.4,1734445.0,-13.64222,68.1596
100.0,1227280.0,-17.27078,68.1283
215.4,1375819.0,-25.29845,68.1425
464.2,1174282.0,-27.97464,68.1475
1000.0,907347.3,-47.56106,68.1487
2154.4,546536.2,-61.95907,68.146
4641.6,294396.1,-78.93167,68.1469
10000.0,138063.2,-88.7296,68.1519
