Frequency,Impedance,Phase Angle,Temperature (Dry Bath)
10.0,21566170.0,-16.59364,68.0692
21.5,31756410.0,-22.40419,68.0692
46.4,31949030.0,-43.18694,68.0692
100.0,10631940.0,-64.12669,68.0692
215.4,7686975.0,-56.62357,68.0692
464.2,3511890.0,-77.22985,68.0692
1000.0,1562186.0,-87.28508,68.0692
2154.4,648176.2,-88.16915,68.0692
4641.6,314905.6,-90.1339,68.0692
10000.0,151820.0,-101.5466,68.0692
