Frequency,Impedance,Phase Angle,Temperature (Dry Bath)
10.0,81374.4,-36.4468,71.2912
21.544346900318832,61161.03,-32.28898,71.2986
46.41588833612777,47269.92,-28.19387,71.2996
100.0,38446.74,-23.86232,71.3112
215.44346900318823,88598.19,8.144254,71.3046
464.15888336127773,27148.92,-17.11374,71.2971
1000.0,21613.69,-14.25229,71.3125
2154.4346900318824,21762.04,-14.57757,71.2944
4641.588833612777,19128.09,-17.24499,71.2973
10000.0,16981.11,-21.76295,71.2998
