Frequency,Impedance,Phase Angle,Temperature (Dry Bath)
10.0,144892.1,-5.091238,68.0558
21.5,139637.6,-4.274259,68.0718
46.4,136115.0,-3.863776,68.0866
100.0,129484.9,-4.925777,68.0746
215.4,131833.3,-6.283295,68.0852
464.2,131301.7,-5.981881,68.0666
1000.0,123240.4,-10.46337,68.0784
2154.4,118371.0,-14.13431,68.073
4641.6,105223.5,-29.2125,68.079
10000.0,85456.58,-45.57477,68.0845
