Frequency,Impedance,Phase Angle,Temperature (Dry Bath)
10.0,34324450.0,-33.48396,67.0842
21.5,20895070.0,-44.4275,67.1305
46.4,12621170.0,-60.6242,67.1122
100.0,3789446.0,-83.36254,67.1156
215.4,32925730.0,174.2294,67.1158
464.2,2220271.0,-80.00827,67.104
1000.0,1061599.0,-82.27042,67.1112
2154.4,442751.5,-83.44099,67.1053
4641.6,202099.9,-83.85875,67.0929
10000.0,98584.03,-80.37165,67.1095
