Frequency,Impedance,Phase Angle,Temperature (Dry Bath)
10.0,25391510.0,-18.54194,68.1744
21.5,33583700.0,-42.38465,68.1868
46.4,23152750.0,-54.43673,68.1766
100.0,7764909.0,-49.23567,68.1756
215.4,4110483.0,-84.87277,68.1704
464.2,2353105.0,-82.47713,68.169
1000.0,1284697.0,-87.2038,68.1633
2154.4,697636.0,-87.12389,68.1859
4641.6,314216.3,-90.48757,68.1871
10000.0,134233.5,-95.13893,68.166
