Frequency,Impedance,Phase Angle,Temperature (Dry Bath)
10.0,5488258.0,-4.638558,71.5351
21.544346900318832,3956883.0,14.95965,71.5231
46.41588833612777,3807168.0,-48.25426,71.5251
100.0,990725.4,7.359203,71.5357
215.44346900318823,383103.7,-75.95234,71.5429
464.15888336127773,1168106.0,-151.5298,71.5336
1000.0,455250.2,-111.6601,71.5359
2154.4346900318824,234890.1,-98.77759,71.5371
4641.588833612777,109408.1,-85.14757,71.5296
10000.0,72216.57,-88.3355,71.5223
