Frequency,Impedance,Phase Angle,Temperature (Dry Bath)
10.0,5361700.0,-31.77513,71.4611
21.544346900318832,4025623.0,-8.535187,71.4576
46.41588833612777,5663966.0,-19.2711,71.4833
100.0,622964.4,10.07371,71.4718
215.44346900318823,681979.5,109.7863,71.4633
464.15888336127773,682996.9,90.81175,71.4601
1000.0,869316.9,-78.38192,71.4664
2154.4346900318824,334226.2,-46.59875,71.465
4641.588833612777,429157.6,-64.81132,71.4606
10000.0,136414.4,-78.42356,71.4682
