Frequency,Impedance,Phase Angle,Temperature (Dry Bath)
10.0,1606418.0,-19.14186,67.0571
21.5,1390459.0,-17.59702,67.0604
46.4,1270016.0,-15.20648,67.0669
100.0,1020629.0,-17.53595,67.0642
215.4,909386.2,-7.195205,67.0559
464.2,982319.9,-32.18878,67.0508
1000.0,711642.2,-49.78425,67.0678
2154.4,418486.6,-63.00617,67.0642
4641.6,222551.5,-74.78611,67.0544
10000.0,112856.3,-78.82633,67.0551
