Frequency,Impedance,Phase Angle,Temperature (Dry Bath)
10.0,3971401.0,2.72414,70.9173
21.544346900318832,3146213.0,3.674023,70.9273
46.41588833612777,3902534.0,-24.06839,70.9304
100.0,983182.3,81.94803,70.9273
215.44346900318823,2465221.0,-128.2644,70.9289
464.15888336127773,861537.0,10.74002,70.9188
1000.0,278486.8,-75.05271,70.9338
2154.4346900318824,349342.2,-93.39376,70.9302
4641.588833612777,140914.8,-79.78047,70.939
10000.0,54927.29,-88.83778,70.9454
