Frequency,Impedance,Phase Angle,Temperature (Dry Bath)
10.0,8350298.0,-25.32591,71.1226
21.544346900318832,4409790.0,6.551039,71.1164
46.41588833612777,5137892.0,-27.03508,71.1245
100.0,771217.5,-37.46579,71.1185
215.44346900318823,1532956.0,98.95841,71.1197
464.15888336127773,657519.9,-65.72875,71.1044
1000.0,351680.2,-92.76425,71.1122
2154.4346900318824,188234.5,-89.87511,71.1167
4641.588833612777,210863.3,-116.2635,71.1237
10000.0,66402.74,-85.91584,71.1122
