Frequency,Impedance,Phase Angle,Temperature (Dry Bath)
10.0,3443082.0,6.635175,65.6883
21.544346900318832,3754894.0,-10.1044,65.6944
46.41588833612777,3512137.0,-29.79436,65.6949
100.0,226411.6,148.942,65.6974
215.44346900318823,507491.2,39.32568,65.6798
464.15888336127773,1463876.0,-78.68525,65.683
1000.0,577574.8,-18.09597,65.6916
2154.4346900318824,251997.4,-55.56494,65.6859
4641.588833612777,156368.0,-90.02032,65.6876
10000.0,68670.72,-83.83319,65.6753
