Frequency,Impedance,Phase Angle,Temperature (Dry Bath)
10.0,65667.54,-37.50709,68.137
21.5,49374.78,-34.73075,68.1329
46.4,37839.28,-30.96781,68.1474
100.0,29510.7,-27.15845,68.1395
215.4,24402.52,-22.33321,68.1241
464.2,20981.3,-18.37843,68.1323
1000.0,18183.65,-15.27244,68.1192
2154.4,16790.97,-14.23214,68.1328
4641.6,14775.7,-13.7528,68.1283
10000.0,13839.51,-16.25525,68.1378
