Frequency,Impedance,Phase Angle,Temperature (Dry Bath)
10.0,7858516.0,-32.96423,70.9409
21.544346900318832,3611848.0,-32.17339,70.9486
46.41588833612777,4132656.0,-25.06702,70.9726
100.0,585403.6,-173.0599,70.9628
215.44346900318823,780296.9,143.6738,70.9565
464.15888336127773,529593.8,-124.6937,70.9777
1000.0,479464.1,-84.5573,70.9616
2154.4346900318824,254034.5,-109.5944,70.9546
4641.588833612777,118416.8,-91.64941,70.979
10000.0,61152.94,-89.41181,70.9639
