Frequency,Impedance,Phase Angle,Temperature (Dry Bath)
10.0,33492820.0,-32.35274,68.055
21.5,30333350.0,-44.86272,68.0734
46.4,30389840.0,-44.09554,68.0573
100.0,13377480.0,-23.06276,68.0693
215.4,4384877.0,-104.8519,68.0612
464.2,2012931.0,-96.2655,68.0849
1000.0,1231251.0,-88.15588,68.0829
2154.4,669557.0,-90.20903,68.0849
4641.6,323404.9,-93.05712,68.0691
10000.0,136638.5,-95.96892,68.0654
