Frequency,Impedance,Phase Angle,Temperature (Dry Bath)
10.0,21815800.0,-19.06044,67.998
21.5,19865430.0,-27.52044,67.9961
46.4,18876480.0,-42.83768,67.9958
100.0,4943277.0,-23.04537,67.9957
215.4,4580333.0,-67.29817,67.9808
464.2,2453323.0,-89.48571,67.986
1000.0,1378915.0,-82.46778,67.9957
2154.4,589217.5,-86.20676,67.9856
4641.6,265709.3,-94.30457,67.979
10000.0,140657.5,-97.94313,67.9864
