Frequency,Impedance,Phase Angle,Temperature (Dry Bath)
10.0,4388615.0,9.310894,71.6253
21.544346900318832,5161637.0,-29.75488,71.6294
46.41588833612777,4747174.0,-13.6014,71.6059
100.0,1438804.0,133.5769,71.6277
215.44346900318823,3360920.0,-154.1558,71.6245
464.15888336127773,485841.8,-83.38786,71.6325
1000.0,526522.7,-60.40868,71.6133
2154.4346900318824,275454.2,-88.94371,71.615
4641.588833612777,360582.1,-84.19815,71.6574
10000.0,146906.9,-74.85292,71.6218
