Frequency,Impedance,Phase Angle,Temperature (Dry Bath)
10.0,4018589.0,9.184174,72.1225
21.544346900318832,6556327.0,-34.83992,72.1087
46.41588833612777,6449863.0,-3.493547,72.1413
100.0,710622.3,-9.710008,72.1327
215.44346900318823,311535.4,143.6935,72.134
464.15888336127773,357306.9,29.01105,72.1313
1000.0,357051.1,-61.71916,72.1416
2154.4346900318824,343190.0,-178.9239,72.1194
4641.588833612777,471687.1,-84.46345,72.1273
10000.0,120455.9,-80.65059,72.1365
