Frequency,Impedance,Phase Angle,Temperature (Dry Bath)
10.0,1544375.0,-15.14008,67.8942
21.5,1393446.0,-14.64126,67.9005
46.4,1211639.0,-13.87135,67.9012
100.0,977266.1,-14.77027,67.8897
215.4,871182.6,-17.85483,67.8897
464.2,833491.9,-27.24611,67.9184
1000.0,742995.1,-41.79104,67.8919
2154.4,495850.5,-60.29101,67.9052
4641.6,256964.8,-69.25268,67.8728
10000.0,140795.1,-88.00506,67.8765
