Frequency,Impedance,Phase Angle,Temperature (Dry Bath)
10.0,303498.3,-23.43991,65.7621
21.544346900318832,260191.5,-22.17247,65.7692
46.41588833612777,220436.6,-19.69003,65.7674
100.0,140273.9,-37.70288,65.7695
215.44346900318823,124182.9,-57.96921,65.7682
464.15888336127773,148556.2,-25.5332,65.7561
1000.0,129723.3,-29.74728,65.7678
2154.4346900318824,96278.27,-38.77053,65.7707
4641.588833612777,80759.01,-44.98463,65.7698
10000.0,50577.91,-56.3403,65.7707
