Frequency,Impedance,Phase Angle,Temperature (Dry Bath)
10.0,28283340.0,-16.54887,67.1544
21.5,27332690.0,-53.17248,67.1476
46.4,21116630.0,-80.74276,67.1366
100.0,5453548.0,-46.99556,67.1449
215.4,947529.9,-114.9377,67.1399
464.2,2015954.0,-87.66502,67.137
1000.0,807427.6,-86.26499,67.1538
2154.4,420714.2,-84.24825,67.1285
4641.6,194174.4,-84.26535,67.1455
10000.0,100343.3,-80.75335,67.1362
