Frequency,Impedance,Phase Angle,Temperature (Dry Bath)
10.0,118110.8,-3.740937,67.3188
21.5,115769.7,-3.35014,67.3324
46.4,113379.9,-3.037956,67.3258
100.0,114149.1,-4.091422,67.311
215.4,110960.6,-2.008456,67.3263
464.2,110321.5,-6.225045,67.3331
1000.0,104741.7,-8.549032,67.338
2154.4,100744.4,-14.94903,67.314
4641.6,92095.81,-25.07674,67.3144
10000.0,73271.3,-39.26028,67.3213
