Frequency,Impedance,Phase Angle,Temperature (Dry Bath)
10.0,117292.6,-3.098187,67.4168
21.5,115140.2,-2.655491,67.4141
46.4,113131.4,-2.58326,67.4291
100.0,111520.2,-2.150721,67.4177
215.4,112047.6,-29.18976,67.433
464.2,107102.9,-5.284126,67.4135
1000.0,104730.8,-8.542693,67.4209
2154.4,98993.04,-13.82918,67.4169
4641.6,90862.74,-24.98374,67.4119
10000.0,70545.91,-42.05196,67.4047
