Frequency,Impedance,Phase Angle,Temperature (Dry Bath)
10.0,35820420.0,-17.14223,68.2754
21.5,33453980.0,-44.55804,68.2754
46.4,12063460.0,-57.4577,68.2754
100.0,5427641.0,-48.5147,68.2754
215.4,6640446.0,-80.12564,68.2754
464.2,3269630.0,-67.2773,68.2754
1000.0,1232488.0,-79.40573,68.2754
2154.4,571671.1,-84.35489,68.2754
4641.6,263596.5,-87.8145,68.2754
10000.0,133817.1,-95.18786,68.2754
