Frequency,Impedance,Phase Angle,Temperature (Dry Bath)
10.0,26634760.0,-15.64639,67.4126
21.5,22904820.0,-36.24665,67.4216
46.4,19619580.0,-53.36206,67.4067
100.0,3105457.0,-16.27118,67.4242
215.4,10981550.0,-87.23227,67.4031
464.2,2490468.0,-66.7424,67.4208
1000.0,1153803.0,-85.25179,67.435
2154.4,577117.8,-79.69104,67.4205
4641.6,265222.2,-83.16437,67.4413
10000.0,122076.8,-85.43578,67.4212
