Frequency,Impedance,Phase Angle,Temperature (Dry Bath)
10.0,38400570.0,-19.03384,66.436
21.5,23853930.0,-8.978013,66.4341
46.4,16490570.0,-46.30808,66.4441
100.0,2857186.0,-61.96703,66.4601
215.4,214606.0,-168.5252,66.4474
464.2,1592447.0,-68.7852,66.4505
1000.0,1244287.0,-85.3794,66.4559
2154.4,526741.4,-89.37725,66.4491
4641.6,267524.9,-88.01837,66.4814
10000.0,126258.2,-86.65554,66.4784
