Frequency,Impedance,Phase Angle,Temperature (Dry Bath)
10.0,26436150.0,-27.36891,68.0105
21.5,36979360.0,-30.4627,68.0171
46.4,23638270.0,-52.08102,68.0072
100.0,11695820.0,-40.52214,68.0144
215.4,4347569.0,-73.61863,68.0008
464.2,2661676.0,-73.77524,67.9971
1000.0,1270781.0,-88.13235,68.0131
2154.4,616678.2,-86.89115,68.0154
4641.6,283562.2,-85.32719,68.0157
10000.0,127050.0,-96.92226,68.0325
