Frequency,Impedance,Phase Angle,Temperature (Dry Bath)
10.0,462654.0,-8.742282,71.0907
21.544346900318832,428048.2,-10.67487,71.0859
46.41588833612777,375607.7,-9.946412,71.0984
100.0,180001.9,-25.20867,71.0861
215.44346900318823,304006.7,-34.63088,71.0672
464.15888336127773,544459.4,-44.92081,71.0799
1000.0,206359.7,-66.22769,71.0788
2154.4346900318824,166340.7,-53.45437,71.0789
4641.588833612777,105754.0,-38.16942,71.0962
10000.0,84567.81,-33.50471,71.0783
