Frequency,Impedance,Phase Angle,Temperature (Dry Bath)
10.0,5415117.0,4.865701,71.4126
21.544346900318832,4847280.0,-3.800554,71.4066
46.41588833612777,6566861.0,-5.67793,71.4267
100.0,851452.0,106.335,71.425
215.44346900318823,2732582.0,-72.29695,71.429
464.15888336127773,1681424.0,-91.62475,71.42
1000.0,1775463.0,-109.108,71.4131
2154.4346900318824,377590.7,-81.8491,71.421
4641.588833612777,297440.9,-96.90681,71.431
10000.0,148348.9,-91.43067,71.4254
