Frequency,Impedance,Phase Angle,Temperature (Dry Bath)
10.0,59570.41,-32.44021,67.4341
21.5,46615.55,-28.26483,67.4293
46.4,38434.87,-24.1718,67.4429
100.0,32503.14,-20.31402,67.4183
215.4,28853.75,-17.71691,67.4398
464.2,25805.01,-14.57885,67.4361
1000.0,23405.14,-12.5224,67.4625
2154.4,21550.09,-11.60961,67.4341
4641.6,19978.37,-12.07578,67.4511
10000.0,18530.4,-15.10631,67.4443
