Frequency,Impedance,Phase Angle,Temperature (Dry Bath)
10.0,1151951.0,-8.630266,72.2127
21.544346900318832,995762.3,-6.106935,72.2392
46.41588833612777,942193.4,-6.740952,72.2386
100.0,602804.1,-100.6355,72.2266
215.44346900318823,4709611.0,-21.0835,72.2176
464.15888336127773,378179.6,42.72535,72.2445
1000.0,259230.3,-81.69776,72.2107
2154.4346900318824,142769.0,-70.55709,72.227
4641.588833612777,153302.3,-40.36335,72.2328
10000.0,130185.9,-81.38121,72.2433
