Frequency,Impedance,Phase Angle,Temperature (Dry Bath)
10.0,768076.4,-10.87388,67.6838
21.5,691397.4,-10.71815,67.6794
46.4,643758.9,-10.76834,67.6695
100.0,546184.0,-15.89481,67.6765
215.4,544859.2,-13.09332,67.6819
464.2,469789.9,-17.76866,67.6757
1000.0,416840.4,-31.61411,67.6683
2154.4,314526.8,-39.80647,67.6778
4641.6,222109.0,-54.85463,67.6854
10000.0,124253.6,-72.49913,67.6726
