Frequency,Impedance,Phase Angle,Temperature (Dry Bath)
10.0,7410768.0,26.43468,71.4952
21.544346900318832,4245212.0,10.46641,71.5086
46.41588833612777,3674185.0,-5.828826,71.5037
100.0,1230942.0,-57.07246,71.501
215.44346900318823,1380186.0,24.87392,71.4989
464.15888336127773,545068.4,-14.4831,71.4968
1000.0,1970092.0,-110.7856,71.5
2154.4346900318824,664382.6,-84.4537,71.5031
4641.588833612777,373240.6,-84.22835,71.4926
10000.0,133098.0,-96.2283,71.4974
