Frequency,Impedance,Phase Angle,Temperature (Dry Bath)
10.0,28976480.0,-7.786786,67.3767
21.5,31838980.0,-27.47736,67.3798
46.4,17208050.0,-55.16731,67.3846
100.0,20396830.0,-123.7201,67.3921
215.4,169624.4,-98.53168,67.3848
464.2,1281984.0,-68.21729,67.3673
1000.0,1285571.0,-75.42171,67.3925
2154.4,570866.5,-82.5653,67.3781
4641.6,276129.1,-84.78265,67.3843
10000.0,136028.4,-86.23077,67.3901
