Frequency,Impedance,Phase Angle,Temperature (Dry Bath)
10.0,567905.9,-26.90858,71.2819
21.544346900318832,458409.4,-25.45362,71.293
46.41588833612777,371736.3,-22.97408,71.2928
100.0,1109355.0,-46.23003,71.287
215.44346900318823,168705.7,35.29125,71.2997
464.15888336127773,229926.4,-30.57956,71.296
1000.0,144089.1,-19.43213,71.2771
2154.4346900318824,130392.8,-43.57519,71.3023
4641.588833612777,99660.61,-55.72851,71.2884
10000.0,49829.81,-68.61346,71.2886
