Frequency,Impedance,Phase Angle,Temperature (Dry Bath)
10.0,4336983.0,8.350052,71.6701
21.544346900318832,4696618.0,-16.68097,71.6809
46.41588833612777,4798032.0,0.01223525,71.6698
100.0,3030818.0,151.1472,71.6743
215.44346900318823,394690.6,77.4277,71.6793
464.15888336127773,370511.8,-139.6576,71.6666
1000.0,406975.0,-86.65122,71.6695
2154.4346900318824,284865.5,-100.098,71.6784
4641.588833612777,442170.2,9.789924,71.6798
10000.0,122559.6,-82.02705,71.6845
