Frequency,Impedance,Phase Angle,Temperature (Dry Bath)
10.0,507847.7,-28.17065,66.2465
21.544346900318832,417295.8,-26.09251,66.2274
46.41588833612777,338359.0,-24.89389,66.2396
100.0,232983.8,-27.89105,66.2479
215.44346900318823,226826.8,-26.5964,66.2525
464.15888336127773,203403.2,-33.17891,66.2496
1000.0,187235.3,-17.52803,66.2781
2154.4346900318824,135438.8,-38.25033,66.2674
4641.588833612777,83933.24,-57.47527,66.2729
10000.0,51746.86,-64.3675,66.2923
