Frequency,Impedance,Phase Angle,Temperature (Dry Bath)
10.0,17127010.0,-20.21917,68.1257
21.5,14880060.0,-30.10107,68.1076
46.4,19997240.0,-52.28092,68.1322
100.0,4804133.0,-59.68027,68.1414
215.4,4968297.0,-67.07204,68.1377
464.2,3152946.0,-111.2645,68.1265
1000.0,1275741.0,-79.48407,68.135
2154.4,576304.9,-88.35422,68.1495
4641.6,254119.1,-88.03844,68.1475
10000.0,140326.0,-96.06687,68.1397
