Frequency,Impedance,Phase Angle,Temperature (Dry Bath)
10.0,6563805.0,-14.73223,67.9999
21.5,5741111.0,-14.45563,68.0156
46.4,6401087.0,-26.12092,68.0233
100.0,3126003.0,-44.28789,68.0229
215.4,3026356.0,-45.6095,68.0236
464.2,2208058.0,-71.63736,68.0148
1000.0,1164390.0,-75.63959,68.0188
2154.4,654060.6,-86.02104,68.0139
4641.6,300268.0,-92.83316,68.003
10000.0,138792.7,-92.10328,68.0188
