Frequency,Impedance,Phase Angle,Temperature (Dry Bath)
10.0,231920.6,-22.99663,67.1956
21.5,196036.5,-20.36155,67.1834
46.4,169201.0,-17.69162,67.1975
100.0,149461.2,-15.20832,67.1778
215.4,132137.9,-11.01232,67.1804
464.2,122597.2,-14.64303,67.1942
1000.0,115299.6,-16.6158,67.1988
2154.4,98330.31,-21.48491,67.1799
4641.6,81762.78,-30.53616,67.2005
10000.0,61740.0,-42.34107,67.1778
