Frequency,Impedance,Phase Angle,Temperature (Dry Bath)
10.0,6243446.0,13.66219,71.1295
21.544346900318832,6810446.0,-34.58082,71.1323
46.41588833612777,4646101.0,-44.90168,71.1238
100.0,969240.5,19.02168,71.1072
215.44346900318823,1506774.0,-98.73464,71.1236
464.15888336127773,421235.7,-69.56675,71.1452
1000.0,381243.2,-109.3259,71.1198
2154.4346900318824,252819.5,-76.01088,71.1195
4641.588833612777,125722.1,-83.17726,71.1157
10000.0,61188.6,-84.44445,71.1151
