Frequency,Impedance,Phase Angle,Temperature (Dry Bath)
10.0,18634670.0,-27.2662,68.0595
21.5,16279560.0,-34.5076,68.071
46.4,14796190.0,-44.86713,68.0715
100.0,5501678.0,-26.57734,68.0623
215.4,6604419.0,-52.4605,68.0688
464.2,2565092.0,-97.61211,68.0562
1000.0,1347360.0,-88.39289,68.0698
2154.4,550312.5,-88.60086,68.0611
4641.6,300831.7,-91.74612,68.0495
10000.0,148029.4,-98.41981,68.0619
