Frequency,Impedance,Phase Angle,Temperature (Dry Bath)
10.0,23517120.0,-13.14417,67.2044
21.5,23809510.0,-24.1127,67.2032
46.4,28682640.0,-16.8244,67.1979
100.0,14963690.0,-46.27134,67.2121
215.4,247893.0,44.98333,67.2088
464.2,2695205.0,-91.70322,67.2223
1000.0,1201576.0,-93.74907,67.2215
2154.4,587204.9,-87.22346,67.2137
4641.6,259102.9,-86.13485,67.2047
10000.0,124071.2,-86.91561,67.197
