Frequency,Impedance,Phase Angle,Temperature (Dry Bath)
10.0,174919.4,-12.49234,71.1308
21.544346900318832,160596.2,-11.82508,71.1335
46.41588833612777,145091.3,-11.4374,71.1359
100.0,208015.1,-10.88824,71.1441
215.44346900318823,103520.7,-19.06573,71.1341
464.15888336127773,95070.84,-15.93549,71.1348
1000.0,89510.08,-39.93756,71.1382
2154.4346900318824,94668.14,-26.62436,71.141
4641.588833612777,78536.23,-31.1534,71.1255
10000.0,49393.07,-53.53745,71.1366
