Frequency,Impedance,Phase Angle,Temperature (Dry Bath)
10.0,29010300.0,-2.477058,67.2506
21.5,17929450.0,-32.7851,67.2437
46.4,16392820.0,-54.21629,67.2576
100.0,8581437.0,-87.87116,67.2354
215.4,7586923.0,-73.14624,67.2524
464.2,2081555.0,-68.70382,67.2567
1000.0,996044.7,-72.03744,67.2788
2154.4,527968.2,-89.05093,67.2748
4641.6,259487.3,-85.07429,67.2577
10000.0,130602.1,-84.82669,67.2588
