Frequency,Impedance,Phase Angle,Temperature (Dry Bath)
10.0,118611.5,-3.38504,67.3158
21.5,116558.8,-3.141233,67.326
46.4,115375.0,-3.206538,67.325
100.0,109956.0,-3.084308,67.3253
215.4,111186.1,-8.108474,67.3338
464.2,112346.5,-6.14722,67.3299
1000.0,106754.9,-9.501784,67.3309
2154.4,102223.0,-13.89691,67.3237
4641.6,91776.75,-24.70879,67.3361
10000.0,72133.38,-39.58216,67.3182
