Frequency,Impedance,Phase Angle,Temperature (Dry Bath)
10.0,1501086.0,-15.70124,67.2632
21.5,1317307.0,-12.92826,67.2137
46.4,1235070.0,-13.62654,67.2225
100.0,1597632.0,-11.98902,67.2169
215.4,1102404.0,-5.86135,67.2058
464.2,799572.2,-23.46481,67.2455
1000.0,610754.5,-35.95968,67.1926
2154.4,528129.6,-52.61647,67.2057
4641.6,263394.1,-71.5881,67.2085
10000.0,129760.6,-80.32196,67.1766
