Frequency,Impedance,Phase Angle,Temperature (Dry Bath)
10.0,4840815.0,-19.90723,66.3514
21.544346900318832,7424126.0,-32.15646,66.3418
46.41588833612777,4970702.0,-11.96256,66.3307
100.0,829093.7,-53.91304,66.3459
215.44346900318823,618779.6,92.83953,66.3435
464.15888336127773,898486.7,-40.12515,66.3382
1000.0,427393.9,-100.8519,66.3424
2154.4346900318824,261776.1,-84.34389,66.3421
4641.588833612777,139719.3,-81.20386,66.3408
10000.0,76169.86,-86.08386,66.3613
