Frequency,Impedance,Phase Angle,Temperature (Dry Bath)
10.0,26605070.0,-34.69941,67.6857
21.5,20157870.0,-35.74313,67.6856
46.4,20023950.0,-48.24305,67.6974
100.0,8515129.0,83.25293,67.6828
215.4,6910168.0,-69.51944,67.6652
464.2,2395830.0,-91.43893,67.7126
1000.0,1156217.0,-90.07469,67.6798
2154.4,610668.2,-84.89699,67.6792
4641.6,267125.4,-94.28375,67.7293
10000.0,152419.5,-98.0137,67.7089
