Frequency,Impedance,Phase Angle,Temperature (Dry Bath)
10.0,3887668.0,-11.5254,71.3338
21.544346900318832,5173600.0,-27.63241,71.33
46.41588833612777,4055154.0,-22.95747,71.3336
100.0,640708.1,98.09479,71.3345
215.44346900318823,942226.9,77.76448,71.3234
464.15888336127773,655875.9,-60.18965,71.3225
1000.0,199630.6,-75.08764,71.3197
2154.4346900318824,260212.4,-84.07157,71.3175
4641.588833612777,160307.3,-90.42843,71.3251
10000.0,70402.67,-88.10975,71.3197
