Frequency,Impedance,Phase Angle,Temperature (Dry Bath)
10.0,21522030.0,-25.59599,67.2818
21.5,21258990.0,-38.57044,67.246
46.4,14881210.0,-59.85352,67.2672
100.0,6431811.0,-44.1754,67.2503
215.4,2421770.0,-55.3172,67.2501
464.2,2232170.0,-69.126,67.2294
1000.0,1203862.0,-72.04405,67.2487
2154.4,529192.3,-85.13291,67.2437
4641.6,257109.6,-83.39696,67.2364
10000.0,124551.9,-83.87376,67.2503
