Frequency,Impedance,Phase Angle,Temperature (Dry Bath)
10.0,762733.4,-11.3241,67.739
21.5,693560.6,-10.10955,67.758
46.4,653765.1,-10.46912,67.7639
100.0,552504.0,-8.943409,67.7486
215.4,553420.6,-15.22846,67.7462
464.2,505037.0,-21.91948,67.7577
1000.0,408723.8,-29.17243,67.7534
2154.4,306266.6,-40.60775,67.7508
4641.6,229716.4,-54.87168,67.7465
10000.0,127325.5,-72.70543,67.7438
