Frequency,Impedance,Phase Angle,Temperature (Dry Bath)
10.0,158074.4,-17.21608,28.7181
21.544346900318832,140779.9,-14.54733,28.7135
46.41588833612777,125338.8,-13.61449,28.7212
100.0,100249.5,-14.07293,28.7784
215.44346900318823,100879.0,-10.70985,28.4284
464.15888336127773,98046.04,-14.34828,28.8178
1000.0,103514.3,-20.32847,28.7972
2154.4346900318824,76997.21,-18.20634,28.7753
4641.588833612777,83069.91,-16.21734,28.7775
10000.0,54633.62,-35.06346,28.6864
