Frequency,Impedance,Phase Angle,Temperature (Dry Bath)
10.0,40897190.0,-23.80629,67.0484
21.5,24887870.0,-49.90489,67.0512
46.4,13746090.0,-65.13936,67.0718
100.0,2745351.0,-31.53333,67.0462
215.4,4472106.0,-132.8286,67.0453
464.2,2200564.0,-91.22417,67.0467
1000.0,998901.4,-77.45263,67.0536
2154.4,418868.7,-87.26464,67.0488
4641.6,204103.9,-80.84731,67.0503
10000.0,100692.7,-80.22603,67.0466
