Frequency,Impedance,Phase Angle,Temperature (Dry Bath)
10.0,4532370.0,10.82105,71.46
21.544346900318832,4686688.0,1.148052,71.4742
46.41588833612777,4173823.0,-24.73088,71.4401
100.0,415584.6,-3.373141,71.4797
215.44346900318823,747158.8,15.71487,71.4635
464.15888336127773,730644.0,-80.40115,71.4719
1000.0,510630.6,-103.5186,71.4608
2154.4346900318824,1351583.0,-81.56553,71.4744
4641.588833612777,250850.9,-91.19397,71.4703
10000.0,162216.3,-86.1979,71.4726
