Frequency,Impedance,Phase Angle,Temperature (Dry Bath)
10.0,129224.0,-3.859556,67.3074
21.5,126424.0,-3.48107,67.3056
46.4,123041.8,-3.231499,67.3032
100.0,121896.5,-3.15172,67.3002
215.4,117840.8,-6.679681,67.2975
464.2,115271.7,-6.453345,67.3002
1000.0,110611.3,-9.870797,67.3045
2154.4,103746.4,-15.53921,67.2995
4641.6,90974.31,-25.617,67.3034
10000.0,71493.51,-42.06785,67.3102
