Frequency,Impedance,Phase Angle,Temperature (Dry Bath)
10.0,18191130.0,-12.70714,68.0409
21.5,18068950.0,-24.41425,68.0326
46.4,19101350.0,-47.12667,68.0331
100.0,4726239.0,-92.25546,68.0406
215.4,5622889.0,-93.88939,68.0167
464.2,2130147.0,-87.09567,68.042
1000.0,1399336.0,-90.15276,68.0377
2154.4,631250.5,-86.08617,68.0603
4641.6,270307.1,-90.40098,68.0473
10000.0,135705.0,-93.74287,68.0294
