Frequency,Impedance,Phase Angle,Temperature (Dry Bath)
10.0,5340984.0,-12.87501,70.7869
21.544346900318832,6317394.0,4.899503,70.7858
46.41588833612777,3814826.0,-18.1916,70.7759
100.0,513090.4,-149.9061,70.7889
215.44346900318823,865700.9,89.51245,70.7789
464.15888336127773,726638.0,-113.3989,70.7829
1000.0,254114.5,-167.6184,70.7934
2154.4346900318824,238735.1,-115.6327,70.7696
4641.588833612777,149694.8,-93.09302,70.7764
10000.0,63142.51,-88.14218,70.784
