Frequency,Impedance,Phase Angle,Temperature (Dry Bath)
10.0,52388530.0,-17.7075,67.4339
21.5,23955140.0,-34.65624,67.4443
46.4,15902270.0,-23.58028,67.4485
100.0,7593947.0,29.45606,67.4322
215.4,143649.8,29.5492,67.4409
464.2,2705198.0,-93.17589,67.416
1000.0,1055179.0,-77.80988,67.4406
2154.4,548631.6,-86.99403,67.4322
4641.6,262316.9,-85.12601,67.4409
10000.0,124386.4,-85.45623,67.4466
