Frequency,Impedance,Phase Angle,Temperature (Dry Bath)
10.0,5044317.0,12.0855,70.8194
21.544346900318832,3673540.0,0.6484047,70.816
46.41588833612777,7094447.0,-10.13246,70.8241
100.0,350564.2,12.49016,70.8296
215.44346900318823,959338.1,-75.7012,70.7959
464.15888336127773,1437201.0,-96.06997,70.8287
1000.0,538711.1,157.2818,70.8434
2154.4346900318824,387689.7,-84.70342,70.837
4641.588833612777,146471.9,-71.05644,70.8317
10000.0,63505.02,-98.09458,70.83
