Frequency,Impedance,Phase Angle,Temperature (Dry Bath)
10.0,33474540.0,-28.94552,67.6437
21.5,44244240.0,-21.64278,67.6383
46.4,49723810.0,-45.19598,67.6433
100.0,5513132.0,-36.82282,67.6515
215.4,9225683.0,-89.43363,67.6693
464.2,3642537.0,-85.40381,67.6473
1000.0,1447300.0,-84.46519,67.6612
2154.4,791017.4,-85.5652,67.6549
4641.6,298010.9,-95.57478,67.6683
10000.0,143936.3,-102.4305,67.6498
