Frequency,Impedance,Phase Angle,Temperature (Dry Bath)
10.0,3166380.0,-30.76365,70.8902
21.544346900318832,5758470.0,-19.59765,70.8797
46.41588833612777,3374584.0,-16.08081,70.8872
100.0,366093.2,-40.24156,70.8805
215.44346900318823,1174923.0,90.20248,70.8753
464.15888336127773,1082773.0,168.4793,70.894
1000.0,309393.7,-47.05274,70.8986
2154.4346900318824,239499.6,-63.91609,70.8958
4641.588833612777,151238.7,-86.82482,70.878
10000.0,66293.03,-85.78581,70.8562
