Frequency,Impedance,Phase Angle,Temperature (Dry Bath)
10.0,1552818.0,-19.46831,66.9949
21.5,1375200.0,-16.00006,66.9858
46.4,1252676.0,-15.16915,66.9917
100.0,1120644.0,-15.08867,66.9893
215.4,98805.63,107.717,67.0035
464.2,1116599.0,-24.02657,67.0051
1000.0,641227.9,-49.61046,67.0029
2154.4,424523.0,-62.40097,66.9999
4641.6,224628.9,-70.58936,66.9834
10000.0,109506.1,-80.17394,66.9959
