Frequency,Impedance,Phase Angle,Temperature (Dry Bath)
10.0,20153000.0,-2.555687,67.2105
21.5,23454200.0,-44.35667,67.2027
46.4,10651930.0,-72.17006,67.193
100.0,5369036.0,-27.96728,67.1999
215.4,174945.5,67.00873,67.2079
464.2,1988122.0,-96.26764,67.1985
1000.0,985113.6,-92.0903,67.2001
2154.4,565808.5,-86.61741,67.1906
4641.6,268371.2,-85.89492,67.204
10000.0,124689.7,-85.69625,67.2115
