Frequency,Impedance,Phase Angle,Temperature (Dry Bath)
10.0,30741830.0,-26.80618,68.188
21.5,29506610.0,-25.10604,68.1823
46.4,20028100.0,-52.35243,68.2053
100.0,5950022.0,-43.28872,68.2001
215.4,9039413.0,-99.57657,68.1864
464.2,2583961.0,-91.03571,68.1854
1000.0,1429979.0,-84.70934,68.1904
2154.4,718806.3,-86.32948,68.1867
4641.6,300576.5,-86.7175,68.1931
10000.0,153900.0,-97.16855,68.1922
