Frequency,Impedance,Phase Angle,Temperature (Dry Bath)
10.0,18992230.0,0.6891898,67.9343
21.5,22570820.0,-19.72045,67.9212
46.4,23737620.0,-51.58424,67.9421
100.0,4067601.0,-35.11995,67.929
215.4,4542630.0,-56.56854,67.9239
464.2,4249879.0,-102.0703,67.933
1000.0,1558980.0,-82.24756,67.9209
2154.4,679955.0,-91.68582,67.9415
4641.6,352147.7,-92.07407,67.9191
10000.0,155615.3,-96.168,67.9109
