Frequency,Impedance,Phase Angle,Temperature (Dry Bath)
10.0,1553452.0,-16.73954,67.7809
21.5,1410305.0,-15.29753,67.7882
46.4,1248972.0,-14.33705,67.7784
100.0,1029649.0,-19.0747,67.7852
215.4,1034130.0,-24.43765,67.7956
464.2,815993.6,-24.24286,67.794
1000.0,715972.5,-43.20483,67.792
2154.4,505081.0,-60.60075,67.7875
4641.6,276584.4,-76.62319,67.7884
10000.0,122969.2,-86.12316,67.7964
