Frequency,Impedance,Phase Angle,Temperature (Dry Bath)
10.0,7967543.0,-11.96901,71.1305
21.544346900318832,3437172.0,10.1423,71.1446
46.41588833612777,5689165.0,-20.94365,71.1553
100.0,762367.3,-68.34928,71.1422
215.44346900318823,690826.8,-76.40694,71.1246
464.15888336127773,1642130.0,36.9123,71.1347
1000.0,163389.7,-44.81309,71.1339
2154.4346900318824,327842.0,-63.00933,71.1242
4641.588833612777,121869.5,-81.33533,71.1305
10000.0,62143.85,-88.15491,71.1329
