Frequency,Impedance,Phase Angle,Temperature (Dry Bath)
10.0,1563349.0,-20.94503,65.724
21.544346900318832,1538628.0,-27.58916,65.7297
46.41588833612777,1076515.0,-19.5383,65.7311
100.0,946349.6,1.121925,65.717
215.44346900318823,22696.83,-26.59941,65.7334
464.15888336127773,531754.9,-50.18078,65.7177
1000.0,286589.0,-85.09928,65.7355
2154.4346900318824,296621.4,-68.96305,65.7353
4641.588833612777,143511.9,-83.11891,65.7145
10000.0,74044.95,-83.48921,65.7245
