Frequency,Impedance,Phase Angle,Temperature (Dry Bath)
10.0,10128790.0,-12.18893,68.0045
21.5,10171340.0,-14.30808,67.9756
46.4,8966508.0,-22.92026,67.9812
100.0,2443252.0,-22.87466,67.9774
215.4,3201191.0,-56.46525,67.9674
464.2,2716402.0,-60.28614,67.9872
1000.0,1209028.0,-73.46369,67.9685
2154.4,581869.9,-83.75471,67.9856
4641.6,311152.0,-89.03277,67.9853
10000.0,134759.3,-97.10424,67.9633
