Frequency,Impedance,Phase Angle,Temperature (Dry Bath)
10.0,177065.1,-12.02787,71.3134
21.544346900318832,164315.0,-11.60587,71.3001
46.41588833612777,147047.3,-11.38659,71.3083
100.0,104596.7,-4.659392,71.3091
215.44346900318823,164176.8,-9.931321,71.3086
464.15888336127773,107543.3,-3.53705,71.3202
1000.0,97950.64,-18.39607,71.3183
2154.4346900318824,89362.86,-25.49088,71.3317
4641.588833612777,81056.21,-25.02693,71.323
10000.0,50979.81,-58.4146,71.3036
