Frequency,Impedance,Phase Angle,Temperature (Dry Bath)
10.0,42647.36,-14.52349,70.6708
21.544346900318832,38565.11,-12.53038,70.675
46.41588833612777,35283.06,-11.48155,70.6803
100.0,31396.97,-9.380755,70.6734
215.44346900318823,30479.08,-10.08789,70.6842
464.15888336127773,27787.6,-9.384418,70.6719
1000.0,25824.73,-7.6551,70.6821
2154.4346900318824,24104.37,-10.19294,70.6839
4641.588833612777,21192.32,-16.1364,70.6529
10000.0,19063.87,-24.50357,70.6577
