Frequency,Impedance,Phase Angle,Temperature (Dry Bath)
10.0,26972640.0,-0.3435962,68.0553
21.5,16381790.0,-23.87543,68.0705
46.4,17060800.0,-59.03072,68.0655
100.0,5163546.0,-56.86682,68.078
215.4,3812890.0,-92.92394,68.0667
464.2,2625026.0,-77.33964,68.0683
1000.0,1186382.0,-79.28699,68.0675
2154.4,614985.9,-83.95278,68.0641
4641.6,268138.6,-89.40978,68.0611
10000.0,147037.5,-96.65752,68.0594
