Frequency,Impedance,Phase Angle,Temperature (Dry Bath)
10.0,24250130.0,-24.29933,68.0692
21.5,19183660.0,-41.59193,68.0692
46.4,21086220.0,-45.09963,68.0692
100.0,8661653.0,-58.57229,68.0692
215.4,4325964.0,-93.84686,68.0692
464.2,3387640.0,-90.75262,68.0692
1000.0,1325547.0,-81.10277,68.0692
2154.4,630776.0,-86.63437,68.0692
4641.6,300805.7,-87.79703,68.0692
10000.0,142549.5,-95.50492,68.0692
