Frequency,Impedance,Phase Angle,Temperature (Dry Bath)
10.0,725301.7,-10.77652,67.7669
21.5,664300.7,-10.26695,67.7416
46.4,629314.7,-10.96702,67.7377
100.0,555667.6,-11.5249,67.7269
215.4,530213.2,-13.97395,67.7418
464.2,511558.9,-21.16486,67.7244
1000.0,404041.7,-30.98203,67.7445
2154.4,322296.1,-41.01312,67.7376
4641.6,216949.2,-58.45899,67.7239
10000.0,114977.4,-75.90652,67.7269
