Frequency,Impedance,Phase Angle,Temperature (Dry Bath)
10.0,59109.7,-32.59631,67.1914
21.5,46141.67,-28.38617,67.2025
46.4,37912.2,-24.20666,67.1973
100.0,32178.37,-20.60623,67.2001
215.4,28808.03,-16.6553,67.2029
464.2,25486.36,-14.26821,67.1937
1000.0,23107.59,-12.67455,67.2002
2154.4,21305.62,-11.59479,67.1878
4641.6,19807.9,-11.91934,67.1962
10000.0,18336.14,-15.03292,67.2165
