Frequency,Impedance,Phase Angle,Temperature (Dry Bath)
10.0,23557930.0,-23.91491,67.1857
21.5,28641190.0,-27.61066,67.2003
46.4,13896580.0,-19.56658,67.1926
100.0,11211350.0,11.11945,67.2127
215.4,963793.3,-64.73575,67.1993
464.2,2195383.0,-93.53685,67.1927
1000.0,1271777.0,-80.66735,67.2047
2154.4,546131.5,-87.86658,67.1899
4641.6,257820.9,-82.79812,67.1982
10000.0,124669.9,-84.04552,67.2155
