Frequency,Impedance,Phase Angle,Temperature (Dry Bath)
10.0,44133820.0,-31.02564,68.2824
21.5,22201440.0,-30.50641,68.2895
46.4,11732590.0,-55.7245,68.3021
100.0,4412483.0,-59.21457,68.3081
215.4,3620989.0,-50.73226,68.3149
464.2,2098334.0,-69.59342,68.3068
1000.0,1182315.0,-82.48345,68.3256
2154.4,558763.6,-87.66314,68.3087
4641.6,283739.5,-90.02874,68.2986
10000.0,133078.3,-96.21553,68.306
