Frequency,Impedance,Phase Angle,Temperature (Dry Bath)
10.0,209751.9,-23.30235,67.3745
21.5,176319.5,-20.41761,67.3836
46.4,152528.0,-17.74603,67.3806
100.0,132228.2,-15.12617,67.3702
215.4,122880.3,-14.26954,67.3813
464.2,110943.8,-14.06683,67.3737
1000.0,100742.8,-15.60442,67.3723
2154.4,90145.61,-20.64272,67.3708
4641.6,77047.28,-28.55315,67.393
10000.0,59805.3,-40.2122,67.3809
