Frequency,Impedance,Phase Angle,Temperature (Dry Bath)
10.0,27850850.0,-11.88441,68.0243
21.5,18765500.0,-31.29457,68.0308
46.4,12840400.0,-50.58192,68.0286
100.0,6165576.0,-18.80016,68.0236
215.4,24029250.0,-64.73013,68.0316
464.2,2635280.0,-93.49251,68.0367
1000.0,1213588.0,-85.87851,68.0036
2154.4,613073.1,-88.01685,68.0135
4641.6,274393.7,-93.76718,68.0137
10000.0,132726.4,-93.24932,68.013
