Frequency,Impedance,Phase Angle,Temperature (Dry Bath)
10.0,4658671.0,-20.3288,71.5471
21.544346900318832,4407793.0,-1.031069,71.5346
46.41588833612777,4879444.0,-26.39049,71.5379
100.0,687491.6,-15.55219,71.5368
215.44346900318823,968640.6,-107.4162,71.5349
464.15888336127773,1413932.0,-47.91397,71.5522
1000.0,1256593.0,152.9897,71.5505
2154.4346900318824,746040.8,-111.9384,71.5335
4641.588833612777,313204.9,-60.36727,71.5346
10000.0,116282.7,-76.56711,71.5231
