Frequency,Impedance,Phase Angle,Temperature (Dry Bath)
10.0,22479900.0,-13.10454,68.0087
21.5,29095900.0,-36.79131,68.0292
46.4,29197020.0,-52.32341,68.0423
100.0,5090116.0,-36.67513,68.0267
215.4,4493849.0,-74.28446,68.0321
464.2,2524398.0,-66.14363,68.0348
1000.0,1435890.0,-78.8115,68.0198
2154.4,663465.1,-90.59263,68.0149
4641.6,312498.3,-94.7343,68.0121
10000.0,161403.8,-100.3926,68.0321
