Frequency,Impedance,Phase Angle,Temperature (Dry Bath)
10.0,88691.86,-3.127274,66.9875
21.5,87065.13,-2.558049,66.9828
46.4,85657.36,-2.506495,66.9786
100.0,85648.72,-2.207698,66.9927
215.4,83701.45,-3.050822,66.9972
464.2,81683.5,-4.011939,66.9919
1000.0,80717.91,-6.617162,66.9757
2154.4,77675.01,-11.57394,66.9986
4641.6,71942.56,-20.74726,66.9651
10000.0,59473.45,-35.16151,66.9718
