Frequency,Impedance,Phase Angle,Temperature (Dry Bath)
10.0,36494540.0,-32.38782,67.1608
21.5,18738710.0,-48.49349,67.1638
46.4,14263380.0,-53.34023,67.1714
100.0,4241491.0,-18.58863,67.1679
215.4,262074.9,-74.8901,67.177
464.2,1607577.0,-81.91202,67.19
1000.0,699668.3,-84.85211,67.1877
2154.4,400180.7,-84.95414,67.1793
4641.6,203049.4,-80.36328,67.1592
10000.0,100129.5,-80.65662,67.2116
