Frequency,Impedance,Phase Angle,Temperature (Dry Bath)
10.0,24353930.0,-6.056764,67.9846
21.5,22524600.0,-32.2813,67.9753
46.4,35452840.0,-45.36754,67.9842
100.0,3636595.0,-47.96468,67.9833
215.4,6464729.0,-53.83253,67.9902
464.2,2523888.0,-90.79727,67.9911
1000.0,1420062.0,-78.6666,67.9618
2154.4,657955.8,-84.72853,67.9735
4641.6,300528.7,-89.89402,67.9737
10000.0,150911.5,-93.97999,67.9822
