Frequency,Impedance,Phase Angle,Temperature (Dry Bath)
10.0,5635526.0,-21.27965,70.8957
21.544346900318832,4902957.0,-33.80037,70.9126
46.41588833612777,3927344.0,-35.30995,70.8948
100.0,835316.5,-29.13014,70.9023
215.44346900318823,368991.5,-91.97363,70.9025
464.15888336127773,692070.9,-20.61291,70.8764
1000.0,456162.8,-62.86794,70.8917
2154.4346900318824,296957.6,-97.02835,70.9018
4641.588833612777,126513.7,-79.20601,70.8857
10000.0,69329.53,-89.72415,70.8959
