Frequency,Impedance,Phase Angle,Temperature (Dry Bath)
10.0,6255087.0,-14.39622,71.4683
21.544346900318832,4908751.0,-9.973014,71.4677
46.41588833612777,6019691.0,-4.261754,71.4789
100.0,1090833.0,28.58857,71.4603
215.44346900318823,1725499.0,107.1934,71.4896
464.15888336127773,665279.8,-113.4532,71.4832
1000.0,3544133.0,-44.50651,71.4745
2154.4346900318824,519847.8,-55.84828,71.4649
4641.588833612777,277742.4,-73.06217,71.4717
10000.0,143567.3,-101.1445,71.4835
