Frequency,Impedance,Phase Angle,Temperature (Dry Bath)
10.0,5930556.0,0.2981332,70.9486
21.544346900318832,5451428.0,-8.455761,70.9362
46.41588833612777,4390149.0,-31.0213,70.9376
100.0,1072363.0,134.2861,70.953
215.44346900318823,844428.1,-79.40251,70.9507
464.15888336127773,378380.4,-98.93767,70.934
1000.0,453331.3,-120.7406,70.9542
2154.4346900318824,271516.5,-100.5542,70.9432
4641.588833612777,119456.4,-89.43241,70.9303
10000.0,64421.21,-91.82258,70.9276
