Frequency,Impedance,Phase Angle,Temperature (Dry Bath)
10.0,22768710.0,7.769313,68.0139
21.5,33132060.0,-28.97185,68.0139
46.4,21415170.0,-41.33115,68.0139
100.0,6254299.0,-22.24047,68.0139
215.4,7228007.0,-60.02519,68.0139
464.2,3996042.0,-85.48042,68.0139
1000.0,1424237.0,-88.8587,68.0139
2154.4,650293.9,-84.15386,68.0139
4641.6,321343.6,-91.46445,68.0139
10000.0,150490.5,-97.32802,68.0139
