Frequency,Impedance,Phase Angle,Temperature (Dry Bath)
10.0,33116770.0,-25.97605,67.1553
21.5,20851330.0,-43.63168,67.1504
46.4,13433000.0,-65.28812,67.142
100.0,3179789.0,-39.60427,67.1473
215.4,1833081.0,-87.60938,67.1477
464.2,1784549.0,-66.076,67.1623
1000.0,913767.3,-73.10268,67.1413
2154.4,421602.2,-81.73749,67.1405
4641.6,208471.3,-81.20748,67.1657
10000.0,101482.4,-80.84682,67.1446
