Frequency,Impedance,Phase Angle,Temperature (Dry Bath)
10.0,111731.3,-3.045149,67.3469
21.5,109716.4,-2.576738,67.3191
46.4,107872.5,-2.459835,67.3257
100.0,107295.6,-3.190788,67.3225
215.4,105049.8,-2.36132,67.3105
464.2,103265.7,-4.380861,67.332
1000.0,99861.83,-7.876394,67.3186
2154.4,95844.65,-13.06845,67.3145
4641.6,86879.04,-24.25762,67.3231
10000.0,69059.1,-40.37891,67.3241
