Frequency,Impedance,Phase Angle,Temperature (Dry Bath)
10.0,23769300.0,-29.67779,67.1741
21.5,35745120.0,-8.940063,67.1664
46.4,17706540.0,-50.67225,67.178
100.0,9977557.0,-26.37839,67.1602
215.4,4063632.0,-116.927,67.1601
464.2,2281368.0,-87.41853,67.1663
1000.0,1041651.0,-79.38041,67.1674
2154.4,565357.2,-88.25993,67.1608
4641.6,257599.7,-89.07503,67.1688
10000.0,120585.9,-87.06537,67.1636
