Frequency,Impedance,Phase Angle,Temperature (Dry Bath)
10.0,2049718.0,-11.999,68.0764
21.5,1848698.0,-11.39718,68.0869
46.4,1712572.0,-12.88468,68.0761
100.0,1587641.0,-24.32322,68.0809
215.4,1337198.0,-17.74396,68.0841
464.2,1302009.0,-31.39657,68.0797
1000.0,805540.8,-48.9658,68.0754
2154.4,574555.0,-60.25332,68.0784
4641.6,323900.5,-73.81465,68.0647
10000.0,148161.6,-89.68929,68.0702
