Frequency,Impedance,Phase Angle,Temperature (Dry Bath)
10.0,32385230.0,2.924759,68.2042
21.5,27691440.0,-30.54887,68.2042
46.4,29574450.0,-54.58393,68.2042
100.0,16965500.0,11.14229,68.2042
215.4,7097090.0,-109.2703,68.2042
464.2,3125846.0,-84.84682,68.2042
1000.0,1426994.0,-83.54681,68.2042
2154.4,748461.6,-84.88786,68.2042
4641.6,336427.9,-89.42407,68.2042
10000.0,152994.9,-97.98679,68.2042
