Frequency,Impedance,Phase Angle,Temperature (Dry Bath)
10.0,5024034.0,1.420888,71.5995
21.544346900318832,5393543.0,-4.841145,71.6039
46.41588833612777,5456791.0,-18.60405,71.6025
100.0,882284.6,28.80257,71.6047
215.44346900318823,1093974.0,102.5195,71.5917
464.15888336127773,1231524.0,160.0625,71.6155
1000.0,772361.0,-72.11693,71.6
2154.4346900318824,842115.7,-137.1914,71.6222
4641.588833612777,218188.1,-67.22308,71.6243
10000.0,163797.9,-94.34428,71.6101
