Frequency,Impedance,Phase Angle,Temperature (Dry Bath)
10.0,4981047.0,0.2653221,71.2314
21.544346900318832,5927352.0,8.382793,71.2206
46.41588833612777,4295226.0,-20.06169,71.2311
100.0,2199669.0,-119.0277,71.2339
215.44346900318823,839190.2,-133.8895,71.2201
464.15888336127773,567771.4,-100.5593,71.2348
1000.0,931904.3,-17.63687,71.2448
2154.4346900318824,223201.2,-102.0637,71.2425
4641.588833612777,117539.0,-78.3114,71.2253
10000.0,55434.53,-90.67228,71.238
