Frequency,Impedance,Phase Angle,Temperature (Dry Bath)
10.0,6913367.0,-6.179543,71.3646
21.544346900318832,7775328.0,-21.0825,71.3388
46.41588833612777,3882832.0,-13.76259,71.3563
100.0,424185.3,-18.13817,71.3526
215.44346900318823,43987.31,-20.39848,71.3553
464.15888336127773,1319663.0,-67.60224,71.3541
1000.0,356351.1,-146.3691,71.3434
2154.4346900318824,257826.9,-101.28,71.3585
4641.588833612777,117202.3,-83.75167,71.3634
10000.0,66826.21,-83.89062,71.3523
