Frequency,Impedance,Phase Angle,Temperature (Dry Bath)
10.0,717593.0,-9.935737,67.7551
21.5,674741.7,-10.71198,67.7858
46.4,629916.0,-10.8004,67.7692
100.0,546299.3,-11.7986,67.7558
215.4,544289.0,-14.44302,67.7468
464.2,477660.2,-18.1924,67.7657
1000.0,425219.3,-27.34661,67.7842
2154.4,318127.4,-40.91294,67.7766
4641.6,214639.5,-59.42165,67.7631
10000.0,123856.8,-73.3636,67.7835
