Frequency,Impedance,Phase Angle,Temperature (Dry Bath)
10.0,27161230.0,-16.97152,68.0884
21.5,33241270.0,-34.94695,68.0989
46.4,28298320.0,-50.65978,68.0921
100.0,4585039.0,-38.43137,68.0963
215.4,5546544.0,-59.01203,68.1043
464.2,2004311.0,-88.14361,68.084
1000.0,1183979.0,-82.1436,68.0949
2154.4,603704.4,-84.90236,68.0978
4641.6,280033.8,-89.91922,68.1013
10000.0,132999.1,-96.34014,68.0977
