Frequency,Impedance,Phase Angle,Temperature (Dry Bath)
10.0,227449.2,-22.95473,67.2007
21.5,191274.2,-20.28167,67.1958
46.4,165544.2,-17.64833,67.1894
100.0,141311.7,-13.8261,67.1895
215.4,96590.3,-33.97338,67.2165
464.2,121221.5,-15.81358,67.1971
1000.0,110962.5,-17.47814,67.2089
2154.4,97139.81,-21.23871,67.2122
4641.6,81291.99,-29.17283,67.2062
10000.0,61582.67,-41.70594,67.2206
