Frequency,Impedance,Phase Angle,Temperature (Dry Bath)
10.0,37943910.0,-22.1506,67.86
21.5,26527220.0,-24.52195,67.8846
46.4,21023860.0,-48.00822,67.8716
100.0,10112200.0,49.32851,67.8744
215.4,4443349.0,-84.43198,67.8522
464.2,3891947.0,-81.66824,67.8585
1000.0,1176473.0,-89.14001,67.8581
2154.4,545629.7,-89.13716,67.8686
4641.6,270155.5,-88.54486,67.8659
10000.0,117671.8,-89.07691,67.8626
