Frequency,Impedance,Phase Angle,Temperature (Dry Bath)
10.0,4080996.0,1.205123,71.0726
21.544346900318832,5338442.0,-32.38426,71.0789
46.41588833612777,4932349.0,-31.20587,71.0504
100.0,306448.7,-11.76625,71.0636
215.44346900318823,1053726.0,10.39627,71.0725
464.15888336127773,933038.4,-123.0934,71.0647
1000.0,279349.8,-95.38363,71.0814
2154.4346900318824,356662.3,-83.34676,71.0661
4641.588833612777,143618.9,-84.87486,71.0645
10000.0,64345.53,-85.71565,71.0678
