Frequency,Impedance,Phase Angle,Temperature (Dry Bath)
10.0,4105681.0,10.29765,71.0248
21.544346900318832,3815058.0,-19.27266,71.0409
46.41588833612777,4417972.0,-23.1649,71.0371
100.0,1455425.0,25.68226,71.047
215.44346900318823,1238069.0,-3.672398,71.0297
464.15888336127773,884635.9,-84.12136,71.0394
1000.0,701360.7,-57.52413,71.0448
2154.4346900318824,288069.7,-84.76979,71.0476
4641.588833612777,116244.3,-71.24014,71.0499
10000.0,56232.23,-90.11218,71.0439
