Frequency,Impedance,Phase Angle,Temperature (Dry Bath)
10.0,115605.0,-3.123845,67.2174
21.5,113388.4,-2.600915,67.2087
46.4,111518.7,-2.50145,67.2074
100.0,112338.5,-4.273993,67.2196
215.4,147987.5,23.58534,67.2247
464.2,107516.7,-5.584637,67.209
1000.0,103980.5,-8.754654,67.227
2154.4,100412.8,-15.37916,67.2142
4641.6,88642.66,-24.92342,67.2246
10000.0,69482.16,-41.61549,67.2261
