Frequency,Impedance,Phase Angle,Temperature (Dry Bath)
10.0,28092980.0,-21.8502,67.891
21.5,19782790.0,-31.04647,67.9039
46.4,28105760.0,-50.76064,67.9168
100.0,4236757.0,-31.78185,67.8897
215.4,8453211.0,-57.59715,67.9052
464.2,2285190.0,-73.69083,67.8931
1000.0,1289650.0,-79.19317,67.9013
2154.4,611803.9,-90.49159,67.9
4641.6,276119.5,-87.06253,67.891
10000.0,126424.5,-93.08001,67.8894
