Frequency,Impedance,Phase Angle,Temperature (Dry Bath)
10.0,178677.3,-12.5519,71.2242
21.544346900318832,160850.5,-10.93824,71.2269
46.41588833612777,148237.7,-11.34976,71.2279
100.0,136190.3,-2.289883,71.237
215.44346900318823,165657.0,-3.654254,71.2316
464.15888336127773,118220.8,-20.82604,71.2271
1000.0,112510.4,-9.244886,71.2184
2154.4346900318824,100226.5,-29.25974,71.2226
4641.588833612777,66595.05,-41.75111,71.2208
10000.0,46080.86,-55.76383,71.2433
