Frequency,Impedance,Phase Angle,Temperature (Dry Bath)
10.0,24410730.0,-34.52297,68.0527
21.5,35193920.0,-31.71003,68.0527
46.4,40561860.0,-45.57054,68.0527
100.0,12334150.0,-13.04097,68.0527
215.4,6430591.0,-80.23954,68.0527
464.2,2872892.0,-85.28846,68.0527
1000.0,1308451.0,-80.82184,68.0527
2154.4,628763.5,-87.57959,68.0527
4641.6,320699.3,-93.06969,68.0527
10000.0,151376.0,-97.83193,68.0527
