Frequency,Impedance,Phase Angle,Temperature (Dry Bath)
10.0,33398870.0,-3.820065,67.0974
21.5,25132880.0,-37.26934,67.0943
46.4,17890170.0,-58.00943,67.1058
100.0,15782610.0,44.64099,67.0898
215.4,3286751.0,-57.35231,67.0925
464.2,2803225.0,-65.32858,67.0822
1000.0,1157128.0,-92.20314,67.0932
2154.4,537216.2,-88.80729,67.082
4641.6,243526.9,-84.78254,67.0914
10000.0,122576.0,-84.7307,67.0841
