Frequency,Impedance,Phase Angle,Temperature (Dry Bath)
10.0,44098.27,-20.96549,71.4951
21.544346900318832,37469.17,-19.9746,71.477
46.41588833612777,31879.69,-19.8292,71.4807
100.0,28014.69,-21.6391,71.4785
215.44346900318823,22770.76,-18.27826,71.4661
464.15888336127773,20967.64,-17.05095,71.4729
1000.0,17253.37,-15.67242,71.4584
2154.4346900318824,15261.93,-14.37224,71.4838
4641.588833612777,14185.79,-13.55315,71.4894
10000.0,13012.06,-14.767,71.4751
