Frequency,Impedance,Phase Angle,Temperature (Dry Bath)
10.0,2221199.0,-12.55578,68.0658
21.5,2158322.0,-12.12028,68.0658
46.4,2033165.0,-13.91302,68.0658
100.0,1745524.0,-19.14972,68.0658
215.4,1419707.0,-26.18661,68.0658
464.2,1143483.0,-26.66794,68.0658
1000.0,870000.0,-52.20337,68.0658
2154.4,576100.9,-63.20422,68.0658
4641.6,274108.3,-81.21006,68.0658
10000.0,156482.0,-88.5198,68.0658
