Frequency,Impedance,Phase Angle,Temperature (Dry Bath)
10.0,19083770.0,-3.804755,68.1662
21.5,17902880.0,-29.37193,68.178
46.4,16303930.0,-55.20875,68.1762
100.0,3969415.0,-42.41612,68.1731
215.4,4504166.0,-75.08836,68.1755
464.2,2570736.0,-80.85302,68.1587
1000.0,1109935.0,-86.43089,68.1694
2154.4,598078.9,-88.19002,68.1873
4641.6,294405.6,-92.69949,68.1786
10000.0,149950.7,-92.96745,68.1702
