Frequency,Impedance,Phase Angle,Temperature (Dry Bath)
10.0,5358714.0,-20.22882,29.8051
21.544346900318832,6013882.0,-28.92614,29.8851
46.41588833612777,4492443.0,-23.97747,29.8054
100.0,2744937.0,2.609366,29.7531
215.44346900318823,1277614.0,-113.1901,29.555
464.15888336127773,1142650.0,-116.2864,29.9211
1000.0,276146.4,-78.50922,29.9168
2154.4346900318824,689598.9,-65.75317,29.9099
4641.588833612777,315004.2,-85.37299,29.957
10000.0,159086.6,-76.89458,29.8306
