Frequency,Impedance,Phase Angle,Temperature (Dry Bath)
10.0,36754.86,-13.95047,70.7507
21.544346900318832,33642.49,-11.81893,70.7388
46.41588833612777,30957.85,-10.81323,70.7587
100.0,28600.71,-7.748168,70.764
215.44346900318823,25718.03,-9.562888,70.7661
464.15888336127773,25204.14,-11.15213,70.765
1000.0,23108.32,-8.181715,70.7467
2154.4346900318824,21232.07,-11.83272,70.7588
4641.588833612777,19699.44,-15.6677,70.7543
10000.0,18222.53,-22.24717,70.7548
