Frequency,Impedance,Phase Angle,Temperature (Dry Bath)
10.0,24475470.0,-21.90966,67.1437
21.5,24199180.0,-29.34133,67.1461
46.4,14904940.0,-29.87308,67.1586
100.0,14075340.0,-42.76583,67.1434
215.4,1094363.0,-110.9941,67.1629
464.2,3404044.0,-98.33254,67.1573
1000.0,1215947.0,-88.02403,67.1457
2154.4,614101.1,-94.12492,67.147
4641.6,251725.6,-86.71532,67.1535
10000.0,125232.0,-86.54347,67.1574
