Frequency,Impedance,Phase Angle,Temperature (Dry Bath)
10.0,5125071.0,-8.235006,71.2625
21.544346900318832,4739531.0,2.137816,71.256
46.41588833612777,4715851.0,-32.09455,71.2538
100.0,490533.9,-27.61384,71.2517
215.44346900318823,1032916.0,-57.76262,71.2775
464.15888336127773,526179.3,-69.05139,71.2531
1000.0,2109397.0,120.9891,71.2525
2154.4346900318824,284717.1,-46.55137,71.2476
4641.588833612777,141334.0,-80.84165,71.287
10000.0,77658.08,-91.99622,71.278
