Frequency,Impedance,Phase Angle,Temperature (Dry Bath)
10.0,10755960.0,-4.612183,65.7257
21.544346900318832,7510339.0,-23.5565,65.7174
46.41588833612777,3611160.0,-36.9505,65.7258
100.0,887158.1,-71.97011,65.7412
215.44346900318823,9705.605,95.56236,65.7343
464.15888336127773,676309.5,-75.91964,65.7115
1000.0,542057.2,-88.7968,65.7138
2154.4346900318824,329147.8,-94.79649,65.7085
4641.588833612777,126625.1,-77.98278,65.7177
10000.0,74512.23,-82.83214,65.7085
