Frequency,Impedance,Phase Angle,Temperature (Dry Bath)
10.0,5937119.0,-32.39072,65.8517
21.544346900318832,3275593.0,-11.82923,65.8346
46.41588833612777,4581694.0,-18.67147,65.8502
100.0,537198.9,-31.88842,65.8345
215.44346900318823,444799.8,-141.2638,65.8353
464.15888336127773,1032858.0,24.82069,65.8404
1000.0,925109.2,131.099,65.8415
2154.4346900318824,476980.9,-74.42001,65.8384
4641.588833612777,162922.0,-79.16121,65.8447
10000.0,71340.96,-83.01179,65.8378
