Frequency,Impedance,Phase Angle,Temperature (Dry Bath)
10.0,19091130.0,-17.69999,68.2932
21.5,28091030.0,-17.43807,68.2877
46.4,26872500.0,-45.78044,68.2871
100.0,4480391.0,-41.57992,68.288
215.4,5423353.0,-43.8058,68.2908
464.2,2203468.0,-77.42099,68.2981
1000.0,1447357.0,-85.01666,68.2864
2154.4,643600.9,-86.10056,68.2858
4641.6,288367.2,-89.77932,68.2938
10000.0,146012.1,-98.461,68.2927
