Frequency,Impedance,Phase Angle,Temperature (Dry Bath)
10.0,33957500.0,-22.84823,68.1129
21.5,21967460.0,-13.96802,68.1133
46.4,17404570.0,-57.99957,68.1116
100.0,7097492.0,-82.01155,68.1123
215.4,3891946.0,-76.12126,68.1249
464.2,2085246.0,-62.06983,68.1231
1000.0,1280218.0,-90.48504,68.1188
2154.4,657916.8,-81.08152,68.1122
4641.6,338645.1,-90.57534,68.1057
10000.0,144226.6,-95.23169,68.1026
