Frequency,Impedance,Phase Angle,Temperature (Dry Bath)
10.0,4187944.0,-19.91255,71.0385
21.544346900318832,5078253.0,-7.527136,71.0441
46.41588833612777,5154686.0,-35.1228,71.055
100.0,1172263.0,-21.15254,71.0409
215.44346900318823,2577525.0,21.33528,71.0418
464.15888336127773,2505741.0,8.273018,71.0547
1000.0,297347.9,-43.7985,71.0635
2154.4346900318824,260949.5,-91.66536,71.0421
4641.588833612777,120893.5,-71.06786,71.0547
10000.0,57369.68,-81.11393,71.0471
