Frequency,Impedance,Phase Angle,Temperature (Dry Bath)
10.0,18281450.0,-6.183826,68.1825
21.5,15230880.0,-38.40307,68.1724
46.4,14960180.0,-50.82515,68.1753
100.0,6270288.0,2.964879,68.1767
215.4,4790691.0,-45.25878,68.1838
464.2,2555272.0,-68.87621,68.1814
1000.0,1430068.0,-88.90296,68.1831
2154.4,653505.5,-91.40723,68.1638
4641.6,288750.5,-86.8016,68.186
10000.0,137224.3,-98.29153,68.1633
