Frequency,Impedance,Phase Angle,Temperature (Dry Bath)
10.0,54836370.0,-13.28815,68.0523
21.5,20799690.0,-36.28279,68.0523
46.4,13724790.0,-45.54089,68.0523
100.0,8100524.0,-43.08856,68.0523
215.4,8312391.0,-84.58474,68.0523
464.2,2428585.0,-76.15325,68.0523
1000.0,1305449.0,-87.46185,68.0523
2154.4,655079.1,-89.79349,68.0523
4641.6,372166.8,-90.15278,68.0523
10000.0,155107.1,-96.83164,68.0523
