Frequency,Impedance,Phase Angle,Temperature (Dry Bath)
10.0,161020.1,-14.91738,71.028
21.544346900318832,144564.5,-13.60408,71.0292
46.41588833612777,131302.0,-13.14442,71.0333
100.0,99934.65,-28.97489,71.0342
215.44346900318823,92038.87,-16.35384,71.0242
464.15888336127773,87866.95,-4.357083,71.027
1000.0,64660.68,-35.72777,71.0335
2154.4346900318824,83372.64,-14.10198,71.0294
4641.588833612777,67012.87,-11.36095,71.0296
10000.0,51097.51,-31.7138,71.0292
