Frequency,Impedance,Phase Angle,Temperature (Dry Bath)
10.0,1442113.0,-14.53408,68.0227
21.5,1294999.0,-14.33688,68.0224
46.4,1101177.0,-13.13769,68.0246
100.0,855871.5,-12.64337,68.0032
215.4,779785.7,-16.24249,68.0314
464.2,891664.2,-27.71849,68.0101
1000.0,702133.4,-35.50749,68.0236
2154.4,450512.1,-59.58279,68.0189
4641.6,258848.6,-71.54549,68.0332
10000.0,134762.7,-82.35229,68.0132
