Frequency,Impedance,Phase Angle,Temperature (Dry Bath)
10.0,233048.5,-23.00572,67.0757
21.5,197016.3,-20.30721,67.0877
46.4,170296.8,-17.82326,67.0785
100.0,152475.3,-15.22964,67.0691
215.4,138841.9,-10.83045,67.0729
464.2,126378.7,-14.53634,67.0742
1000.0,112668.6,-17.94782,67.0874
2154.4,97619.52,-22.47071,67.0826
4641.6,82393.99,-31.4578,67.0677
10000.0,62130.38,-43.08599,67.0799
