Frequency,Impedance,Phase Angle,Temperature (Dry Bath)
10.0,27681270.0,-12.32662,67.9597
21.5,33247560.0,-52.12202,67.9465
46.4,24476070.0,-51.89932,67.9744
100.0,5475211.0,-41.89639,67.9735
215.4,4036649.0,-55.74911,67.9769
464.2,2293208.0,-77.3931,67.9808
1000.0,1145348.0,-82.20176,67.965
2154.4,588991.7,-85.90238,67.9466
4641.6,265594.9,-92.14871,67.9597
10000.0,123477.4,-97.89461,67.9694
