Frequency,Impedance,Phase Angle,Temperature (Dry Bath)
10.0,4342654.0,4.370755,71.4244
21.544346900318832,11073840.0,-47.7055,71.4133
46.41588833612777,6188638.0,-18.40258,71.4277
100.0,1085957.0,72.57701,71.4253
215.44346900318823,23255.67,-158.8817,71.4452
464.15888336127773,1206731.0,-103.1382,71.4077
1000.0,1164813.0,71.75169,71.4444
2154.4346900318824,285939.4,-86.33407,71.427
4641.588833612777,132116.7,-83.64209,71.4113
10000.0,60917.39,-73.55369,71.4184
