Frequency,Impedance,Phase Angle,Temperature (Dry Bath)
10.0,18143410.0,-21.80537,67.088
21.5,18860850.0,-25.86999,67.0828
46.4,13865520.0,-47.93391,67.0748
100.0,4493855.0,-48.00048,67.0982
215.4,2653066.0,-57.24573,67.094
464.2,2266020.0,-77.03648,67.083
1000.0,1095411.0,-76.90603,67.1155
2154.4,559206.3,-84.57177,67.1015
4641.6,260637.9,-85.39032,67.0901
10000.0,124329.7,-86.46639,67.0917
