Frequency,Impedance,Phase Angle,Temperature (Dry Bath)
10.0,8946997.0,14.69119,70.6321
21.544346900318832,7416383.0,-24.57999,70.6364
46.41588833612777,5128358.0,-12.92103,70.6516
100.0,479769.7,37.27723,70.6394
215.44346900318823,1151368.0,-73.50364,70.6488
464.15888336127773,1085864.0,-55.95615,70.6638
1000.0,381902.8,-36.30112,70.6506
2154.4346900318824,218286.7,-107.8379,70.6473
4641.588833612777,120428.0,-95.19437,70.6639
10000.0,59505.36,-82.50088,70.6607
