Frequency,Impedance,Phase Angle,Temperature (Dry Bath)
10.0,44458.07,-14.79813,70.5985
21.544346900318832,40091.61,-13.06918,70.6036
46.41588833612777,36469.04,-11.76093,70.5962
100.0,30414.54,-12.16151,70.6036
215.44346900318823,31155.83,-10.06305,70.6162
464.15888336127773,28856.15,-11.07689,70.6121
1000.0,28041.23,-17.43793,70.6064
2154.4346900318824,24351.81,-10.18988,70.6024
4641.588833612777,21463.33,-15.14871,70.6047
10000.0,20475.65,-22.46229,70.6077
