Frequency,Impedance,Phase Angle,Temperature (Dry Bath)
10.0,1400621.0,-10.11705,68.0563
21.5,1267361.0,-9.84581,68.0369
46.4,1129593.0,-10.77774,68.0517
100.0,1009128.0,-12.46637,68.0526
215.4,934938.6,-11.81246,68.0475
464.2,922575.7,-29.90427,68.0351
1000.0,649153.6,-42.01482,68.04
2154.4,510479.2,-58.74839,68.0433
4641.6,263789.5,-67.54864,68.0507
10000.0,135693.4,-82.10833,68.0412
