Frequency,Impedance,Phase Angle,Temperature (Dry Bath)
10.0,32953790.0,-29.05831,68.1465
21.5,24479250.0,-16.99731,68.1599
46.4,21280840.0,-46.1828,68.1506
100.0,5427959.0,-39.14265,68.1729
215.4,5656404.0,-77.18057,68.1542
464.2,2248419.0,-91.15108,68.1695
1000.0,1506371.0,-89.06966,68.1556
2154.4,672599.3,-89.8012,68.158
4641.6,316996.5,-91.13697,68.1696
10000.0,152065.2,-92.38374,68.1554
