Frequency,Impedance,Phase Angle,Temperature (Dry Bath)
10.0,23282620.0,-22.84925,67.9686
21.5,23395730.0,-28.18738,67.9686
46.4,18950180.0,-39.0053,67.9686
100.0,5240309.0,-21.93644,67.9686
215.4,5740895.0,-75.73349,67.9686
464.2,3229459.0,-70.84024,67.9686
1000.0,1361054.0,-84.44073,67.9686
2154.4,682669.9,-87.01249,67.9686
4641.6,321149.9,-91.44642,67.9686
10000.0,150431.1,-93.07622,67.9686
