Frequency,Impedance,Phase Angle,Temperature (Dry Bath)
10.0,51613.55,-34.34321,67.42
21.5,39431.87,-30.20322,67.4142
46.4,31703.65,-26.20562,67.4095
100.0,26678.14,-22.28781,67.4188
215.4,24317.58,-18.21945,67.4188
464.2,20571.12,-15.81981,67.4371
1000.0,18383.01,-13.57469,67.4308
2154.4,16886.58,-12.47269,67.422
4641.6,15575.91,-12.12667,67.4268
10000.0,14453.88,-14.01603,67.4121
