Frequency,Impedance,Phase Angle,Temperature (Dry Bath)
10.0,1674150.0,-19.57307,67.4431
21.5,1454555.0,-17.47871,67.4426
46.4,1334194.0,-16.24048,67.4337
100.0,1057755.0,-23.118,67.4579
215.4,869141.1,-22.82527,67.4424
464.2,990185.1,-22.71209,67.4481
1000.0,789348.9,-33.39087,67.4376
2154.4,540086.3,-59.07469,67.4607
4641.6,256669.7,-73.28737,67.447
10000.0,127591.5,-78.51372,67.4378
