Frequency,Impedance,Phase Angle,Temperature (Dry Bath)
10.0,5683828.0,-3.575219,70.4036
21.544346900318832,5052528.0,-18.27738,70.3884
46.41588833612777,3815198.0,-20.09851,70.3994
100.0,6953923.0,28.01318,70.368
215.44346900318823,668009.5,-1.182853,70.3671
464.15888336127773,594457.0,174.3559,70.3656
1000.0,278244.7,-36.08466,70.3614
2154.4346900318824,251071.8,-55.74135,70.3791
4641.588833612777,120379.9,-92.1915,70.3696
10000.0,60089.77,-90.65923,70.3714
