Frequency,Impedance,Phase Angle,Temperature (Dry Bath)
10.0,38554920.0,-34.92515,67.1042
21.5,22274370.0,-42.19596,67.1049
46.4,14643430.0,-56.95397,67.0913
100.0,2541306.0,-0.5117566,67.1063
215.4,2846606.0,-84.62352,67.1046
464.2,1622003.0,-86.14494,67.1118
1000.0,852146.2,-81.21414,67.1038
2154.4,405099.0,-82.36039,67.1176
4641.6,199914.8,-83.82803,67.114
10000.0,99548.89,-79.58347,67.1325
