Frequency,Impedance,Phase Angle,Temperature (Dry Bath)
10.0,23339360.0,-17.96774,68.2191
21.5,21842680.0,-40.13548,68.2199
46.4,17588270.0,-49.1407,68.2355
100.0,5630248.0,-13.39484,68.2104
215.4,4541674.0,-71.2282,68.2125
464.2,2184013.0,-71.42872,68.2116
1000.0,1272952.0,-89.17099,68.2212
2154.4,627956.7,-96.56654,68.2293
4641.6,284925.7,-92.432,68.2255
10000.0,119196.6,-89.03066,68.231
