Frequency,Impedance,Phase Angle,Temperature (Dry Bath)
10.0,1579781.0,-19.33389,67.1775
21.5,1384928.0,-16.58522,67.1547
46.4,1240471.0,-15.34654,67.1632
100.0,923167.7,-16.71289,67.1575
215.4,237601.0,113.3343,67.1531
464.2,878879.7,-42.76416,67.1726
1000.0,635493.8,-45.37959,67.1692
2154.4,453452.6,-59.74059,67.1624
4641.6,230049.2,-73.76675,67.1732
10000.0,110187.9,-79.8403,67.1647
