Frequency,Impedance,Phase Angle,Temperature (Dry Bath)
10.0,7123694.0,0.8637204,71.2933
21.544346900318832,3370311.0,-44.15393,71.2862
46.41588833612777,5948812.0,-15.2387,71.3143
100.0,1158380.0,-28.16869,71.2949
215.44346900318823,582299.6,-60.96652,71.2994
464.15888336127773,464967.4,-47.11724,71.3088
1000.0,343964.5,-142.9319,71.3055
2154.4346900318824,280602.7,-95.33549,71.3112
4641.588833612777,237886.3,-129.4069,71.292
10000.0,163063.8,-91.92387,71.3026
