Frequency,Impedance,Phase Angle,Temperature (Dry Bath)
10.0,5685229.0,-18.68078,70.5903
21.544346900318832,3805030.0,-11.23466,70.5845
46.41588833612777,4097547.0,-17.50635,70.5966
100.0,1372502.0,-100.3068,70.6037
215.44346900318823,467190.3,20.41821,70.5956
464.15888336127773,533905.5,-165.6223,70.5932
1000.0,407708.7,36.73051,70.5794
2154.4346900318824,226820.4,-90.18345,70.5992
4641.588833612777,121967.1,-82.8105,70.5892
10000.0,61784.72,-88.88624,70.5815
