Frequency,Impedance,Phase Angle,Temperature (Dry Bath)
10.0,2885019.0,-13.70386,71.0712
21.544346900318832,2160876.0,-20.43334,71.0615
46.41588833612777,2014755.0,-12.14632,71.0792
100.0,885990.8,-59.34815,71.056
215.44346900318823,944238.0,-34.85765,71.0642
464.15888336127773,354344.0,-54.5684,71.0607
1000.0,453957.8,-102.0391,71.0682
2154.4346900318824,304251.1,-66.02095,71.0738
4641.588833612777,130586.1,-84.09853,71.0795
10000.0,59967.93,-81.88786,71.0682
