Frequency,Impedance,Phase Angle,Temperature (Dry Bath)
10.0,4036938.0,-13.21237,70.9483
21.544346900318832,4034024.0,-10.71152,70.9612
46.41588833612777,5289221.0,-40.91742,70.9509
100.0,450984.1,18.9829,70.9527
215.44346900318823,476769.7,109.5738,70.971
464.15888336127773,528028.0,-63.26657,70.9595
1000.0,152780.0,-42.04704,70.9433
2154.4346900318824,304516.1,-69.25741,70.9621
4641.588833612777,131582.7,-86.74217,70.9576
10000.0,67892.04,-86.55545,70.9607
