Frequency,Impedance,Phase Angle,Temperature (Dry Bath)
10.0,56758.55,-32.65617,67.318
21.5,43990.95,-28.60813,67.3403
46.4,36319.6,-24.78946,67.3126
100.0,30633.43,-21.0688,67.3198
215.4,26968.85,-17.25994,67.3163
464.2,24233.79,-14.66131,67.3156
1000.0,21892.11,-12.62244,67.3253
2154.4,20158.85,-11.80818,67.3067
4641.6,18813.96,-12.11159,67.3253
10000.0,17410.31,-14.56933,67.3271
