Frequency,Impedance,Phase Angle,Temperature (Dry Bath)
10.0,17539160.0,-19.63702,68.0961
21.5,30226200.0,-18.13786,68.1084
46.4,42768750.0,-46.19612,68.106
100.0,8712520.0,-52.34978,68.1105
215.4,4448958.0,-42.58054,68.1011
464.2,3176670.0,-79.35581,68.1005
1000.0,1470528.0,-88.22207,68.0864
2154.4,698044.3,-88.18716,68.0886
4641.6,291701.9,-90.28445,68.085
10000.0,147090.7,-100.8044,68.0994
