Frequency,Impedance,Phase Angle,Temperature (Dry Bath)
10.0,25537200.0,-23.43157,67.1511
21.5,24609820.0,-53.32904,67.1354
46.4,12706800.0,-59.58263,67.1364
100.0,5103761.0,-10.56776,67.1406
215.4,4188058.0,-102.98,67.1391
464.2,1833738.0,-97.27504,67.1384
1000.0,892743.4,-86.69454,67.1618
2154.4,401188.0,-83.52033,67.1687
4641.6,206298.3,-82.87213,67.1672
10000.0,99028.93,-80.48699,67.17
