Frequency,Impedance,Phase Angle,Temperature (Dry Bath)
10.0,3653308.0,6.952219,71.1402
21.544346900318832,5008274.0,-30.37939,71.1487
46.41588833612777,5140281.0,-3.939123,71.15
100.0,519614.9,-91.69292,71.1396
215.44346900318823,533901.7,-44.07311,71.1363
464.15888336127773,1873495.0,-158.9513,71.1365
1000.0,588046.0,-38.15653,71.1355
2154.4346900318824,212517.0,-70.80538,71.1185
4641.588833612777,152064.3,-77.15401,71.1421
10000.0,62010.46,-83.99394,71.1427
