Frequency,Impedance,Phase Angle,Temperature (Dry Bath)
10.0,1518320.0,-15.16448,68.3172
21.5,1392370.0,-13.78374,68.3172
46.4,1314951.0,-13.28114,68.3172
100.0,953689.9,-2.901271,68.3172
215.4,1184103.0,-22.30624,68.3172
464.2,889843.6,-23.85123,68.3172
1000.0,745353.9,-38.10327,68.3172
2154.4,462352.8,-59.03148,68.3172
4641.6,288678.9,-75.48234,68.3172
10000.0,136784.7,-91.03195,68.3172
