Frequency,Impedance,Phase Angle,Temperature (Dry Bath)
10.0,5865265.0,21.14221,72.1745
21.544346900318832,7857529.0,-32.95817,72.1705
46.41588833612777,5453527.0,-5.247062,72.1947
100.0,276469.2,-32.11106,72.1698
215.44346900318823,401092.5,-0.8039807,72.1902
464.15888336127773,800075.7,-113.3233,72.1825
1000.0,1461845.0,27.73524,72.1723
2154.4346900318824,251023.1,-34.01918,72.1715
4641.588833612777,214430.4,-59.65022,72.1796
10000.0,192033.0,-110.6226,72.1859
