Frequency,Impedance,Phase Angle,Temperature (Dry Bath)
10.0,26951370.0,-9.623907,68.013
21.5,23380680.0,-24.00654,67.9992
46.4,31474550.0,-51.10008,68.019
100.0,8044813.0,4.689114,68.0147
215.4,5270735.0,-87.54174,67.9989
464.2,2640938.0,-78.6044,67.9987
1000.0,1443736.0,-93.57298,67.9875
2154.4,707833.0,-88.27858,67.9954
4641.6,308864.5,-89.72873,67.9834
10000.0,143516.0,-95.75361,68.0085
