Frequency,Impedance,Phase Angle,Temperature (Dry Bath)
10.0,1591597.0,-19.24703,67.4673
21.5,1429946.0,-17.34126,67.4547
46.4,1291964.0,-15.5606,67.4571
100.0,1035313.0,-7.574904,67.4633
215.4,907260.5,-0.2485736,67.4508
464.2,930747.7,-29.56699,67.4498
1000.0,731878.6,-40.85408,67.4604
2154.4,475555.3,-56.64546,67.4528
4641.6,272066.8,-73.89977,67.4636
10000.0,124728.2,-79.38646,67.4503
