Frequency,Impedance,Phase Angle,Temperature (Dry Bath)
10.0,212963.4,-23.49392,67.1805
21.5,178437.6,-20.37353,67.1792
46.4,154509.3,-17.65572,67.1764
100.0,137656.1,-15.03355,67.1732
215.4,147582.5,-28.67552,67.1663
464.2,114550.6,-13.2422,67.1694
1000.0,101905.4,-15.40554,67.1793
2154.4,92277.92,-20.42504,67.1807
4641.6,77969.0,-28.9366,67.179
10000.0,59397.34,-41.33745,67.1906
