Frequency,Impedance,Phase Angle,Temperature (Dry Bath)
10.0,43714.36,-12.73716,70.8988
21.544346900318832,39949.41,-10.85004,70.8934
46.41588833612777,37251.5,-9.911874,70.9059
100.0,32306.26,-8.20712,70.9107
215.44346900318823,30915.92,-6.016607,70.9026
464.15888336127773,30399.65,-7.646377,70.8983
1000.0,28411.69,-10.11007,70.9132
2154.4346900318824,26150.74,-11.77823,70.8954
4641.588833612777,24858.88,-18.71101,70.9019
10000.0,21795.16,-26.73949,70.8947
