Frequency,Impedance,Phase Angle,Temperature (Dry Bath)
10.0,31064200.0,-13.5996,67.2997
21.5,26092610.0,-31.58588,67.2877
46.4,19944640.0,-61.70583,67.2924
100.0,7450894.0,-97.70739,67.3039
215.4,3819171.0,-58.99893,67.3102
464.2,2457017.0,-83.72558,67.2999
1000.0,1064804.0,-87.45087,67.3009
2154.4,567404.9,-92.99979,67.3258
4641.6,267511.8,-88.62336,67.3021
10000.0,138150.1,-86.84554,67.3055
