Frequency,Impedance,Phase Angle,Temperature (Dry Bath)
10.0,237748.8,-22.65761,66.9112
21.5,200821.4,-20.07476,66.9333
46.4,173777.9,-17.67756,66.9264
100.0,155911.1,-13.83555,66.9066
215.4,87769.75,5.303624,66.9257
464.2,126478.5,-14.83448,66.9332
1000.0,113147.5,-16.63336,66.9286
2154.4,100595.0,-22.94073,66.9154
4641.6,80913.04,-32.28514,66.9249
10000.0,61142.38,-43.62655,66.9261
