Frequency,Impedance,Phase Angle,Temperature (Dry Bath)
10.0,7812362.0,-14.49217,70.8709
21.544346900318832,5854261.0,-9.973555,70.8766
46.41588833612777,4334155.0,-33.36983,70.8709
100.0,1040074.0,48.16507,70.8651
215.44346900318823,664462.1,-126.9239,70.8778
464.15888336127773,821974.5,-57.61466,70.8679
1000.0,215053.4,-53.50785,70.8691
2154.4346900318824,179879.2,-60.23376,70.869
4641.588833612777,115014.6,-91.35023,70.8753
10000.0,51344.41,-78.46618,70.864
