Frequency,Impedance,Phase Angle,Temperature (Dry Bath)
10.0,92724560.0,-13.78313,68.3082
21.5,19831910.0,-19.76284,68.3192
46.4,13571690.0,-49.07036,68.315
100.0,7860811.0,-19.25426,68.323
215.4,4027878.0,-96.69674,68.3227
464.2,3236397.0,-75.78164,68.3182
1000.0,1565685.0,-82.61896,68.3106
2154.4,646285.5,-93.16629,68.32
4641.6,322497.3,-94.43636,68.3245
10000.0,143339.1,-93.90177,68.3236
