Frequency,Impedance,Phase Angle,Temperature (Dry Bath)
10.0,5836680.0,-9.619459,70.675
21.544346900318832,4150874.0,-18.90685,70.67
46.41588833612777,3876426.0,-16.5934,70.6861
100.0,2955079.0,81.50047,70.6878
215.44346900318823,1476566.0,42.09588,70.6857
464.15888336127773,1112620.0,-119.8976,70.6607
1000.0,234260.9,-129.4866,70.6756
2154.4346900318824,267947.8,-72.86125,70.6917
4641.588833612777,171416.7,-88.68148,70.6834
10000.0,67061.71,-83.92168,70.6674
