Frequency,Impedance,Phase Angle,Temperature (Dry Bath)
10.0,57623570.0,-16.52127,67.962
21.5,41244750.0,-21.06336,67.9371
46.4,21438920.0,-46.74819,67.953
100.0,6004163.0,-28.30894,67.9318
215.4,4964154.0,-86.36918,67.9409
464.2,4176116.0,-80.45313,67.942
1000.0,1241349.0,-80.43204,67.9347
2154.4,617636.3,-87.7727,67.939
4641.6,303243.7,-90.11197,67.9539
10000.0,140433.0,-99.02455,67.9426
