Frequency,Impedance,Phase Angle,Temperature (Dry Bath)
10.0,236346.2,-22.9663,67.1062
21.5,198768.6,-20.29228,67.1039
46.4,171880.7,-17.76669,67.1246
100.0,150312.9,-13.55777,67.1015
215.4,83092.79,-13.04009,67.1017
464.2,123872.8,-14.58592,67.0934
1000.0,114628.0,-16.57193,67.1066
2154.4,98872.44,-22.80513,67.1025
4641.6,81993.28,-31.86055,67.0997
10000.0,61746.92,-43.52457,67.1111
