Frequency,Impedance,Phase Angle,Temperature (Dry Bath)
10.0,2151052.0,-12.39868,68.2338
21.5,2092734.0,-12.16235,68.2338
46.4,2028593.0,-14.11832,68.2338
100.0,1551661.0,-17.14455,68.2338
215.4,1513444.0,-23.25916,68.2338
464.2,1381516.0,-30.07559,68.2338
1000.0,910791.5,-48.23029,68.2338
2154.4,571278.0,-65.92375,68.2338
4641.6,314539.5,-73.0484,68.2338
10000.0,142499.7,-91.51333,68.2338
