Frequency,Impedance,Phase Angle,Temperature (Dry Bath)
10.0,26293940.0,-30.78496,67.1996
21.5,23097360.0,-42.84926,67.1915
46.4,16112900.0,-60.24678,67.2075
100.0,5782981.0,-21.35217,67.2083
215.4,2402615.0,-56.93217,67.2069
464.2,1612324.0,-83.70911,67.1861
1000.0,810655.2,-75.51128,67.1971
2154.4,445346.2,-83.76235,67.1966
4641.6,219787.5,-83.20359,67.1904
10000.0,107605.9,-79.6634,67.1917
