Frequency,Impedance,Phase Angle,Temperature (Dry Bath)
10.0,4069897.0,-5.35534,72.2113
21.544346900318832,5231921.0,21.11182,72.1872
46.41588833612777,5654139.0,-9.443431,72.2
100.0,838528.7,-18.39965,72.1995
215.44346900318823,1011921.0,24.3931,72.1891
464.15888336127773,273696.9,-15.13574,72.2003
1000.0,440227.8,-73.89722,72.2036
2154.4346900318824,343055.5,-133.0208,72.1971
4641.588833612777,2024135.0,130.7453,72.1958
10000.0,278284.7,-147.204,72.1961
