Frequency,Impedance,Phase Angle,Temperature (Dry Bath)
10.0,4519487.0,-29.50569,70.4
21.544346900318832,5060067.0,10.8503,70.4
46.41588833612777,6472621.0,-6.050198,70.4
100.0,1420632.0,0.6395256,70.4
215.44346900318823,4285560.0,25.87852,70.4
464.15888336127773,18334120.0,62.7285,70.4
1000.0,2128407.0,167.9683,70.4
2154.4346900318824,2448219.0,-7.658493,70.4
4641.588833612777,2175843.0,-92.18305,70.4
10000.0,621938.4,-91.7093,70.4
