Frequency,Impedance,Phase Angle,Temperature (Dry Bath)
10.0,5084113.0,-9.885445,71.1768
21.544346900318832,4735769.0,-15.46698,71.1739
46.41588833612777,3953373.0,-8.338745,71.1834
100.0,325660.5,-52.61219,71.1657
215.44346900318823,890637.7,26.67619,71.1771
464.15888336127773,463019.7,-99.19584,71.1861
1000.0,278132.9,-46.36895,71.1765
2154.4346900318824,260542.3,-56.12749,71.1775
4641.588833612777,135677.7,-87.50486,71.1791
10000.0,60244.63,-84.56411,71.1931
