Frequency,Impedance,Phase Angle,Temperature (Dry Bath)
10.0,5509221.0,-9.179989,71.4761
21.544346900318832,5537371.0,-14.95315,71.4872
46.41588833612777,6025650.0,-22.66923,71.4733
100.0,513522.4,17.64428,71.4887
215.44346900318823,949120.2,-148.2018,71.4707
464.15888336127773,852795.3,-6.347765,71.4736
1000.0,468813.0,-58.63382,71.4871
2154.4346900318824,427937.8,-103.7689,71.4791
4641.588833612777,260678.3,-91.99562,71.4925
10000.0,115161.7,-87.63865,71.4919
