Frequency,Impedance,Phase Angle,Temperature (Dry Bath)
10.0,5037029.0,-7.985222,70.9734
21.544346900318832,4158200.0,-25.21265,70.9646
46.41588833612777,3950688.0,-10.06817,70.9626
100.0,519455.5,94.72505,70.9673
215.44346900318823,553300.7,154.1379,70.9788
464.15888336127773,968807.5,-51.27434,70.9764
1000.0,155233.2,-71.77891,70.9679
2154.4346900318824,475894.9,-74.68395,70.9756
4641.588833612777,142372.7,-79.46334,70.9705
10000.0,62254.71,-89.35054,70.9814
