Frequency,Impedance,Phase Angle,Temperature (Dry Bath)
10.0,25050840.0,-27.14037,67.5257
21.5,19789160.0,-41.08743,67.5283
46.4,15301890.0,-55.64397,67.5416
100.0,4497786.0,-72.09896,67.5212
215.4,1471084.0,-97.83966,67.5222
464.2,2208543.0,-81.79879,67.5244
1000.0,857479.1,-76.71165,67.5127
2154.4,434059.1,-86.47108,67.5165
4641.6,218617.9,-78.53269,67.5074
10000.0,106243.1,-81.27006,67.5154
