Frequency,Impedance,Phase Angle,Temperature (Dry Bath)
10.0,23272200.0,-26.47768,66.9828
21.5,24748450.0,-37.83871,66.9898
46.4,13432560.0,-59.96318,66.9975
100.0,3392217.0,0.7145829,66.9702
215.4,207778.6,-174.9787,66.9868
464.2,1744246.0,-86.78968,66.9813
1000.0,863451.0,-83.33992,66.9817
2154.4,416604.0,-80.29083,66.9816
4641.6,196804.7,-82.98313,66.993
10000.0,99603.6,-79.87771,66.9855
