Frequency,Impedance,Phase Angle,Temperature (Dry Bath)
10.0,2516837.0,17.53944,65.7496
21.544346900318832,5714695.0,-9.83327,65.7734
46.41588833612777,4295936.0,-15.59586,65.754
100.0,1272846.0,150.816,65.7492
215.44346900318823,21594.0,83.62078,65.7438
464.15888336127773,592731.9,-112.9934,65.7462
1000.0,496509.8,-106.1117,65.7351
2154.4346900318824,281866.7,-99.91589,65.7366
4641.588833612777,125364.5,-77.90064,65.7333
10000.0,59115.27,-85.20485,65.7344
