Frequency,Impedance,Phase Angle,Temperature (Dry Bath)
10.0,143944.0,-4.997915,68.0041
21.5,139820.8,-4.1906,68.0291
46.4,135787.9,-3.721245,68.0047
100.0,131163.9,-5.717079,68.0245
215.4,131723.7,-4.416794,68.0071
464.2,128672.0,-5.258008,68.0223
1000.0,120629.7,-9.126077,67.9877
2154.4,118408.0,-14.91313,68.012
4641.6,103847.4,-25.22352,68.0042
10000.0,83348.3,-48.66366,68.0142
