Frequency,Impedance,Phase Angle,Temperature (Dry Bath)
10.0,22942580.0,-13.54748,68.0233
21.5,32888470.0,-52.39974,68.0296
46.4,31937230.0,-47.35638,68.0323
100.0,6058537.0,-23.37527,68.0298
215.4,4144491.0,-80.73713,68.037
464.2,3728212.0,-68.35553,68.0319
1000.0,1374998.0,-96.47995,68.0214
2154.4,634319.1,-86.95979,68.0189
4641.6,303890.2,-91.65112,68.0252
10000.0,158054.2,-94.27124,68.0269
