Frequency,Impedance,Phase Angle,Temperature (Dry Bath)
10.0,5173273.0,2.520773,66.4049
21.544346900318832,6959822.0,-13.6985,66.4265
46.41588833612777,5247549.0,-13.02006,66.4225
100.0,416125.0,-4.129466,66.4208
215.44346900318823,544652.7,-17.17493,66.4213
464.15888336127773,1858516.0,-79.21049,66.4267
1000.0,296867.3,-113.8651,66.4197
2154.4346900318824,208799.5,-86.95384,66.4019
4641.588833612777,122668.0,-91.10741,66.4179
10000.0,59940.08,-88.82779,66.412
