Frequency,Impedance,Phase Angle,Temperature (Dry Bath)
10.0,37678610.0,-15.91988,68.0365
21.5,27650440.0,-21.56529,68.053
46.4,38186660.0,-44.12282,68.0457
100.0,4751061.0,-38.71616,68.0582
215.4,7288289.0,-92.54082,68.0459
464.2,2324687.0,-59.36685,68.0503
1000.0,1438576.0,-86.46325,68.0431
2154.4,735927.2,-80.92544,68.0405
4641.6,340018.6,-88.81565,68.0582
10000.0,143271.4,-95.37274,68.0551
