Frequency,Impedance,Phase Angle,Temperature (Dry Bath)
10.0,21690240.0,-17.17911,68.058
21.5,14611300.0,-45.0022,68.0716
46.4,14128450.0,-57.55636,68.0953
100.0,6844786.0,-51.83453,68.0981
215.4,6045853.0,-52.59446,68.0782
464.2,2443052.0,-89.65651,68.0723
1000.0,1301805.0,-76.10359,68.0722
2154.4,559440.9,-88.88262,68.0771
4641.6,278673.3,-90.79014,68.0567
10000.0,131996.0,-94.6848,68.063
