Frequency,Impedance,Phase Angle,Temperature (Dry Bath)
10.0,5979443.0,2.711494,65.7523
21.544346900318832,5042473.0,-21.29696,65.7493
46.41588833612777,8576138.0,-23.55794,65.7561
100.0,1422124.0,-142.3511,65.7442
215.44346900318823,10909.77,23.56919,65.7618
464.15888336127773,1094495.0,-32.43356,65.7656
1000.0,1011827.0,-101.1368,65.7686
2154.4346900318824,449213.9,-52.23788,65.7465
4641.588833612777,146046.2,-87.33205,65.762
10000.0,64477.88,-80.67865,65.7707
