Frequency,Impedance,Phase Angle,Temperature (Dry Bath)
10.0,5225678.0,-1.024058,70.9082
21.544346900318832,4280867.0,-7.09939,70.9106
46.41588833612777,3581106.0,-11.93401,70.9055
100.0,527572.5,90.04363,70.9084
215.44346900318823,869146.7,-116.2653,70.9097
464.15888336127773,856584.9,-11.21224,70.9138
1000.0,439275.1,-50.48756,70.911
2154.4346900318824,175064.2,-63.99022,70.9142
4641.588833612777,114784.5,-83.14438,70.9111
10000.0,53042.64,-81.39413,70.9137
