Frequency,Impedance,Phase Angle,Temperature (Dry Bath)
10.0,4217561.0,-1.092078,70.9407
21.544346900318832,4271502.0,-11.7209,70.9437
46.41588833612777,4821685.0,-21.02801,70.9365
100.0,961188.0,-73.99057,70.9586
215.44346900318823,612663.1,-6.100275,70.9332
464.15888336127773,1211127.0,27.36383,70.9418
1000.0,447004.8,-75.5101,70.9403
2154.4346900318824,227483.2,-80.37028,70.9659
4641.588833612777,199686.3,-92.9635,70.9375
10000.0,63299.04,-80.86524,70.9419
