Frequency,Impedance,Phase Angle,Temperature (Dry Bath)
10.0,27397710.0,-23.06755,67.1072
21.5,25371590.0,-57.54979,67.1201
46.4,14491180.0,-63.06542,67.1039
100.0,3129190.0,-40.87945,67.1017
215.4,2017914.0,-100.574,67.0953
464.2,1665992.0,-68.63566,67.1187
1000.0,672520.1,-88.9476,67.1106
2154.4,402675.4,-83.77898,67.0891
4641.6,204243.2,-80.25345,67.1051
10000.0,101120.1,-81.13458,67.1149
