Frequency,Impedance,Phase Angle,Temperature (Dry Bath)
10.0,4619820.0,-18.38895,70.8404
21.544346900318832,5597233.0,-36.15024,70.8292
46.41588833612777,4205390.0,-19.86574,70.8265
100.0,1039356.0,-48.98996,70.829
215.44346900318823,479733.0,23.57694,70.8327
464.15888336127773,542349.4,-70.7219,70.8348
1000.0,822580.3,-79.86601,70.8218
2154.4346900318824,215999.7,-64.1915,70.8254
4641.588833612777,126730.3,-94.00563,70.8269
10000.0,64686.39,-87.53373,70.8367
