Frequency,Impedance,Phase Angle,Temperature (Dry Bath)
10.0,7806683.0,-3.62601,67.2431
21.5,6847946.0,-10.85159,67.2579
46.4,6726369.0,-11.54497,67.2384
100.0,4171374.0,-30.2915,67.2345
215.4,267539.0,5.036622,67.2372
464.2,2154350.0,-57.99082,67.2337
1000.0,1012911.0,-76.26042,67.2191
2154.4,579843.4,-86.6017,67.2215
4641.6,278605.3,-85.40659,67.2292
10000.0,125107.5,-85.29347,67.2522
