Frequency,Impedance,Phase Angle,Temperature (Dry Bath)
10.0,28942970.0,-12.30485,67.3434
21.5,28912560.0,-40.77927,67.3442
46.4,11577760.0,-85.0335,67.3611
100.0,2849393.0,31.78893,67.3476
215.4,163835.9,-113.8248,67.3578
464.2,4075109.0,-104.5944,67.3513
1000.0,963098.8,-84.81624,67.3451
2154.4,541395.6,-85.0201,67.3689
4641.6,262236.0,-86.76029,67.3634
10000.0,122529.8,-85.05787,67.3577
