Frequency,Impedance,Phase Angle,Temperature (Dry Bath)
10.0,65082.94,-37.64538,67.728
21.5,48638.34,-34.43068,67.7082
46.4,37256.97,-31.14193,67.7226
100.0,29056.11,-27.35289,67.7211
215.4,24302.1,-22.57269,67.7147
464.2,20630.26,-18.35951,67.713
1000.0,17886.26,-14.99284,67.7111
2154.4,15986.36,-14.21404,67.7321
4641.6,14700.92,-14.96822,67.7293
10000.0,13590.46,-17.03596,67.72
