Frequency,Impedance,Phase Angle,Temperature (Dry Bath)
10.0,37248960.0,0.9384172,68.2085
21.5,19851990.0,-20.24543,68.2085
46.4,16884250.0,-46.35826,68.2085
100.0,6251196.0,-79.72519,68.2085
215.4,5359688.0,-60.65986,68.2085
464.2,2741033.0,-75.70159,68.2085
1000.0,1288299.0,-82.75217,68.2085
2154.4,658134.5,-87.80666,68.2085
4641.6,323261.6,-85.60784,68.2085
10000.0,148740.0,-94.74059,68.2085
