Frequency,Impedance,Phase Angle,Temperature (Dry Bath)
10.0,22069450.0,-11.57875,68.1016
21.5,28877810.0,-37.19133,68.1016
46.4,25271750.0,-47.31066,68.1016
100.0,6433697.0,-61.53487,68.1016
215.4,4395103.0,-64.27936,68.1016
464.2,3686269.0,-49.35328,68.1016
1000.0,1335483.0,-81.90804,68.1016
2154.4,649212.2,-85.96316,68.1016
4641.6,286279.6,-90.95378,68.1016
10000.0,152181.4,-95.65244,68.1016
