Frequency,Impedance,Phase Angle,Temperature (Dry Bath)
10.0,3761665.0,-13.94538,71.4319
21.544346900318832,7774073.0,-12.76238,71.4263
46.41588833612777,3661616.0,-37.18131,71.4132
100.0,398097.3,-155.6387,71.4159
215.44346900318823,122063.1,59.6499,71.424
464.15888336127773,2168986.0,-57.00581,71.4287
1000.0,272782.2,-24.0759,71.4342
2154.4346900318824,235828.3,-73.53489,71.4233
4641.588833612777,112738.6,-88.12443,71.4364
10000.0,58505.66,-86.24259,71.4333
