Frequency,Impedance,Phase Angle,Temperature (Dry Bath)
10.0,468345.0,-26.44469,65.7952
21.544346900318832,375890.1,-26.64646,65.7991
46.41588833612777,299908.6,-23.75752,65.7977
100.0,207544.3,-33.95407,65.7826
215.44346900318823,28572.87,0.3108571,65.796
464.15888336127773,226559.3,-37.14599,65.8031
1000.0,140651.9,-40.32628,65.7805
2154.4346900318824,114193.2,-45.48989,65.7711
4641.588833612777,74751.68,-50.5848,65.7782
10000.0,48245.68,-57.22033,65.7796
