Frequency,Impedance,Phase Angle,Temperature (Dry Bath)
10.0,24393840.0,-16.24279,68.083
21.5,21735660.0,-38.62663,68.0952
46.4,26938590.0,-56.8507,68.0969
100.0,7879474.0,-39.77745,68.0826
215.4,4459074.0,-54.4417,68.0791
464.2,2766267.0,-80.40177,68.0949
1000.0,1401828.0,-82.20471,68.0908
2154.4,600194.8,-87.64013,68.0778
4641.6,291432.7,-90.43633,68.0796
10000.0,145119.1,-96.71231,68.1079
