Frequency,Impedance,Phase Angle,Temperature (Dry Bath)
10.0,69503.74,-31.18381,67.0284
21.5,54976.39,-27.36283,67.043
46.4,45388.99,-23.62017,67.026
100.0,39200.14,-19.96156,67.0308
215.4,34188.92,-16.78618,67.0316
464.2,30727.44,-14.54234,67.0258
1000.0,27828.33,-12.7913,67.0398
2154.4,25519.49,-12.33938,67.0319
4641.6,23544.11,-13.1516,67.044
10000.0,21526.32,-17.08327,67.038
