Frequency,Impedance,Phase Angle,Temperature (Dry Bath)
10.0,15743620.0,9.2779,71.0915
21.544346900318832,7411219.0,-18.62156,71.0728
46.41588833612777,4892810.0,-19.86542,71.0821
100.0,643223.8,55.82313,71.0786
215.44346900318823,6152407.0,29.18832,71.0928
464.15888336127773,397874.2,-164.8457,71.0851
1000.0,510629.8,-179.4011,71.085
2154.4346900318824,3625643.0,-44.59922,71.0781
4641.588833612777,660437.6,-78.57511,71.0863
10000.0,145392.4,-73.84492,71.0943
