Frequency,Impedance,Phase Angle,Temperature (Dry Bath)
10.0,33024780.0,-24.17467,67.2814
21.5,25820170.0,-26.77701,67.2622
46.4,22485610.0,-48.61313,67.2657
100.0,5629837.0,-54.73676,67.2766
215.4,1385366.0,-84.61806,67.2682
464.2,2284027.0,-101.5073,67.2569
1000.0,1170590.0,-94.36691,67.2544
2154.4,546186.1,-89.53848,67.2651
4641.6,277063.0,-86.91056,67.2744
10000.0,128277.7,-84.03236,67.2749
