Frequency,Impedance,Phase Angle,Temperature (Dry Bath)
10.0,5169017.0,-21.96319,70.7751
21.544346900318832,5113397.0,-7.544053,70.7801
46.41588833612777,4751950.0,-33.96007,70.7827
100.0,289560.5,-13.41063,70.7932
215.44346900318823,884553.6,-18.76855,70.7846
464.15888336127773,935829.7,41.11829,70.7706
1000.0,596600.6,-33.47642,70.772
2154.4346900318824,347631.5,-84.08385,70.7787
4641.588833612777,95387.41,-91.08661,70.7962
10000.0,60010.18,-82.83503,70.7862
