Frequency,Impedance,Phase Angle,Temperature (Dry Bath)
10.0,5356454.0,-6.740858,66.3743
21.544346900318832,5144652.0,-32.08728,66.3723
46.41588833612777,6157258.0,-20.99434,66.3714
100.0,1078812.0,26.38715,66.375
215.44346900318823,297693.4,-27.44032,66.3692
464.15888336127773,683306.3,-101.9097,66.375
1000.0,319984.3,-70.52896,66.3753
2154.4346900318824,986784.5,-99.95184,66.3705
4641.588833612777,138481.3,-94.72976,66.3647
10000.0,67434.76,-89.80195,66.3546
