Frequency,Impedance,Phase Angle,Temperature (Dry Bath)
10.0,25107910.0,-15.95404,68.0658
21.5,18798870.0,-18.62136,68.0658
46.4,27669110.0,-41.30895,68.0658
100.0,5637744.0,-24.4226,68.0658
215.4,4967759.0,-86.67401,68.0658
464.2,2691807.0,-81.20157,68.0658
1000.0,1284476.0,-85.40096,68.0658
2154.4,638852.2,-87.46905,68.0658
4641.6,310975.4,-95.54705,68.0658
10000.0,156167.2,-97.60072,68.0658
