Frequency,Impedance,Phase Angle,Temperature (Dry Bath)
10.0,133729.9,-3.649749,67.2149
21.5,131409.0,-3.442538,67.1995
46.4,128480.8,-3.020063,67.1822
100.0,122734.2,-3.68025,67.185
215.4,128810.4,31.58616,67.1765
464.2,121780.9,-6.252566,67.1881
1000.0,117218.1,-9.935771,67.1747
2154.4,110228.5,-16.81949,67.1664
4641.6,96012.43,-27.16331,67.1948
10000.0,74243.6,-43.21936,67.1922
