Frequency,Impedance,Phase Angle,Temperature (Dry Bath)
10.0,26555110.0,-2.824298,68.1097
21.5,20701290.0,-23.80331,68.1168
46.4,26595420.0,-39.46899,68.1088
100.0,6408517.0,-27.65488,68.1125
215.4,14717900.0,-83.17961,68.1189
464.2,2727179.0,-80.12598,68.0996
1000.0,1511473.0,-90.44043,68.092
2154.4,660018.6,-90.80039,68.1012
4641.6,347001.4,-95.25085,68.1167
10000.0,148419.1,-96.63384,68.0861
