Frequency,Impedance,Phase Angle,Temperature (Dry Bath)
10.0,5985937.0,-14.82188,65.8494
21.544346900318832,5210614.0,-26.83511,65.8526
46.41588833612777,5518472.0,-12.39159,65.8441
100.0,795367.7,18.74905,65.8558
215.44346900318823,5586.741,102.8909,65.8518
464.15888336127773,1449819.0,50.39319,65.8486
1000.0,1093530.0,-44.28094,65.858
2154.4346900318824,428792.0,-109.8719,65.8467
4641.588833612777,150304.0,-86.42217,65.8558
10000.0,66850.73,-83.3713,65.8505
