Frequency,Impedance,Phase Angle,Temperature (Dry Bath)
10.0,1522076.0,-18.6304,67.1909
21.5,1400613.0,-16.5641,67.1825
46.4,1222271.0,-15.28186,67.1938
100.0,974839.2,-11.53134,67.1847
215.4,237689.5,76.87293,67.191
464.2,838917.8,-38.8943,67.1907
1000.0,660825.0,-39.01787,67.1683
2154.4,399023.1,-62.18049,67.1697
4641.6,227304.7,-70.75038,67.1756
10000.0,111829.2,-79.62288,67.1795
