Frequency,Impedance,Phase Angle,Temperature (Dry Bath)
10.0,5534571.0,8.483323,70.932
21.544346900318832,3751404.0,-0.9533126,70.9371
46.41588833612777,3162948.0,-41.51941,70.9398
100.0,530809.1,75.088,70.9171
215.44346900318823,4022611.0,154.8943,70.9302
464.15888336127773,718693.6,-89.90203,70.9162
1000.0,371862.1,-64.15479,70.9277
2154.4346900318824,368652.4,-75.14822,70.9188
4641.588833612777,129791.4,-90.75166,70.9306
10000.0,59260.82,-85.27827,70.9231
