Frequency,Impedance,Phase Angle,Temperature (Dry Bath)
10.0,2605363.0,-10.62208,67.9987
21.5,2693639.0,-9.770986,68.0169
46.4,2921580.0,-13.69686,67.9915
100.0,2544684.0,-19.4627,67.9943
215.4,2065923.0,-28.0084,67.9892
464.2,1557140.0,-33.57691,67.9867
1000.0,1154791.0,-59.96175,68.0042
2154.4,579214.7,-73.01194,67.995
4641.6,314799.2,-89.98247,68.0004
10000.0,146113.9,-88.81034,68.0049
