Frequency,Impedance,Phase Angle,Temperature (Dry Bath)
10.0,27919700.0,-27.44513,67.0561
21.5,36798010.0,-31.5186,67.065
46.4,17227710.0,-54.15839,67.0535
100.0,8900906.0,-172.4533,67.064
215.4,6208908.0,-179.1108,67.0644
464.2,2969579.0,-65.99798,67.059
1000.0,1272531.0,-84.19954,67.0594
2154.4,556883.2,-82.70197,67.0571
4641.6,255141.3,-87.41627,67.063
10000.0,120332.5,-86.76698,67.0605
