Frequency,Impedance,Phase Angle,Temperature (Dry Bath)
10.0,5738494.0,-6.42494,71.197
21.544346900318832,8357191.0,-42.09601,71.192
46.41588833612777,5228236.0,-14.00078,71.186
100.0,386372.6,-57.01396,71.1958
215.44346900318823,916127.7,-31.5849,71.1965
464.15888336127773,791271.6,168.1675,71.1906
1000.0,359670.5,-170.8721,71.1998
2154.4346900318824,215285.8,-84.28439,71.1861
4641.588833612777,109092.5,-78.16861,71.1834
10000.0,62282.36,-79.91547,71.1901
