Frequency,Impedance,Phase Angle,Temperature (Dry Bath)
10.0,4704915.0,-23.74104,65.6962
21.544346900318832,4492078.0,-8.556408,65.6893
46.41588833612777,3664006.0,24.27265,65.6768
100.0,3062453.0,-24.84463,65.6911
215.44346900318823,17980.84,36.61715,65.6766
464.15888336127773,860695.6,-31.97853,65.6553
1000.0,740112.6,-77.1796,65.6848
2154.4346900318824,205623.8,-69.70938,65.6834
4641.588833612777,164416.6,-101.4198,65.6642
10000.0,78870.7,-87.06494,65.6594
