Frequency,Impedance,Phase Angle,Temperature (Dry Bath)
10.0,37102260.0,-9.023154,67.0337
21.5,24916490.0,-51.68101,67.0218
46.4,13624510.0,-54.15117,67.03
100.0,4633530.0,-12.47037,67.0208
215.4,4959233.0,-37.24826,67.0225
464.2,1551167.0,-81.00181,67.0205
1000.0,987101.6,-84.94977,67.0152
2154.4,435024.4,-83.93545,67.0291
4641.6,200418.1,-84.91609,67.0293
10000.0,99841.96,-80.55499,67.0152
