Frequency,Impedance,Phase Angle,Temperature (Dry Bath)
10.0,127366.1,-3.91306,67.2615
21.5,124337.4,-3.492579,67.2652
46.4,121279.1,-3.358473,67.2441
100.0,118995.3,-4.333519,67.2465
215.4,115924.7,-4.760197,67.2744
464.2,114054.8,-6.204409,67.2659
1000.0,107845.0,-9.167717,67.2501
2154.4,103141.8,-16.16046,67.2589
4641.6,90880.96,-25.45637,67.2644
10000.0,70793.23,-41.02359,67.2564
