Frequency,Impedance,Phase Angle,Temperature (Dry Bath)
10.0,223695.4,-16.89459,71.8771
21.544346900318832,193899.4,-16.77871,71.8662
46.41588833612777,167180.8,-17.74727,71.8854
100.0,115529.9,-22.79084,71.8634
215.44346900318823,140757.5,-6.269645,71.866
464.15888336127773,100131.1,-19.9003,71.863
1000.0,95665.65,-19.08907,71.8542
2154.4346900318824,89775.87,-12.28679,71.8628
4641.588833612777,73784.18,-21.18553,71.8668
10000.0,69224.38,-42.37834,71.8733
