Frequency,Impedance,Phase Angle,Temperature (Dry Bath)
10.0,5343706.0,-1.405299,71.4257
21.544346900318832,8264777.0,-28.95924,71.3925
46.41588833612777,6603793.0,-12.83856,71.4125
100.0,479944.9,-7.142987,71.4158
215.44346900318823,2214926.0,-127.0025,71.4088
464.15888336127773,1386935.0,-31.87648,71.4118
1000.0,1134048.0,-60.26561,71.3832
2154.4346900318824,393109.6,-59.21176,71.3893
4641.588833612777,384799.7,-83.63636,71.4085
10000.0,129995.5,-87.43073,71.4041
