Frequency,Impedance,Phase Angle,Temperature (Dry Bath)
10.0,5656165.0,3.356785,71.1985
21.544346900318832,6080947.0,-70.75073,71.2034
46.41588833612777,5083141.0,-18.12427,71.1815
100.0,1124463.0,-15.10511,71.1779
215.44346900318823,884803.2,-39.60569,71.1984
464.15888336127773,1123490.0,-110.8828,71.1886
1000.0,286150.1,-90.62918,71.197
2154.4346900318824,205983.5,-97.64423,71.1902
4641.588833612777,115895.4,-75.59463,71.1956
10000.0,65214.39,-88.22883,71.1877
