Frequency,Impedance,Phase Angle,Temperature (Dry Bath)
10.0,21871620.0,-14.0207,68.1482
21.5,19270930.0,-25.89947,68.1451
46.4,14047960.0,-50.37303,68.1447
100.0,4470944.0,-52.33946,68.1459
215.4,8872145.0,-39.11769,68.1494
464.2,3497989.0,-68.86477,68.1407
1000.0,1311055.0,-90.22959,68.1512
2154.4,661919.9,-79.09762,68.1329
4641.6,300746.7,-89.36425,68.1462
10000.0,142188.3,-94.73014,68.1543
