Frequency,Impedance,Phase Angle,Temperature (Dry Bath)
10.0,4874730.0,-9.112497,28.8753
21.544346900318832,4318844.0,-27.41499,29.1504
46.41588833612777,5214725.0,-22.27476,29.1331
100.0,1816841.0,-56.23895,29.183
215.44346900318823,997518.2,-42.94877,29.201
464.15888336127773,914477.1,-0.5995483,29.2463
1000.0,1432746.0,69.3452,29.2216
2154.4346900318824,561376.3,-114.8508,29.0778
4641.588833612777,333791.9,-75.97527,29.0808
10000.0,147166.7,-76.69133,29.2774
