Frequency,Impedance,Phase Angle,Temperature (Dry Bath)
10.0,5653684.0,-12.67676,71.5172
21.544346900318832,7612150.0,24.5731,71.515
46.41588833612777,3590829.0,-15.63716,71.512
100.0,631908.6,29.91569,71.5028
215.44346900318823,1883365.0,125.3828,71.4873
464.15888336127773,813962.9,-20.27968,71.5279
1000.0,751802.3,-136.3993,71.5117
2154.4346900318824,320241.0,-103.2069,71.5125
4641.588833612777,207608.6,-69.40693,71.5201
10000.0,127143.6,-78.17456,71.5085
