Frequency,Impedance,Phase Angle,Temperature (Dry Bath)
10.0,56934.79,-33.12744,67.4907
21.5,44003.75,-28.86594,67.4989
46.4,36212.75,-24.83457,67.4976
100.0,30614.01,-21.00236,67.4884
215.4,30898.8,-13.8277,67.4823
464.2,23967.23,-14.77996,67.4625
1000.0,21638.53,-12.8428,67.4887
2154.4,19912.57,-11.66155,67.4764
4641.6,18494.29,-12.0626,67.4703
10000.0,17160.07,-14.72732,67.4698
