Frequency,Impedance,Phase Angle,Temperature (Dry Bath)
10.0,6794068.0,-8.259463,71.6379
21.544346900318832,3331129.0,-12.48261,71.6342
46.41588833612777,5131455.0,-5.254744,71.6298
100.0,895788.5,-74.49745,71.6169
215.44346900318823,6387733.0,108.8375,71.609
464.15888336127773,711741.0,-93.23369,71.6222
1000.0,984664.7,-88.57384,71.6214
2154.4346900318824,367378.3,-73.57862,71.6187
4641.588833612777,252602.9,-86.03895,71.6271
10000.0,142161.3,-89.31359,71.6215
