Frequency,Impedance,Phase Angle,Temperature (Dry Bath)
10.0,25661900.0,-15.33999,67.4605
21.5,26165220.0,-13.69365,67.4786
46.4,19497740.0,-53.60463,67.5005
100.0,17895100.0,42.4952,67.4807
215.4,198337.6,-104.0643,67.4681
464.2,3272232.0,-109.2913,67.47
1000.0,1197373.0,-81.19285,67.5012
2154.4,563612.5,-86.49063,67.468
4641.6,271953.4,-87.1182,67.4911
10000.0,125565.9,-86.63038,67.5098
