Frequency,Impedance,Phase Angle,Temperature (Dry Bath)
10.0,112842.6,-3.098175,67.2134
21.5,110655.9,-2.582863,67.2203
46.4,108885.9,-2.485175,67.2187
100.0,107961.8,-2.384882,67.2066
215.4,107406.6,-2.973579,67.2251
464.2,105234.0,-4.596689,67.2133
1000.0,99771.4,-8.156458,67.2228
2154.4,97468.22,-13.93186,67.2103
4641.6,87462.18,-24.37095,67.2079
10000.0,68275.36,-40.22374,67.2156
