Frequency,Impedance,Phase Angle,Temperature (Dry Bath)
10.0,35120400.0,-5.951389,67.1629
21.5,20314320.0,-22.40399,67.1604
46.4,17530270.0,-53.55863,67.1612
100.0,6414179.0,-7.058413,67.1416
215.4,150168.7,-123.1929,67.1503
464.2,3064032.0,-70.73432,67.1448
1000.0,1008437.0,-76.70315,67.1499
2154.4,558693.2,-91.33309,67.1529
4641.6,261535.7,-87.08599,67.1375
10000.0,122237.0,-86.98559,67.1416
