Frequency,Impedance,Phase Angle,Temperature (Dry Bath)
10.0,1492689.0,-18.26292,67.658
21.5,1317725.0,-15.08399,67.6762
46.4,1185750.0,-14.22988,67.6756
100.0,967879.4,-17.79916,67.6603
215.4,1033750.0,-18.88135,67.6624
464.2,821962.2,-26.79886,67.6748
1000.0,724533.9,-39.06749,67.6807
2154.4,503987.2,-53.27291,67.6771
4641.6,259540.9,-71.53208,67.6555
10000.0,136542.2,-87.11234,67.6603
