Frequency,Impedance,Phase Angle,Temperature (Dry Bath)
10.0,3650626.0,-5.186293,65.7257
21.544346900318832,7520443.0,-1.305246,65.7211
46.41588833612777,4078361.0,-34.41473,65.7266
100.0,668571.8,-8.157483,65.7197
215.44346900318823,5204.98,-159.2376,65.7078
464.15888336127773,3122341.0,155.599,65.7092
1000.0,622000.1,-81.81476,65.6982
2154.4346900318824,366274.4,-101.5829,65.6901
4641.588833612777,129815.2,-79.09776,65.7092
10000.0,74119.25,-86.517,65.7054
