Frequency,Impedance,Phase Angle,Temperature (Dry Bath)
10.0,1563791.0,-18.1472,67.1068
21.5,1389964.0,-16.8735,67.1004
46.4,1250752.0,-15.06215,67.0953
100.0,1137165.0,-16.23885,67.1012
215.4,176349.2,-60.42888,67.1007
464.2,811984.3,-29.05328,67.117
1000.0,683911.4,-43.31719,67.1034
2154.4,437083.6,-62.03312,67.1004
4641.6,235704.5,-72.71131,67.1011
10000.0,114564.4,-80.06158,67.1149
