Frequency,Impedance,Phase Angle,Temperature (Dry Bath)
10.0,30517230.0,-1.046191,67.3802
21.5,21559230.0,-29.30318,67.3739
46.4,14533990.0,-53.78243,67.3627
100.0,2574259.0,12.40887,67.3662
215.4,1451097.0,-84.86785,67.354
464.2,1582372.0,-82.91372,67.3676
1000.0,817064.9,-78.68173,67.3701
2154.4,418554.5,-84.85786,67.3792
4641.6,225458.8,-79.8925,67.3655
10000.0,106588.8,-81.03728,67.3694
