Frequency,Impedance,Phase Angle,Temperature (Dry Bath)
10.0,3973954.0,-10.30305,67.8917
21.5,4300050.0,-13.04685,67.8906
46.4,5813358.0,-16.35335,67.9009
100.0,3087821.0,2.617303,67.8942
215.4,2444861.0,-33.164,67.8918
464.2,1940620.0,-55.90968,67.8938
1000.0,1201031.0,-67.77575,67.8805
2154.4,596256.9,-78.26846,67.8917
4641.6,286248.2,-90.66148,67.8715
10000.0,134304.2,-94.77858,67.9027
