Frequency,Impedance,Phase Angle,Temperature (Dry Bath)
10.0,38537710.0,-32.41068,67.3505
21.5,33078470.0,-10.0118,67.3782
46.4,16231580.0,-56.91183,67.3727
100.0,8076109.0,-112.8368,67.3558
215.4,381696.2,42.6797,67.3558
464.2,2538550.0,-36.57163,67.3608
1000.0,1107502.0,-91.23816,67.3582
2154.4,596086.1,-84.12614,67.3621
4641.6,279662.4,-89.12752,67.365
10000.0,129999.7,-86.96108,67.375
