Frequency,Impedance,Phase Angle,Temperature (Dry Bath)
10.0,37994810.0,1.830189,67.4231
21.5,23113460.0,-22.80442,67.4404
46.4,16343530.0,-50.28451,67.4382
100.0,5840999.0,-36.34856,67.4315
215.4,1201134.0,162.3086,67.426
464.2,2252079.0,-81.47006,67.4338
1000.0,1335037.0,-81.48211,67.422
2154.4,563214.2,-89.37325,67.4362
4641.6,255813.8,-87.92659,67.4195
10000.0,123202.5,-86.9798,67.4225
