Frequency,Impedance,Phase Angle,Temperature (Dry Bath)
10.0,4322363.0,-7.92477,71.1072
21.544346900318832,4286367.0,32.16877,71.1133
46.41588833612777,4356349.0,-29.56091,71.1146
100.0,357420.8,173.5925,71.1242
215.44346900318823,291104.3,-116.1017,71.0999
464.15888336127773,691296.8,-25.04049,71.1259
1000.0,476610.8,-43.02523,71.1261
2154.4346900318824,376648.4,-64.09534,71.1063
4641.588833612777,423986.1,-34.43821,71.1164
10000.0,146836.0,-81.65886,71.1098
