Frequency,Impedance,Phase Angle,Temperature (Dry Bath)
10.0,25728370.0,-20.23319,68.1075
21.5,43542940.0,-28.49711,68.1187
46.4,30251710.0,-41.94244,68.1031
100.0,4578224.0,-27.92683,68.0977
215.4,4329338.0,-35.61354,68.1031
464.2,3282126.0,-90.77876,68.1101
1000.0,1596337.0,-90.7776,68.0986
2154.4,643605.5,-90.5285,68.1023
4641.6,299118.4,-87.64221,68.0924
10000.0,136383.6,-97.15996,68.1055
