Frequency,Impedance,Phase Angle,Temperature (Dry Bath)
10.0,1007911.0,-24.05037,17.6205
21.5,836300.7,-23.07186,17.6088
46.4,701117.4,-24.11394,17.6015
100.0,615926.9,-28.98187,17.607
215.4,489872.6,-29.87541,17.5881
464.2,390040.0,-27.75499,17.613
1000.0,288387.7,-34.9742,17.594
2154.4,222375.3,-40.64326,17.6123
4641.6,159624.6,-53.35198,17.614
10000.0,104251.4,-64.50377,17.6046
