Frequency,Impedance,Phase Angle,Temperature (Dry Bath)
10.0,19506920.0,-15.8214,67.9626
21.5,22206720.0,-39.62926,67.9718
46.4,23086720.0,-46.99264,67.9654
100.0,4664269.0,-45.73974,67.9717
215.4,3773969.0,-72.80291,67.963
464.2,1852719.0,-83.92895,67.9709
1000.0,987954.9,-76.27841,67.9563
2154.4,489897.0,-81.42913,67.9797
4641.6,257265.4,-82.45959,67.9827
10000.0,140741.2,-87.80429,67.9838
