Frequency,Impedance,Phase Angle,Temperature (Dry Bath)
10.0,238930.8,-22.97004,67.0821
21.5,201049.7,-20.19767,67.0752
46.4,174120.4,-17.79607,67.0752
100.0,158510.4,-14.74748,67.0708
215.4,142560.4,-14.14058,67.065
464.2,129215.2,-15.08152,67.0824
1000.0,111391.0,-18.07194,67.0828
2154.4,105451.9,-22.69888,67.0971
4641.6,83460.99,-30.30786,67.1003
10000.0,63416.16,-40.87756,67.0866
