Frequency,Impedance,Phase Angle,Temperature (Dry Bath)
10.0,1958167.0,-12.92579,68.1993
21.5,1885808.0,-12.21156,68.2008
46.4,1743027.0,-12.73067,68.1958
100.0,1264463.0,-11.63461,68.1978
215.4,1282313.0,-25.41985,68.2069
464.2,1368564.0,-32.54604,68.2056
1000.0,781510.7,-45.32741,68.1971
2154.4,594557.2,-62.58701,68.2061
4641.6,310391.2,-77.62723,68.2035
10000.0,147054.5,-92.42071,68.2031
