Frequency,Impedance,Phase Angle,Temperature (Dry Bath)
10.0,5507251.0,-15.05383,70.9782
21.544346900318832,4679917.0,-31.08881,70.9475
46.41588833612777,3668530.0,-17.25779,70.9786
100.0,453394.3,-43.32287,70.9615
215.44346900318823,886884.0,2.221185,70.9633
464.15888336127773,813406.1,-68.36795,70.951
1000.0,464280.4,-90.79665,70.9481
2154.4346900318824,813772.4,-80.23128,70.9665
4641.588833612777,149902.0,-87.31907,70.9605
10000.0,64177.89,-90.44826,70.9584
