Frequency,Impedance,Phase Angle,Temperature (Dry Bath)
10.0,28654140.0,-2.80503,67.3254
21.5,23964060.0,-34.39579,67.3046
46.4,18294200.0,-49.57052,67.3194
100.0,6818806.0,-67.41868,67.3261
215.4,10998540.0,129.2961,67.3103
464.2,2142433.0,-83.63117,67.3067
1000.0,1093227.0,-76.36095,67.3093
2154.4,536356.3,-86.42366,67.3087
4641.6,259736.7,-87.65583,67.3041
10000.0,122573.7,-86.37429,67.2836
