Frequency,Impedance,Phase Angle,Temperature (Dry Bath)
10.0,1528814.0,-16.9653,67.9624
21.5,1354902.0,-14.33493,67.9487
46.4,1173866.0,-13.99879,67.9606
100.0,1019632.0,-13.054,67.9657
215.4,1072555.0,-22.07342,67.9778
464.2,866278.2,-23.22214,67.9638
1000.0,656196.9,-38.54115,67.9443
2154.4,513307.3,-56.81918,67.9574
4641.6,245668.6,-76.24153,67.9607
10000.0,140705.6,-82.19981,67.9676
