Frequency,Impedance,Phase Angle,Temperature (Dry Bath)
10.0,20320870.0,-22.00786,68.1532
21.5,17114810.0,-40.01845,68.1379
46.4,23155400.0,-51.38561,68.1435
100.0,9481628.0,-28.42207,68.1484
215.4,5029166.0,-40.55161,68.1502
464.2,1883071.0,-81.0074,68.1486
1000.0,1334388.0,-79.1451,68.1436
2154.4,626920.6,-90.11996,68.1553
4641.6,280573.9,-90.66775,68.1306
10000.0,144323.1,-94.22016,68.1263
