Frequency,Impedance,Phase Angle,Temperature (Dry Bath)
10.0,220932.1,-23.26145,67.1507
21.5,185356.9,-20.23664,67.1403
46.4,160996.0,-17.79361,67.1401
100.0,145089.2,-12.81196,67.1254
215.4,150382.8,12.19623,67.1277
464.2,116578.0,-15.11925,67.1331
1000.0,107543.7,-16.24803,67.1331
2154.4,94695.71,-20.88471,67.1095
4641.6,79898.53,-29.24725,67.1534
10000.0,60750.62,-41.49991,67.1106
