Frequency,Impedance,Phase Angle,Temperature (Dry Bath)
10.0,16626140.0,-18.56244,67.9962
21.5,15809420.0,-24.90968,67.9962
46.4,23291910.0,-45.48425,67.9962
100.0,4619335.0,-36.5499,67.9962
215.4,8540287.0,-81.66245,67.9962
464.2,3391338.0,-72.27424,67.9962
1000.0,1455638.0,-77.1255,67.9962
2154.4,680163.3,-87.24959,67.9962
4641.6,326403.2,-88.78373,67.9962
10000.0,158408.9,-96.59358,67.9962
