Frequency,Impedance,Phase Angle,Temperature (Dry Bath)
10.0,14546170.0,3.131358,68.1439
21.5,25325710.0,-38.41477,68.1439
46.4,21362790.0,-48.99784,68.1439
100.0,4378749.0,-49.2191,68.1439
215.4,6897886.0,-67.15722,68.1439
464.2,2053272.0,-86.63558,68.1439
1000.0,1427445.0,-83.75586,68.1439
2154.4,661434.4,-85.28324,68.1439
4641.6,345862.2,-88.18777,68.1439
10000.0,140075.9,-96.38355,68.1439
