Frequency,Impedance,Phase Angle,Temperature (Dry Bath)
10.0,5698624.0,4.292792,71.2241
21.544346900318832,5226456.0,-27.05555,71.2195
46.41588833612777,5176726.0,-6.219305,71.2116
100.0,758172.7,160.0333,71.2132
215.44346900318823,369741.7,-21.02595,71.2103
464.15888336127773,533147.6,-48.64314,71.2026
1000.0,314581.9,-98.13084,71.225
2154.4346900318824,571856.0,-96.57001,71.2196
4641.588833612777,265455.9,-174.3183,71.2247
10000.0,138203.6,-83.29516,71.2141
