Frequency,Impedance,Phase Angle,Temperature (Dry Bath)
10.0,99396.78,-3.074072,67.0776
21.5,97453.41,-2.593512,67.0875
46.4,95997.23,-2.466607,67.091
100.0,96327.68,-3.32314,67.0905
215.4,93961.34,-4.260997,67.075
464.2,92691.17,-4.114736,67.0764
1000.0,87815.59,-7.94877,67.0838
2154.4,87659.24,-12.72487,67.0753
4641.6,78126.79,-21.94755,67.1114
10000.0,65485.71,-38.60909,67.078
