Frequency,Impedance,Phase Angle,Temperature (Dry Bath)
10.0,19689110.0,-38.88607,67.8037
21.5,17082360.0,-16.13944,67.8003
46.4,16258870.0,-46.52326,67.8008
100.0,6374128.0,-41.19869,67.8077
215.4,4366895.0,-88.77514,67.7991
464.2,4428155.0,-90.21482,67.801
1000.0,1344067.0,-85.76536,67.7878
2154.4,667698.7,-84.32646,67.7901
4641.6,287529.7,-89.2005,67.7908
10000.0,157732.1,-99.24504,67.7877
