Frequency,Impedance,Phase Angle,Temperature (Dry Bath)
10.0,31235680.0,-6.859253,67.1211
21.5,22018630.0,-35.2541,67.1261
46.4,13953160.0,-62.70652,67.121
100.0,5602108.0,-83.72085,67.1191
215.4,227363.4,165.1035,67.125
464.2,1470844.0,-67.34844,67.1204
1000.0,854149.9,-81.13642,67.1186
2154.4,417146.9,-84.74374,67.1374
4641.6,199533.0,-83.00716,67.1286
10000.0,99269.39,-80.77925,67.1201
