Frequency,Impedance,Phase Angle,Temperature (Dry Bath)
10.0,3297699.0,13.88679,66.5
21.544346900318832,6675567.0,-7.45564,66.5
46.41588833612777,4830486.0,16.95849,66.5
100.0,2322241.0,-72.26176,66.5
215.44346900318823,7353814.0,0.3131248,66.5
464.15888336127773,2502943.0,-39.50676,66.5
1000.0,1993270.0,-92.74178,66.5
2154.4346900318824,1366246.0,5.134596,66.5
4641.588833612777,1636164.0,-26.03116,66.5
10000.0,990815.2,-85.764,66.5
