Frequency,Impedance,Phase Angle,Temperature (Dry Bath)
10.0,492474.4,-25.86435,66.3991
21.544346900318832,390974.9,-25.93513,66.4047
46.41588833612777,315873.2,-24.45154,66.4123
100.0,211812.6,-51.86238,66.4126
215.44346900318823,324764.5,-27.29447,66.4122
464.15888336127773,177275.6,-28.62157,66.4048
1000.0,173879.1,-23.50438,66.4022
2154.4346900318824,121630.3,-39.80403,66.4122
4641.588833612777,80470.18,-45.69961,66.4221
10000.0,48066.12,-65.46281,66.4091
