Frequency,Impedance,Phase Angle,Temperature (Dry Bath)
10.0,26829330.0,-27.07933,67.3827
21.5,20825990.0,-26.90611,67.3957
46.4,16985170.0,-66.53792,67.385
100.0,2738728.0,-2.173343,67.3902
215.4,285492.7,-79.8304,67.3955
464.2,1879079.0,-96.69158,67.3795
1000.0,1267715.0,-90.9709,67.3959
2154.4,542898.9,-90.9581,67.3855
4641.6,248096.3,-84.82864,67.4088
10000.0,127515.9,-85.68094,67.386
