Frequency,Impedance,Phase Angle,Temperature (Dry Bath)
10.0,206339.2,-23.57871,67.2709
21.5,172326.4,-20.59126,67.2494
46.4,149395.0,-17.63091,67.2776
100.0,133472.0,-15.38976,67.2605
215.4,122177.4,-14.69486,67.2563
464.2,110620.6,-13.7458,67.2594
1000.0,98992.03,-15.05429,67.2726
2154.4,90461.74,-18.32089,67.2697
4641.6,76960.28,-27.68842,67.2765
10000.0,59948.54,-39.65826,67.2723
