Frequency,Impedance,Phase Angle,Temperature (Dry Bath)
10.0,63423.88,-34.30146,67.7929
21.5,49762.06,-33.15616,67.7774
46.4,38485.19,-29.87698,67.7822
100.0,30358.22,-26.15759,67.7968
215.4,25391.38,-20.96943,67.792
464.2,21726.74,-18.07778,67.7866
1000.0,19404.6,-15.07009,67.7843
2154.4,17486.6,-13.61699,67.7822
4641.6,15920.62,-13.71122,67.79
10000.0,14521.73,-16.38852,67.7768
