Frequency,Impedance,Phase Angle,Temperature (Dry Bath)
10.0,18428630.0,-19.18969,68.0084
21.5,26550590.0,-14.16032,68.0182
46.4,24296520.0,-41.78106,67.9851
100.0,6338842.0,-90.44134,67.9857
215.4,9026123.0,-41.04517,68.0135
464.2,2394308.0,-77.34922,67.9818
1000.0,1258083.0,-92.5209,67.9705
2154.4,543338.0,-83.13671,67.9888
4641.6,321978.4,-89.38198,67.9819
10000.0,148299.1,-87.32043,67.9891
