Frequency,Impedance,Phase Angle,Temperature (Dry Bath)
10.0,24867870.0,-45.16646,67.424
21.5,18681360.0,-51.57658,67.4312
46.4,12079490.0,-58.91168,67.4212
100.0,4086763.0,-57.58669,67.4298
215.4,278062.4,-102.8942,67.426
464.2,1584364.0,-83.5203,67.4119
1000.0,1003754.0,-81.80635,67.4449
2154.4,411332.9,-82.66254,67.4313
4641.6,208020.5,-83.36887,67.4176
10000.0,101392.6,-79.94644,67.447
