Frequency,Impedance,Phase Angle,Temperature (Dry Bath)
10.0,4048750.0,-26.13269,71.4514
21.544346900318832,5424880.0,-9.527683,71.437
46.41588833612777,4769843.0,-19.64053,71.4576
100.0,7460429.0,171.5996,71.4568
215.44346900318823,656863.6,-98.42043,71.4438
464.15888336127773,1129997.0,-110.5296,71.4497
1000.0,762094.7,-56.04664,71.4571
2154.4346900318824,584329.3,-57.56329,71.4488
4641.588833612777,287407.2,-59.54688,71.4478
10000.0,99289.06,-70.79879,71.455
