Frequency,Impedance,Phase Angle,Temperature (Dry Bath)
10.0,25047960.0,-27.74838,68.0991
21.5,30247080.0,-28.53445,68.0924
46.4,35152370.0,-54.42574,68.0965
100.0,5065675.0,-46.62436,68.101
215.4,4797648.0,-47.54865,68.0947
464.2,2655516.0,-100.3534,68.0894
1000.0,1220562.0,-90.39817,68.0922
2154.4,596766.4,-84.81271,68.0688
4641.6,294397.3,-88.86987,68.0947
10000.0,136111.3,-92.21777,68.0796
