Frequency,Impedance,Phase Angle,Temperature (Dry Bath)
10.0,27266250.0,-28.58202,67.0706
21.5,23873780.0,-40.3765,67.0468
46.4,12569700.0,-63.09394,67.0455
100.0,3488829.0,-61.31831,67.0405
215.4,216144.9,-14.43931,67.0361
464.2,2032642.0,-87.51181,67.0255
1000.0,835281.5,-84.98846,67.026
2154.4,408774.0,-80.14642,67.0193
4641.6,198369.1,-80.73453,67.022
10000.0,101518.8,-80.01048,67.0505
