Frequency,Impedance,Phase Angle,Temperature (Dry Bath)
10.0,21210640.0,-2.515476,68.2568
21.5,23816670.0,-22.13112,68.2568
46.4,13248930.0,-47.47252,68.2568
100.0,7093438.0,-42.94462,68.2568
215.4,5335033.0,-54.94841,68.2568
464.2,2664173.0,-90.11761,68.2568
1000.0,1349392.0,-84.9716,68.2568
2154.4,681290.6,-86.75932,68.2568
4641.6,323667.3,-91.28884,68.2568
10000.0,156442.9,-97.85804,68.2568
