Frequency,Impedance,Phase Angle,Temperature (Dry Bath)
10.0,18795100.0,18.33283,71.1979
21.544346900318832,4257446.0,-0.4677881,71.1902
46.41588833612777,5602186.0,-8.17386,71.1825
100.0,945231.9,45.5165,71.189
215.44346900318823,1602187.0,-165.6059,71.2033
464.15888336127773,507200.1,-65.20024,71.1925
1000.0,447189.8,-75.69935,71.1995
2154.4346900318824,327253.6,-82.50875,71.1995
4641.588833612777,126242.3,-71.96329,71.1902
10000.0,58425.8,-81.02318,71.1997
