Frequency,Impedance,Phase Angle,Temperature (Dry Bath)
10.0,1607949.0,-14.53362,68.0139
21.5,1399310.0,-13.78161,68.0139
46.4,1227705.0,-13.11839,68.0139
100.0,1018198.0,-13.11456,68.0139
215.4,982753.8,-16.04474,68.0139
464.2,972949.6,-26.55473,68.0139
1000.0,719875.9,-39.73924,68.0139
2154.4,511937.7,-58.71605,68.0139
4641.6,285627.7,-75.22925,68.0139
10000.0,138694.4,-86.46772,68.0139
