Frequency,Impedance,Phase Angle,Temperature (Dry Bath)
10.0,49251140.0,-33.74351,67.8974
21.5,47313480.0,-27.1239,67.8958
46.4,24817340.0,-48.87743,67.8901
100.0,9999335.0,-18.26445,67.914
215.4,8616744.0,-88.17295,67.9015
464.2,3367267.0,-58.97163,67.8862
1000.0,1261385.0,-82.82582,67.9055
2154.4,654255.2,-93.60592,67.8927
4641.6,351207.5,-95.17882,67.9003
10000.0,152899.4,-96.52931,67.8932
