Frequency,Impedance,Phase Angle,Temperature (Dry Bath)
10.0,241416.2,-22.62103,67.2885
21.5,206758.9,-21.07484,67.2938
46.4,180986.4,-19.23699,67.296
100.0,155342.9,-17.25155,67.2996
215.4,132832.9,-18.88182,67.3032
464.2,125971.2,-17.43427,67.2768
1000.0,112835.8,-20.09238,67.3133
2154.4,95714.46,-23.26211,67.3086
4641.6,80062.3,-30.88978,67.3069
10000.0,61351.22,-42.18302,67.3108
