Frequency,Impedance,Phase Angle,Temperature (Dry Bath)
10.0,28349920.0,-30.44742,67.1525
21.5,25742070.0,-16.44884,67.1484
46.4,12533890.0,-62.27112,67.1374
100.0,3208119.0,-96.38949,67.1476
215.4,2591554.0,-85.65265,67.146
464.2,1670110.0,-86.98146,67.1518
1000.0,889058.6,-86.26835,67.15
2154.4,399656.9,-82.18382,67.142
4641.6,194671.4,-81.48641,67.1566
10000.0,98847.98,-81.41881,67.1458
