Frequency,Impedance,Phase Angle,Temperature (Dry Bath)
10.0,25186440.0,-14.3116,67.9125
21.5,30952720.0,-17.48318,67.8925
46.4,28511300.0,-52.16757,67.9106
100.0,4609207.0,-5.073304,67.9054
215.4,4242648.0,-37.77029,67.8876
464.2,2653098.0,-81.3494,67.8909
1000.0,1292033.0,-83.77965,67.887
2154.4,702967.8,-86.6732,67.89
4641.6,314866.2,-86.09678,67.8778
10000.0,145348.4,-94.22361,67.8903
