Frequency,Impedance,Phase Angle,Temperature (Dry Bath)
10.0,142989.1,-13.26215,71.034
21.544346900318832,129798.5,-12.03739,71.0123
46.41588833612777,118095.6,-11.68043,71.0246
100.0,98900.88,-15.46884,71.025
215.44346900318823,95803.92,-9.090641,71.0131
464.15888336127773,82811.85,-9.729223,71.0288
1000.0,86640.57,-10.5403,71.0145
2154.4346900318824,74379.66,-19.32479,71.0155
4641.588833612777,60754.4,-34.53936,71.016
10000.0,47316.97,-49.56766,71.0165
