Frequency,Impedance,Phase Angle,Temperature (Dry Bath)
10.0,2620244.0,-10.23067,68.031
21.5,2214286.0,-10.99773,68.031
46.4,1950842.0,-14.17548,68.031
100.0,1477002.0,-20.64686,68.031
215.4,1682754.0,-18.97176,68.031
464.2,1308847.0,-26.95914,68.031
1000.0,1005334.0,-49.91225,68.031
2154.4,583426.0,-66.65866,68.031
4641.6,334471.7,-76.56017,68.031
10000.0,158493.0,-97.14833,68.031
