Frequency,Impedance,Phase Angle,Temperature (Dry Bath)
10.0,1562547.0,-19.30697,67.0948
21.5,1400225.0,-17.47243,67.0983
46.4,1284305.0,-15.9502,67.1011
100.0,952096.4,-16.30872,67.1063
215.4,812920.6,-23.92594,67.0892
464.2,1139752.0,-34.11719,67.0822
1000.0,589555.6,-50.64656,67.1139
2154.4,465671.0,-65.84042,67.0975
4641.6,215501.3,-73.50384,67.0998
10000.0,103153.2,-80.26064,67.0738
