Frequency,Impedance,Phase Angle,Temperature (Dry Bath)
10.0,185615.5,-15.26615,71.4094
21.544346900318832,160515.1,-14.98303,71.4235
46.41588833612777,143371.2,-14.0289,71.4346
100.0,115299.2,-17.39509,71.4258
215.44346900318823,102252.2,-23.14166,71.4204
464.15888336127773,135284.3,-12.72179,71.4332
1000.0,85537.34,-30.04642,71.4589
2154.4346900318824,75439.1,-16.19545,71.4385
4641.588833612777,79941.86,-15.25664,71.4399
10000.0,57686.62,-35.4011,71.4511
