Frequency,Impedance,Phase Angle,Temperature (Dry Bath)
10.0,5455673.0,-19.75002,70.9575
21.544346900318832,2879148.0,-10.46961,70.9729
46.41588833612777,2669223.0,-25.77002,70.9507
100.0,589086.9,-79.29031,70.9594
215.44346900318823,1844826.0,-12.32208,70.9687
464.15888336127773,281538.2,-39.54465,70.9604
1000.0,459214.0,-64.13505,70.9447
2154.4346900318824,237471.2,-70.36592,70.9629
4641.588833612777,150760.8,-88.50763,70.9508
10000.0,60383.08,-85.42991,70.953
