Frequency,Impedance,Phase Angle,Temperature (Dry Bath)
10.0,208118.5,-23.62325,67.4445
21.5,174526.2,-20.59873,67.4348
46.4,151209.4,-17.69016,67.4399
100.0,135267.3,-16.22898,67.4497
215.4,126133.2,-13.14915,67.4506
464.2,113161.9,-13.56931,67.4543
1000.0,101181.4,-16.0191,67.4472
2154.4,91305.11,-20.78885,67.4281
4641.6,76719.34,-28.67467,67.4208
10000.0,59068.52,-39.64832,67.4294
