Frequency,Impedance,Phase Angle,Temperature (Dry Bath)
10.0,226724.6,-23.08111,67.3299
21.5,190994.8,-20.37984,67.347
46.4,165653.1,-17.74668,67.3277
100.0,147350.0,-15.654,67.3501
215.4,135912.3,-17.35181,67.3478
464.2,119127.7,-15.36846,67.3508
1000.0,108659.8,-16.33739,67.3495
2154.4,95252.92,-21.9438,67.3423
4641.6,81145.3,-31.21014,67.346
10000.0,60822.65,-41.51349,67.3439
