Frequency,Impedance,Phase Angle,Temperature (Dry Bath)
10.0,177691.5,-12.98493,71.4244
21.544346900318832,161256.5,-10.89891,71.4264
46.41588833612777,149834.4,-11.36194,71.4265
100.0,166763.9,-9.787333,71.4379
215.44346900318823,39629.52,-25.4915,71.4313
464.15888336127773,106703.2,-12.90625,71.4313
1000.0,139806.8,-29.15839,71.4212
2154.4346900318824,110023.4,-28.22801,71.4267
4641.588833612777,81311.24,-35.56297,71.4371
10000.0,52797.4,-62.30288,71.419
