Frequency,Impedance,Phase Angle,Temperature (Dry Bath)
10.0,19997380.0,-16.48059,67.9687
21.5,29177290.0,-29.42788,67.9687
46.4,37143610.0,-34.95665,67.9687
100.0,7133815.0,-98.51639,67.9687
215.4,4128390.0,-82.74628,67.9687
464.2,2913276.0,-79.37357,67.9687
1000.0,1444209.0,-78.46733,67.9687
2154.4,602448.4,-87.08738,67.9687
4641.6,291578.3,-92.54546,67.9687
10000.0,138018.7,-98.57965,67.9687
