Frequency,Impedance,Phase Angle,Temperature (Dry Bath)
10.0,25882240.0,-17.47746,67.3144
21.5,24469710.0,-28.72156,67.3386
46.4,19027900.0,-18.27016,67.3344
100.0,174164600.0,-178.5872,67.3268
215.4,200253.9,131.6114,67.3231
464.2,2144740.0,-96.11734,67.3261
1000.0,1297783.0,-79.57025,67.3246
2154.4,556457.3,-88.47908,67.3392
4641.6,282957.4,-85.03791,67.3287
10000.0,131366.8,-86.17099,67.3397
