Frequency,Impedance,Phase Angle,Temperature (Dry Bath)
10.0,628846.9,-29.57698,71.2512
21.544346900318832,505266.3,-25.00439,71.2862
46.41588833612777,393090.3,-25.73377,71.3071
100.0,261902.8,-6.91744,71.3041
215.44346900318823,209603.4,2.17577,71.2922
464.15888336127773,250149.4,-34.56187,71.2877
1000.0,162908.3,-54.25616,71.2991
2154.4346900318824,104017.8,-53.24912,71.2958
4641.588833612777,65423.43,-70.02815,71.3037
10000.0,34948.97,-74.15801,71.3261
