Frequency,Impedance,Phase Angle,Temperature (Dry Bath)
10.0,3832560.0,-7.411127,71.235
21.544346900318832,4935693.0,-6.590867,71.2326
46.41588833612777,10983770.0,-15.16297,71.2216
100.0,196782.1,0.9730794,71.2253
215.44346900318823,1909745.0,-50.20062,71.2345
464.15888336127773,893153.4,148.2579,71.2283
1000.0,1872217.0,147.3101,71.2291
2154.4346900318824,846073.7,-84.87521,71.2324
4641.588833612777,234351.9,-89.8568,71.2275
10000.0,175346.6,-78.84777,71.2179
