Frequency,Impedance,Phase Angle,Temperature (Dry Bath)
10.0,39292000.0,-12.02387,67.9186
21.5,29945760.0,-20.20987,67.9212
46.4,25150760.0,-43.39678,67.9072
100.0,3089366.0,-10.03797,67.9122
215.4,3263353.0,-68.92658,67.9051
464.2,3148378.0,-59.727,67.9232
1000.0,1191191.0,-88.23293,67.9312
2154.4,621832.1,-86.00102,67.9098
4641.6,292696.5,-88.13922,67.9162
10000.0,137421.2,-99.55173,67.9169
