Frequency,Impedance,Phase Angle,Temperature (Dry Bath)
10.0,1425275.0,-13.72249,68.2657
21.5,1303746.0,-13.1358,68.2787
46.4,1086911.0,-13.00593,68.2673
100.0,941187.3,-13.68922,68.2619
215.4,1170277.0,-18.89809,68.2613
464.2,885645.0,-24.07179,68.2828
1000.0,672035.7,-39.64859,68.2643
2154.4,477575.2,-58.12392,68.2835
4641.6,268243.3,-72.26027,68.2501
10000.0,129660.1,-79.06065,68.2694
