Frequency,Impedance,Phase Angle,Temperature (Dry Bath)
10.0,4971410.0,-6.168964,71.244
21.544346900318832,5294142.0,-3.076323,71.2274
46.41588833612777,5898369.0,-3.415017,71.2342
100.0,334793.3,37.63439,71.2219
215.44346900318823,564849.8,-17.26972,71.2227
464.15888336127773,402290.1,-133.2636,71.2313
1000.0,398462.6,177.2209,71.2145
2154.4346900318824,432792.6,-93.52057,71.226
4641.588833612777,171326.9,-69.68045,71.232
10000.0,197858.1,-63.59493,71.2117
