Frequency,Impedance,Phase Angle,Temperature (Dry Bath)
10.0,4238172.0,-20.10505,71.2846
21.544346900318832,7066186.0,3.199472,71.278
46.41588833612777,6494641.0,5.978575,71.2824
100.0,859980.0,-24.19142,71.2813
215.44346900318823,15767.44,1.815715,71.2837
464.15888336127773,962762.0,-149.6083,71.2971
1000.0,333560.5,-69.37126,71.2954
2154.4346900318824,202279.1,-88.14542,71.2955
4641.588833612777,123617.5,-92.48553,71.2916
10000.0,72840.21,-86.96723,71.2786
