Frequency,Impedance,Phase Angle,Temperature (Dry Bath)
10.0,171073.7,-12.2694,65.7054
21.544346900318832,158589.3,-12.15483,65.7064
46.41588833612777,146146.4,-12.14656,65.6913
100.0,116974.4,1.06302,65.6927
215.44346900318823,53309.68,157.6751,65.6888
464.15888336127773,98778.45,-11.81901,65.7008
1000.0,125056.6,-9.293159,65.7081
2154.4346900318824,84467.54,-20.42127,65.6943
4641.588833612777,80944.33,-34.91277,65.6914
10000.0,52032.31,-54.20002,65.6983
