Frequency,Impedance,Phase Angle,Temperature (Dry Bath)
10.0,4442819.0,0.6528854,70.8692
21.544346900318832,5947868.0,-11.98764,70.864
46.41588833612777,6358413.0,-21.78364,70.8637
100.0,908505.2,-161.5981,70.8721
215.44346900318823,1449617.0,-98.49904,70.8622
464.15888336127773,1015062.0,69.17059,70.8652
1000.0,528811.4,-81.6842,70.8602
2154.4346900318824,295583.2,-93.34229,70.8616
4641.588833612777,121674.4,-85.64235,70.8768
10000.0,66253.77,-79.48449,70.8646
