Frequency,Impedance,Phase Angle,Temperature (Dry Bath)
10.0,4945476.0,-8.061431,71.2038
21.544346900318832,5320764.0,-33.57219,71.201
46.41588833612777,4171289.0,-26.98944,71.2101
100.0,657452.6,-167.9758,71.2049
215.44346900318823,556560.9,17.83027,71.2101
464.15888336127773,3801601.0,35.14035,71.1934
1000.0,839307.9,-56.2564,71.2297
2154.4346900318824,280005.7,-76.67489,71.2112
4641.588833612777,129618.8,-82.69354,71.2034
10000.0,60247.72,-84.17774,71.1855
