Frequency,Impedance,Phase Angle,Temperature (Dry Bath)
10.0,29257670.0,-45.75357,67.3493
21.5,27677880.0,-32.4663,67.3406
46.4,15103400.0,-53.89355,67.3557
100.0,2887793.0,-116.8025,67.341
215.4,1382253.0,-134.3426,67.3662
464.2,1859951.0,-64.6188,67.3333
1000.0,1038658.0,-82.32996,67.3547
2154.4,519456.1,-87.1814,67.348
4641.6,254985.9,-84.52458,67.367
10000.0,125045.0,-85.61622,67.362
