Frequency,Impedance,Phase Angle,Temperature (Dry Bath)
10.0,4597549.0,-16.66365,66.1922
21.544346900318832,4766696.0,-10.94918,66.191
46.41588833612777,4694301.0,-13.07669,66.1914
100.0,441375.9,52.98272,66.2167
215.44346900318823,212384.4,-60.00116,66.2291
464.15888336127773,858899.3,-51.61207,66.2124
1000.0,687651.1,-78.18708,66.2334
2154.4346900318824,255600.8,-100.97,66.2199
4641.588833612777,123472.9,-80.4992,66.2251
10000.0,63087.97,-89.78298,66.2165
