Frequency,Impedance,Phase Angle,Temperature (Dry Bath)
10.0,76837.47,-35.24976,68.1792
21.5,59173.53,-31.85923,68.1806
46.4,46347.27,-27.76893,68.1917
100.0,37671.8,-23.18146,68.1864
215.4,32546.64,-19.09807,68.1795
464.2,28336.86,-14.93442,68.1915
1000.0,25333.73,-13.03947,68.2088
2154.4,22916.77,-13.70536,68.1642
4641.6,21635.9,-12.98732,68.1902
10000.0,19888.77,-16.98145,68.1713
