Frequency,Impedance,Phase Angle,Temperature (Dry Bath)
10.0,152083.8,-4.593556,67.6536
21.5,147121.6,-3.863052,67.6772
46.4,144108.0,-3.757999,67.6717
100.0,141691.4,-4.179945,67.689
215.4,138056.7,-3.918801,67.6599
464.2,135328.2,-6.325574,67.6864
1000.0,130570.3,-10.02801,67.6582
2154.4,122289.8,-16.51593,67.6829
4641.6,108492.0,-28.44615,67.666
10000.0,83344.35,-51.51395,67.6716
