Frequency,Impedance,Phase Angle,Temperature (Dry Bath)
10.0,4019998.0,-14.0843,68.0105
21.5,4985022.0,-9.309742,68.005
46.4,5731162.0,-15.97716,67.9983
100.0,3515454.0,-33.18134,68.0123
215.4,2393684.0,-31.4094,68.0088
464.2,2263892.0,-48.72407,68.0133
1000.0,1178128.0,-69.21051,68.0056
2154.4,624236.9,-76.81821,68.0138
4641.6,286109.4,-82.39824,68.0093
10000.0,137309.3,-83.5007,68.0154
