Frequency,Impedance,Phase Angle,Temperature (Dry Bath)
10.0,2240256.0,7.034372,70.9674
21.544346900318832,1930769.0,-2.649046,70.9568
46.41588833612777,2089649.0,-21.26124,70.9699
100.0,1496841.0,33.1708,70.9852
215.44346900318823,2345925.0,86.85298,70.965
464.15888336127773,634346.0,-9.900232,70.9764
1000.0,209930.7,-104.9852,70.9728
2154.4346900318824,440448.1,-95.21655,70.9663
4641.588833612777,131185.7,-97.24963,70.9708
10000.0,59604.84,-89.17659,70.9734
