Frequency,Impedance,Phase Angle,Temperature (Dry Bath)
10.0,34293530.0,-17.87162,68.2941
21.5,20432520.0,-23.85295,68.2913
46.4,26135880.0,-51.34229,68.3068
100.0,10552570.0,14.61691,68.2907
215.4,9788023.0,-110.0464,68.293
464.2,2552108.0,-89.08181,68.2798
1000.0,1431969.0,-87.88389,68.3037
2154.4,651274.0,-88.07973,68.2877
4641.6,320319.4,-91.97583,68.2928
10000.0,159459.6,-95.94122,68.2858
