Frequency,Impedance,Phase Angle,Temperature (Dry Bath)
10.0,36365320.0,-6.178959,67.1359
21.5,31008970.0,-33.56508,67.1353
46.4,14701980.0,-52.94364,67.1436
100.0,22416950.0,136.555,67.1496
215.4,88436.57,80.16653,67.1397
464.2,3708474.0,-102.2651,67.127
1000.0,1137505.0,-86.41288,67.1246
2154.4,579467.6,-92.10708,67.1542
4641.6,264622.4,-84.97684,67.1289
10000.0,122206.9,-84.84401,67.1639
