Frequency,Impedance,Phase Angle,Temperature (Dry Bath)
10.0,6652208.0,-2.462808,66.3985
21.544346900318832,4890444.0,-15.74923,66.4016
46.41588833612777,5345216.0,-8.9664,66.3948
100.0,1232073.0,142.9801,66.4124
215.44346900318823,637606.7,-11.89029,66.4108
464.15888336127773,1926144.0,-129.7369,66.402
1000.0,1494544.0,-58.24097,66.3945
2154.4346900318824,238852.9,-79.34475,66.3807
4641.588833612777,165392.8,-86.46128,66.3905
10000.0,65853.42,-90.8303,66.3899
