Frequency,Impedance,Phase Angle,Temperature (Dry Bath)
10.0,23019900.0,-16.93904,67.9686
21.5,36501220.0,-27.14343,67.9686
46.4,28063180.0,-52.50662,67.9686
100.0,6459947.0,-67.24689,67.9686
215.4,4805150.0,-63.64498,67.9686
464.2,2699670.0,-85.47222,67.9686
1000.0,1490419.0,-84.71939,67.9686
2154.4,687868.9,-92.64006,67.9686
4641.6,325312.3,-97.36311,67.9686
10000.0,153679.3,-98.66387,67.9686
