Frequency,Impedance,Phase Angle,Temperature (Dry Bath)
10.0,4900359.0,-5.046649,66.5
21.544346900318832,4035891.0,-0.3934774,66.5
46.41588833612777,4812019.0,-20.95951,66.5
100.0,1620065.0,-49.67042,66.5
215.44346900318823,1121462.0,-10.99676,66.5
464.15888336127773,1453047.0,76.20304,66.5
1000.0,1022028.0,-8.83802,66.5
2154.4346900318824,1477413.0,-87.46648,66.5
4641.588833612777,865063.5,-43.99989,66.5
10000.0,1130232.0,32.87977,66.5
