Frequency,Impedance,Phase Angle,Temperature (Dry Bath)
10.0,29643830.0,-26.86532,67.975
21.5,32791280.0,-23.74527,67.991
46.4,27918720.0,-51.04287,67.988
100.0,3574919.0,-28.74492,67.9895
215.4,3389199.0,-71.68446,67.9835
464.2,2671530.0,-85.19217,67.9941
1000.0,1198168.0,-81.04552,67.9824
2154.4,560568.7,-87.38524,67.9911
4641.6,280957.4,-88.81184,67.9919
10000.0,132465.5,-90.51014,67.9755
