Frequency,Impedance,Phase Angle,Temperature (Dry Bath)
10.0,29555640.0,0.2994189,67.001
21.5,23568710.0,-20.52128,67.0077
46.4,20788640.0,-49.34712,66.9801
100.0,5240088.0,-59.95708,66.9774
215.4,100037.2,69.64409,66.979
464.2,1712989.0,-76.8717,66.9911
1000.0,1023864.0,-76.00825,66.9681
2154.4,512934.0,-89.82958,67.0011
4641.6,263062.6,-89.51891,66.9833
10000.0,121140.1,-87.19883,66.9909
