Frequency,Impedance,Phase Angle,Temperature (Dry Bath)
10.0,29924480.0,-11.27384,67.0551
21.5,44346870.0,-25.21378,67.0714
46.4,16454990.0,-59.4624,67.0813
100.0,6155828.0,-26.20167,67.0753
215.4,3723034.0,-55.05149,67.0578
464.2,2304222.0,-91.91471,67.0831
1000.0,1262758.0,-91.98596,67.074
2154.4,571050.3,-92.73813,67.0603
4641.6,260236.7,-85.92847,67.0781
10000.0,123354.2,-85.12749,67.0619
