Frequency,Impedance,Phase Angle,Temperature (Dry Bath)
10.0,164597.5,-21.45805,68.3511
21.5,140988.6,-18.37119,68.341
46.4,124228.3,-15.89192,68.3356
100.0,109659.8,-13.63941,68.3597
215.4,100697.5,-12.14542,68.3497
464.2,95255.71,-12.91916,68.3543
1000.0,85265.52,-14.00172,68.3329
2154.4,80456.53,-16.73746,68.3501
4641.6,67819.13,-23.58358,68.3496
10000.0,57186.56,-37.12608,68.3467
