Frequency,Impedance,Phase Angle,Temperature (Dry Bath)
10.0,1441126.0,-17.77624,67.3283
21.5,1328872.0,-15.27911,67.3038
46.4,1189145.0,-10.93269,67.3237
100.0,1273817.0,-8.612344,67.3161
215.4,114797.5,-80.58273,67.3088
464.2,781500.9,-24.73409,67.304
1000.0,695383.4,-48.66336,67.3111
2154.4,439209.6,-61.87655,67.3059
4641.6,224856.5,-72.25935,67.2943
10000.0,111670.9,-79.59534,67.291
