Frequency,Impedance,Phase Angle,Temperature (Dry Bath)
10.0,2140370.0,-10.57262,67.9686
21.5,2095996.0,-11.7741,67.9686
46.4,1995259.0,-13.27701,67.9686
100.0,1568953.0,-14.65446,67.9686
215.4,1500551.0,-24.46106,67.9686
464.2,1302083.0,-31.59788,67.9686
1000.0,878012.4,-47.89513,67.9686
2154.4,553757.0,-70.07471,67.9686
4641.6,302343.4,-82.01155,67.9686
10000.0,149900.4,-89.51977,67.9686
