Frequency,Impedance,Phase Angle,Temperature (Dry Bath)
10.0,179811.5,-12.12823,71.3477
21.544346900318832,163377.9,-11.82973,71.3421
46.41588833612777,149054.3,-11.16223,71.3414
100.0,134562.5,3.782969,71.3399
215.44346900318823,118188.3,-19.07294,71.3435
464.15888336127773,141572.1,-8.888679,71.3453
1000.0,125682.2,-25.79449,71.3383
2154.4346900318824,76908.68,-23.26574,71.341
4641.588833612777,64809.25,-34.097,71.3423
10000.0,50613.34,-58.81599,71.3348
