Frequency,Impedance,Phase Angle,Temperature (Dry Bath)
10.0,107762.7,-3.93758,66.9103
21.5,105871.4,-3.481016,66.9162
46.4,104429.4,-3.628968,66.9277
100.0,102438.9,-4.157123,66.9278
215.4,126489.8,-39.08959,66.9259
464.2,101283.5,-5.649404,66.9111
1000.0,92984.37,-8.949871,66.8997
2154.4,93486.99,-13.19044,66.9214
4641.6,83179.19,-24.24095,66.9212
10000.0,66460.37,-38.62391,66.911
