Frequency,Impedance,Phase Angle,Temperature (Dry Bath)
10.0,117295.5,-16.52998,67.9556
21.5,105130.8,-14.1669,67.941
46.4,95519.55,-12.5867,67.9534
100.0,85103.08,-11.54603,67.9665
215.4,81852.35,-9.975693,67.9509
464.2,75027.23,-9.925712,67.962
1000.0,72258.83,-12.696,67.9609
2154.4,66585.43,-16.0538,67.9591
4641.6,59720.54,-20.69461,67.9491
10000.0,51699.43,-32.6685,67.9703
