Frequency,Impedance,Phase Angle,Temperature (Dry Bath)
10.0,135029.3,-3.836741,67.1618
21.5,132101.2,-3.332739,67.178
46.4,130336.1,-3.50011,67.1678
100.0,132408.6,-4.251536,67.1587
215.4,126931.7,-3.783629,67.162
464.2,124225.4,-5.116975,67.1546
1000.0,116550.4,-10.3706,67.1574
2154.4,111957.4,-16.60193,67.1508
4641.6,97766.6,-27.78046,67.1669
10000.0,74250.33,-43.43286,67.1625
