Frequency,Impedance,Phase Angle,Temperature (Dry Bath)
10.0,4079403.0,-26.52472,71.0787
21.544346900318832,3703946.0,-27.68751,71.0641
46.41588833612777,2774752.0,-13.7464,71.0866
100.0,1043863.0,93.52401,71.0805
215.44346900318823,1305796.0,-127.0092,71.0733
464.15888336127773,852138.6,-177.986,71.0842
1000.0,315580.1,-71.32998,71.0816
2154.4346900318824,241389.4,-77.46003,71.0698
4641.588833612777,119641.1,-93.38083,71.0766
10000.0,74359.25,-86.86236,71.0821
