Frequency,Impedance,Phase Angle,Temperature (Dry Bath)
10.0,5561500.0,-1.089688,67.1
21.544346900318832,8368607.0,-8.225651,67.1
46.41588833612777,6341397.0,-0.2073118,67.1
100.0,1406375.0,-28.01603,67.1
215.44346900318823,3121431.0,-40.92378,67.1
464.15888336127773,4295864.0,-154.2714,67.1
1000.0,2306032.0,-88.05022,67.1
2154.4346900318824,1432528.0,71.01567,67.1
4641.588833612777,2324620.0,-30.20577,67.1
10000.0,603304.6,-68.02049,67.1
