Frequency,Impedance,Phase Angle,Temperature (Dry Bath)
10.0,1593325.0,-18.42249,67.423
21.5,1402723.0,-17.16039,67.4297
46.4,1265407.0,-16.40564,67.3976
100.0,1173541.0,-22.83351,67.4059
215.4,1059058.0,-20.68905,67.4125
464.2,888347.9,-21.10657,67.4316
1000.0,850650.7,-44.87286,67.4054
2154.4,457483.2,-61.97048,67.4121
4641.6,259202.0,-73.691,67.4178
10000.0,127808.9,-77.42807,67.4179
