Frequency,Impedance,Phase Angle,Temperature (Dry Bath)
10.0,108024.1,-14.85766,67.9077
21.5,97025.66,-12.8369,67.9034
46.4,89147.22,-11.45987,67.9039
100.0,80368.38,-10.71075,67.9241
215.4,76987.76,-10.2495,67.9076
464.2,72709.86,-10.33721,67.8953
1000.0,67738.22,-11.30198,67.9283
2154.4,63388.1,-13.47391,67.9115
4641.6,58030.16,-18.39201,67.9185
10000.0,52391.98,-32.58215,67.899
