Frequency,Impedance,Phase Angle,Temperature (Dry Bath)
10.0,40946000.0,11.7697,68.1753
21.5,44073980.0,-25.83811,68.1691
46.4,26812710.0,-59.81936,68.181
100.0,4320038.0,-29.86808,68.1617
215.4,5776362.0,-89.91559,68.1946
464.2,2083887.0,-81.87934,68.1917
1000.0,988038.1,-78.16399,68.1822
2154.4,572846.3,-87.64052,68.1707
4641.6,295480.0,-87.62736,68.1772
10000.0,133324.8,-95.70708,68.177
