Frequency,Impedance,Phase Angle,Temperature (Dry Bath)
10.0,108496.9,-15.23465,67.9095
21.5,97181.18,-13.07555,67.8996
46.4,89219.89,-11.6032,67.911
100.0,80713.39,-9.377408,67.8983
215.4,76647.6,-9.0767,67.911
464.2,74274.2,-10.2859,67.9012
1000.0,67466.89,-9.829105,67.9124
2154.4,63300.89,-14.73032,67.9198
4641.6,56294.7,-21.26494,67.9133
10000.0,49862.11,-31.79913,67.9183
