Frequency,Impedance,Phase Angle,Temperature (Dry Bath)
10.0,5421061.0,7.952509,66.4227
21.544346900318832,4022735.0,-1.100282,66.4116
46.41588833612777,5921677.0,-6.056948,66.4208
100.0,511154.1,-102.0858,66.4123
215.44346900318823,1384445.0,140.0484,66.4151
464.15888336127773,950969.2,-104.0041,66.4198
1000.0,268617.7,-73.20569,66.4164
2154.4346900318824,279301.6,-93.60396,66.4049
4641.588833612777,141957.9,-90.88074,66.4163
10000.0,69806.6,-91.76844,66.4247
