Frequency,Impedance,Phase Angle,Temperature (Dry Bath)
10.0,24759360.0,4.865785,67.9467
21.5,19892330.0,-30.47963,67.9615
46.4,29648770.0,-48.03902,67.9471
100.0,11795480.0,-5.013246,67.947
215.4,6089566.0,-83.51922,67.9603
464.2,2330945.0,-90.09382,67.9551
1000.0,1409747.0,-87.71506,67.9497
2154.4,657587.4,-90.02272,67.9637
4641.6,283250.9,-91.39965,67.9487
10000.0,141788.0,-97.32596,67.9454
