Frequency,Impedance,Phase Angle,Temperature (Dry Bath)
10.0,1319960.0,-9.800042,67.9436
21.5,1219769.0,-9.74782,67.9652
46.4,1227327.0,-11.62776,67.9831
100.0,1053695.0,-11.9539,68.0064
215.4,1112451.0,-21.11828,68.0043
464.2,890317.7,-25.13662,67.9631
1000.0,668531.2,-40.4343,67.9828
2154.4,481783.6,-55.559,67.9692
4641.6,256917.9,-70.93693,67.9841
10000.0,138542.3,-83.7177,67.9647
