Frequency,Impedance,Phase Angle,Temperature (Dry Bath)
10.0,4725680.0,-33.51279,70.9633
21.544346900318832,8161385.0,-55.05625,70.9659
46.41588833612777,4440169.0,-49.5656,70.9673
100.0,764158.3,98.64791,70.9591
215.44346900318823,513463.6,-79.5484,70.969
464.15888336127773,560864.9,-103.4201,70.9541
1000.0,812542.3,-84.11269,70.9522
2154.4346900318824,236958.1,-78.44717,70.958
4641.588833612777,125075.6,-76.71596,70.9606
10000.0,59222.01,-83.22359,70.9719
