Frequency,Impedance,Phase Angle,Temperature (Dry Bath)
10.0,899430.6,-9.273066,72.0175
21.544346900318832,818328.0,-6.582211,72.0121
46.41588833612777,748166.6,-7.92605,71.9977
100.0,535067.0,25.45264,71.9999
215.44346900318823,417642.1,42.72431,72.0048
464.15888336127773,274319.2,-77.16272,72.0143
1000.0,533139.1,-77.5291,72.0002
2154.4346900318824,411568.0,12.2597,72.0008
4641.588833612777,231037.3,-53.52061,72.0045
10000.0,97876.63,-89.48395,72.0111
