Frequency,Impedance,Phase Angle,Temperature (Dry Bath)
10.0,3839047.0,-24.76823,70.7039
21.544346900318832,4652953.0,-11.81771,70.7097
46.41588833612777,4428259.0,-19.90668,70.7039
100.0,577580.6,82.4609,70.7043
215.44346900318823,1884871.0,165.8104,70.7018
464.15888336127773,614075.4,-112.9302,70.6946
1000.0,421692.9,-122.6921,70.7112
2154.4346900318824,469110.6,-132.8881,70.7055
4641.588833612777,91720.41,-94.00028,70.7145
10000.0,58716.28,-86.65206,70.7208
