Frequency,Impedance,Phase Angle,Temperature (Dry Bath)
10.0,38228620.0,-36.98892,68.2085
21.5,20199300.0,-23.66188,68.2085
46.4,11267610.0,-58.80287,68.2085
100.0,7471851.0,-39.01071,68.2085
215.4,6850174.0,-78.78098,68.2085
464.2,2732782.0,-84.27096,68.2085
1000.0,1172007.0,-90.02172,68.2085
2154.4,578486.1,-88.70894,68.2085
4641.6,263958.3,-89.95597,68.2085
10000.0,126486.8,-95.59845,68.2085
