Frequency,Impedance,Phase Angle,Temperature (Dry Bath)
10.0,60814.23,-32.31392,67.4048
21.5,47541.42,-27.88669,67.4144
46.4,39455.02,-24.0554,67.3895
100.0,33548.01,-19.78601,67.4181
215.4,31583.11,-13.52658,67.4027
464.2,26581.53,-14.1464,67.3935
1000.0,24129.71,-12.48392,67.3933
2154.4,22200.56,-11.51757,67.4043
4641.6,20613.76,-12.06648,67.3927
10000.0,19143.51,-15.10522,67.4053
