Frequency,Impedance,Phase Angle,Temperature (Dry Bath)
10.0,1527042.0,-9.307071,68.0478
21.5,1355997.0,-9.940594,68.0529
46.4,1248929.0,-11.16713,68.0464
100.0,1074870.0,-12.16624,68.0474
215.4,1043869.0,-19.50095,68.0627
464.2,1007120.0,-28.22445,68.05
1000.0,735901.7,-44.09651,68.0439
2154.4,452197.6,-58.39165,68.0486
4641.6,249270.7,-69.19268,68.0508
10000.0,135977.1,-86.90206,68.046
