Frequency,Impedance,Phase Angle,Temperature (Dry Bath)
10.0,21147120.0,-2.967969,68.2568
21.5,19366660.0,-14.41306,68.2568
46.4,15115550.0,-46.66558,68.2568
100.0,4479690.0,-31.37111,68.2568
215.4,9320339.0,-81.59223,68.2568
464.2,2958314.0,-104.4293,68.2568
1000.0,1398802.0,-84.39985,68.2568
2154.4,728148.2,-87.78913,68.2568
4641.6,326037.5,-93.13616,68.2568
10000.0,143312.6,-96.24027,68.2568
