Frequency,Impedance,Phase Angle,Temperature (Dry Bath)
10.0,118733.3,-3.471894,67.3588
21.5,116771.3,-3.10304,67.3499
46.4,113856.5,-2.681605,67.3585
100.0,114064.3,-2.929494,67.348
215.4,113767.7,-2.991503,67.3545
464.2,109787.4,-5.851307,67.3495
1000.0,106958.8,-9.217337,67.3545
2154.4,103037.8,-15.05568,67.3374
4641.6,91944.13,-25.05826,67.3422
10000.0,73778.35,-39.16619,67.34
