Frequency,Impedance,Phase Angle,Temperature (Dry Bath)
10.0,1453239.0,-17.80975,67.379
21.5,1307905.0,-16.39586,67.3651
46.4,1190098.0,-14.39695,67.3667
100.0,1016037.0,-22.61211,67.3657
215.4,921092.9,-26.92151,67.3716
464.2,925657.3,-39.51151,67.3678
1000.0,627519.9,-45.7826,67.3698
2154.4,419396.5,-57.41775,67.3725
4641.6,232385.2,-76.60548,67.3755
10000.0,113431.8,-79.78109,67.3759
