Frequency,Impedance,Phase Angle,Temperature (Dry Bath)
10.0,105205.6,-3.135969,67.2783
21.5,103110.1,-2.594673,67.2855
46.4,101613.9,-2.511013,67.292
100.0,98015.85,-2.84333,67.278
215.4,98605.7,-4.897837,67.2673
464.2,97841.39,-4.426754,67.2834
1000.0,94545.44,-7.594065,67.2737
2154.4,90625.73,-13.59477,67.2594
4641.6,82172.99,-24.44074,67.2598
10000.0,65937.13,-38.78196,67.2756
