Frequency,Impedance,Phase Angle,Temperature (Dry Bath)
10.0,1779637.0,-23.32859,71.1165
21.544346900318832,1346948.0,-18.06494,71.1368
46.41588833612777,1315588.0,-23.59355,71.1339
100.0,939482.5,4.57724,71.1345
215.44346900318823,366365.1,-82.63167,71.1295
464.15888336127773,460217.4,-66.72403,71.1241
1000.0,535198.0,23.03593,71.1433
2154.4346900318824,434955.9,-66.77508,71.1491
4641.588833612777,159313.9,-80.99649,71.1544
10000.0,53006.65,-81.67339,71.1375
