Frequency,Impedance,Phase Angle,Temperature (Dry Bath)
10.0,125652.7,-3.775428,67.3372
21.5,123084.2,-3.562451,67.338
46.4,120143.6,-3.310494,67.3217
100.0,116340.9,-4.532084,67.3216
215.4,118391.2,-6.377278,67.3178
464.2,111856.2,-6.958686,67.3141
1000.0,106820.8,-9.590384,67.321
2154.4,101307.2,-14.67856,67.3004
4641.6,89283.92,-25.09622,67.3145
10000.0,70690.72,-40.5824,67.321
