Frequency,Impedance,Phase Angle,Temperature (Dry Bath)
10.0,25566920.0,-23.41693,67.4099
21.5,26616010.0,-19.99455,67.4171
46.4,18238200.0,-43.56517,67.3982
100.0,4302410.0,-46.48202,67.4183
215.4,1117973.0,128.075,67.4076
464.2,2495058.0,-81.35986,67.4135
1000.0,1121000.0,-88.29075,67.4138
2154.4,567062.2,-90.44767,67.408
4641.6,263992.9,-86.43008,67.4138
10000.0,130197.6,-87.36243,67.412
