Frequency,Impedance,Phase Angle,Temperature (Dry Bath)
10.0,5712387.0,-8.100889,70.938
21.544346900318832,9672274.0,-28.36259,70.9224
46.41588833612777,4128529.0,-22.38411,70.9282
100.0,430497.2,1.601425,70.9215
215.44346900318823,3383172.0,-150.2898,70.9289
464.15888336127773,2409808.0,-106.2425,70.9248
1000.0,387886.1,-140.7164,70.9318
2154.4346900318824,330112.5,-46.80592,70.9241
4641.588833612777,187734.9,-71.4627,70.935
10000.0,66911.09,-86.02056,70.9325
