Frequency,Impedance,Phase Angle,Temperature (Dry Bath)
10.0,31393880.0,-21.93272,67.0226
21.5,27015010.0,-39.45587,67.0293
46.4,16624930.0,-61.4064,67.0329
100.0,8936080.0,-11.57903,67.0212
215.4,2947497.0,-59.60867,67.0089
464.2,1535834.0,-76.26469,67.0243
1000.0,1156104.0,-88.08894,67.0235
2154.4,509213.7,-82.96919,67.0167
4641.6,240303.1,-85.49153,67.0379
10000.0,122049.6,-85.86347,67.0268
