Frequency,Impedance,Phase Angle,Temperature (Dry Bath)
10.0,5855420.0,-12.98121,71.366
21.544346900318832,12564020.0,-30.48493,71.3789
46.41588833612777,6614979.0,-42.35875,71.3845
100.0,1731861.0,-38.58261,71.3865
215.44346900318823,155631.2,-115.72,71.3869
464.15888336127773,962477.0,167.2492,71.386
1000.0,731374.4,165.4892,71.3794
2154.4346900318824,320204.9,-103.4003,71.3735
4641.588833612777,145748.7,-82.32024,71.3735
10000.0,62881.63,-88.48386,71.3906
