Frequency,Impedance,Phase Angle,Temperature (Dry Bath)
10.0,29076090.0,-8.125604,67.0447
21.5,34322350.0,-39.18465,67.0509
46.4,17105720.0,-50.14803,67.033
100.0,5747827.0,-69.57223,67.0265
215.4,6189259.0,-104.3379,67.0284
464.2,2184129.0,-84.36406,67.03
1000.0,1119334.0,-79.59254,67.0346
2154.4,588332.0,-86.5109,67.0195
4641.6,269500.0,-83.99323,67.0175
10000.0,127976.6,-86.48378,67.0057
