Frequency,Impedance,Phase Angle,Temperature (Dry Bath)
10.0,17597670.0,-0.3986926,68.1302
21.5,17065110.0,-37.46305,68.1177
46.4,15179140.0,-39.07381,68.1352
100.0,5175264.0,-21.96653,68.1159
215.4,6100503.0,-67.6114,68.113
464.2,3242903.0,-69.62453,68.1193
1000.0,1318627.0,-83.66286,68.1216
2154.4,677824.9,-89.67767,68.1154
4641.6,320523.0,-87.04077,68.0893
10000.0,140127.5,-93.3819,68.1208
