Frequency,Impedance,Phase Angle,Temperature (Dry Bath)
10.0,172246.1,-12.86953,66.4133
21.544346900318832,159983.8,-11.32465,66.422
46.41588833612777,146186.3,-11.30197,66.4306
100.0,121887.9,4.608154,66.4089
215.44346900318823,125980.0,-12.15919,66.4169
464.15888336127773,118447.3,-13.91933,66.4247
1000.0,90391.68,-13.2908,66.4283
2154.4346900318824,99303.21,-30.04371,66.4036
4641.588833612777,71472.57,-39.28966,66.4064
10000.0,57690.33,-53.96222,66.4183
