Frequency,Impedance,Phase Angle,Temperature (Dry Bath)
10.0,30780120.0,-9.545145,67.0843
21.5,33045710.0,-30.60209,67.0867
46.4,18574850.0,-54.84138,67.103
100.0,5174277.0,-3.708913,67.0962
215.4,3634286.0,-74.28222,67.1028
464.2,2642263.0,-84.68458,67.0868
1000.0,1156318.0,-88.34997,67.0966
2154.4,591876.5,-83.96468,67.0861
4641.6,264380.1,-83.67168,67.0921
10000.0,128190.5,-86.31708,67.0833
