Frequency,Impedance,Phase Angle,Temperature (Dry Bath)
10.0,4555081.0,-11.129,71.0836
21.544346900318832,6167408.0,-20.35298,71.0731
46.41588833612777,4817038.0,-15.15592,71.0787
100.0,1965094.0,110.6282,71.078
215.44346900318823,623244.3,72.96284,71.0821
464.15888336127773,529695.0,-27.51895,71.0727
1000.0,324836.1,-123.5984,71.0806
2154.4346900318824,341751.0,-82.84484,71.0651
4641.588833612777,117529.1,-93.87477,71.0775
10000.0,67591.73,-98.11875,71.0793
