Frequency,Impedance,Phase Angle,Temperature (Dry Bath)
10.0,2399295.0,-19.84697,71.0678
21.544346900318832,2217244.0,-12.33222,71.0821
46.41588833612777,2333603.0,-14.93754,71.0424
100.0,715675.0,178.0633,71.0644
215.44346900318823,1679599.0,-43.79128,71.0737
464.15888336127773,496911.2,152.1789,71.079
1000.0,858866.0,-45.68593,71.0925
2154.4346900318824,229052.4,-88.80572,71.1013
4641.588833612777,112583.5,-76.45103,71.0709
10000.0,56267.79,-83.94103,71.0739
