Frequency,Impedance,Phase Angle,Temperature (Dry Bath)
10.0,238389.4,-22.78491,67.1396
21.5,200425.5,-20.22041,67.1386
46.4,173378.6,-17.66153,67.1571
100.0,157869.4,-20.27619,67.1468
215.4,139824.3,-19.0779,67.1674
464.2,130106.3,-15.88892,67.1442
1000.0,113133.2,-18.08424,67.1402
2154.4,101685.5,-22.33685,67.1619
4641.6,83871.66,-30.58189,67.152
10000.0,64052.45,-42.03996,67.144
