Frequency,Impedance,Phase Angle,Temperature (Dry Bath)
10.0,5945012.0,-21.22381,71.2894
21.544346900318832,6414374.0,-28.65471,71.2892
46.41588833612777,5540056.0,-11.38176,71.2634
100.0,2677271.0,-93.14938,71.2803
215.44346900318823,875403.9,42.86157,71.2679
464.15888336127773,1238560.0,20.90657,71.276
1000.0,563803.0,-18.89562,71.2876
2154.4346900318824,189580.1,-66.26142,71.296
4641.588833612777,182273.0,-75.02417,71.2871
10000.0,67627.73,-82.69373,71.2943
