Frequency,Impedance,Phase Angle,Temperature (Dry Bath)
10.0,6773818.0,-0.591677,66.3067
21.544346900318832,16357660.0,-5.282101,66.3183
46.41588833612777,6672104.0,-15.2184,66.305
100.0,386372.5,-53.08932,66.3166
215.44346900318823,415114.4,107.1409,66.3106
464.15888336127773,803889.0,-54.11015,66.3064
1000.0,591509.3,-167.0748,66.302
2154.4346900318824,333430.9,-54.96024,66.3087
4641.588833612777,153331.5,-96.15742,66.3015
10000.0,75125.12,-83.33055,66.3083
