Frequency,Impedance,Phase Angle,Temperature (Dry Bath)
10.0,20663850.0,-29.48809,67.9633
21.5,22406000.0,-38.72331,67.9605
46.4,24378990.0,-51.80781,67.9646
100.0,7633770.0,-68.54561,67.9848
215.4,3951435.0,-78.32763,67.9807
464.2,2706488.0,-74.72006,67.973
1000.0,1126056.0,-93.37099,67.9825
2154.4,651282.2,-88.82327,67.983
4641.6,315332.9,-95.22471,67.9722
10000.0,135446.0,-100.2348,67.9708
