Frequency,Impedance,Phase Angle,Temperature (Dry Bath)
10.0,151267.9,-4.72197,67.7345
21.5,147431.6,-3.69349,67.7192
46.4,144097.2,-3.713425,67.7333
100.0,138485.7,-5.912133,67.7282
215.4,137015.4,-4.518213,67.7252
464.2,138073.6,-4.47699,67.7228
1000.0,129942.4,-9.780995,67.7233
2154.4,122678.4,-16.03779,67.7181
4641.6,108807.6,-26.62047,67.7307
10000.0,86012.83,-52.19229,67.7309
