Frequency,Impedance,Phase Angle,Temperature (Dry Bath)
10.0,25344580.0,-15.89929,67.1379
21.5,23467780.0,-37.85801,67.1687
46.4,44453710.0,-71.74972,67.1558
100.0,3787146.0,-60.07324,67.1476
215.4,852766.9,-36.25036,67.1646
464.2,3226621.0,-96.9157,67.1614
1000.0,1126703.0,-80.52986,67.153
2154.4,508553.1,-86.43091,67.1578
4641.6,252460.7,-86.47209,67.1562
10000.0,124411.5,-86.0816,67.1581
