Frequency,Impedance,Phase Angle,Temperature (Dry Bath)
10.0,50914.48,-16.56201,70.9491
21.544346900318832,45294.12,-14.16642,70.964
46.41588833612777,40977.47,-13.4994,70.9653
100.0,36262.1,-15.92175,70.9607
215.44346900318823,32857.84,-13.16053,70.9468
464.15888336127773,30178.21,-13.28951,70.9562
1000.0,26731.83,-10.10264,70.9449
2154.4346900318824,25042.07,-13.50939,70.9514
4641.588833612777,23254.44,-18.9835,70.9642
10000.0,20327.52,-25.5886,70.9579
