Frequency,Impedance,Phase Angle,Temperature (Dry Bath)
10.0,3111002.0,-9.495,68.0836
21.5,3445668.0,-9.142589,68.0768
46.4,3349403.0,-12.921,68.0841
100.0,1968789.0,-6.756315,68.082
215.4,2226471.0,-26.6192,68.0909
464.2,1967386.0,-34.29257,68.0932
1000.0,1077234.0,-59.91106,68.0865
2154.4,581239.8,-68.82027,68.0984
4641.6,295810.4,-85.90004,68.084
10000.0,139068.7,-90.50454,68.0909
