Frequency,Impedance,Phase Angle,Temperature (Dry Bath)
10.0,233455.6,-22.57498,66.9943
21.5,197609.6,-20.07763,66.976
46.4,171136.5,-17.56869,66.9661
100.0,155245.2,-16.18605,67.0094
215.4,137911.7,-13.30227,66.9844
464.2,126195.7,-14.94074,66.9928
1000.0,110787.7,-14.94409,66.9934
2154.4,100043.0,-21.46122,66.9935
4641.6,83846.04,-29.67058,66.9883
10000.0,62598.35,-40.94404,67.0001
