Frequency,Impedance,Phase Angle,Temperature (Dry Bath)
10.0,51916.82,-34.16214,67.4368
21.5,39846.77,-30.36049,67.4637
46.4,32051.05,-26.54171,67.4604
100.0,26804.03,-22.73623,67.4587
215.4,23077.27,-19.5397,67.4628
464.2,20466.97,-16.20247,67.4486
1000.0,18301.65,-14.07913,67.4492
2154.4,16698.97,-12.98723,67.4534
4641.6,15318.75,-12.74073,67.4406
10000.0,14072.7,-14.70109,67.459
