Frequency,Impedance,Phase Angle,Temperature (Dry Bath)
10.0,20157840.0,-22.48409,68.0469
21.5,16864380.0,-22.48709,68.0485
46.4,16190730.0,-45.32936,68.0767
100.0,13399200.0,-32.31294,68.0641
215.4,3808597.0,-89.32669,68.0702
464.2,1982279.0,-75.75728,68.0525
1000.0,1390170.0,-78.81699,68.0614
2154.4,622938.0,-86.97434,68.0556
4641.6,309818.9,-87.5547,68.0645
10000.0,141869.1,-96.82952,68.0555
