Frequency,Impedance,Phase Angle,Temperature (Dry Bath)
10.0,1403476.0,-14.30948,68.1897
21.5,1262695.0,-13.96524,68.1879
46.4,1116970.0,-12.87342,68.1926
100.0,923562.8,-8.608222,68.1935
215.4,965077.6,-14.83597,68.1868
464.2,930539.4,-25.50654,68.1727
1000.0,679845.2,-34.45168,68.1825
2154.4,512835.0,-56.12836,68.1746
4641.6,324901.1,-70.95124,68.1897
10000.0,141293.5,-83.67373,68.1791
