Frequency,Impedance,Phase Angle,Temperature (Dry Bath)
10.0,3646322.0,11.8476,71.3251
21.544346900318832,6450345.0,-3.050686,71.301
46.41588833612777,4648319.0,-13.49965,71.3332
100.0,731678.2,-3.868399,71.3058
215.44346900318823,541857.3,54.39984,71.3219
464.15888336127773,707392.9,-32.03423,71.317
1000.0,376569.9,-71.39703,71.3166
2154.4346900318824,196788.8,-101.6467,71.3053
4641.588833612777,127649.7,-89.67488,71.3082
10000.0,74631.12,-83.70554,71.3071
