Frequency,Impedance,Phase Angle,Temperature (Dry Bath)
10.0,4664300.0,-9.132167,28.5252
21.544346900318832,4504833.0,-2.088466,27.9967
46.41588833612777,5434434.0,-5.632755,28.1367
100.0,764923.9,-53.09616,28.0125
215.44346900318823,778893.2,72.59151,28.11
464.15888336127773,2735982.0,23.93605,28.1676
1000.0,1393764.0,-74.63833,28.0839
2154.4346900318824,319138.3,-61.21911,28.0774
4641.588833612777,224145.3,-65.58714,28.0591
10000.0,165903.0,-106.2586,27.9505
