Frequency,Impedance,Phase Angle,Temperature (Dry Bath)
10.0,4383965.0,-2.024178,71.496
21.544346900318832,4512370.0,-36.80031,71.487
46.41588833612777,3455925.0,-30.91148,71.5009
100.0,422256.7,-139.7295,71.4928
215.44346900318823,703222.8,-172.5181,71.487
464.15888336127773,396440.0,-72.26645,71.5125
1000.0,386261.4,-58.97779,71.4821
2154.4346900318824,279591.1,-105.0189,71.4927
4641.588833612777,108873.2,-84.04463,71.4995
10000.0,53779.39,-78.52105,71.5007
