Frequency,Impedance,Phase Angle,Temperature (Dry Bath)
10.0,91079.37,-14.5291,71.0678
21.544346900318832,81096.59,-13.22508,71.0816
46.41588833612777,73374.36,-11.66953,71.0879
100.0,73843.84,-7.960865,71.073
215.44346900318823,61725.97,-8.826398,71.0738
464.15888336127773,54704.79,-9.98399,71.0709
1000.0,51994.9,-12.30398,71.083
2154.4346900318824,49702.16,-17.92366,71.0674
4641.588833612777,39792.79,-28.69281,71.0724
10000.0,34200.43,-35.81917,71.0635
