Frequency,Impedance,Phase Angle,Temperature (Dry Bath)
10.0,6591648.0,-43.05964,70.9321
21.544346900318832,5139556.0,-17.34006,70.9342
46.41588833612777,4262563.0,-26.44228,70.9412
100.0,2267351.0,51.61528,70.9469
215.44346900318823,744030.7,-103.5105,70.9456
464.15888336127773,1934695.0,-43.03382,70.9374
1000.0,6554580.0,26.27277,70.9446
2154.4346900318824,333780.2,-79.38932,70.9459
4641.588833612777,202602.1,-89.22651,70.9509
10000.0,61624.87,-93.17086,70.9462
