Frequency,Impedance,Phase Angle,Temperature (Dry Bath)
10.0,5792626.0,2.330902,71.4967
21.544346900318832,5185550.0,-30.62492,71.4863
46.41588833612777,3727035.0,-21.63278,71.5064
100.0,782539.4,-32.32669,71.5078
215.44346900318823,927397.1,-34.66356,71.4994
464.15888336127773,1224564.0,-109.5487,71.5106
1000.0,856154.4,-70.83575,71.4894
2154.4346900318824,413432.5,-76.23393,71.4951
4641.588833612777,246417.1,-104.4533,71.4903
10000.0,92606.22,-78.9103,71.4937
