Frequency,Impedance,Phase Angle,Temperature (Dry Bath)
10.0,4231245.0,-8.694235,65.7201
21.544346900318832,3204734.0,-7.64427,65.7245
46.41588833612777,3396637.0,-40.08296,65.7089
100.0,1409191.0,-173.5475,65.7205
215.44346900318823,22287.72,-135.8549,65.7329
464.15888336127773,455950.7,-86.91644,65.7093
1000.0,476417.8,-117.9576,65.7034
2154.4346900318824,303439.9,-66.33576,65.7091
4641.588833612777,141005.2,-96.91794,65.7083
10000.0,67132.15,-81.99659,65.7183
