Frequency,Impedance,Phase Angle,Temperature (Dry Bath)
10.0,149674.5,-5.080589,67.9867
21.5,144496.8,-4.132663,67.989
46.4,141375.6,-3.775466,67.9819
100.0,136202.9,-3.372584,67.9844
215.4,137178.9,-4.183387,67.9933
464.2,126075.0,-5.840446,67.9861
1000.0,125727.4,-9.859496,67.9968
2154.4,120615.2,-17.22002,67.9747
4641.6,108596.8,-27.83553,67.9848
10000.0,87322.99,-50.9265,67.973
