Frequency,Impedance,Phase Angle,Temperature (Dry Bath)
10.0,18255450.0,-14.91706,68.2514
21.5,36712730.0,-24.88132,68.2738
46.4,34799030.0,-39.39751,68.2559
100.0,11227570.0,-63.03672,68.268
215.4,6920667.0,-61.54215,68.2692
464.2,4061850.0,-94.1179,68.276
1000.0,1441546.0,-96.34998,68.2688
2154.4,713855.1,-92.40669,68.267
4641.6,325552.5,-94.55537,68.2624
10000.0,158142.4,-99.28026,68.2604
