Frequency,Impedance,Phase Angle,Temperature (Dry Bath)
10.0,145081.2,-5.030359,67.9712
21.5,139859.6,-4.042281,67.9689
46.4,136318.8,-3.770908,67.9562
100.0,128434.5,-4.565952,67.9754
215.4,131924.4,-5.854421,67.9579
464.2,129345.8,-6.364881,67.9849
1000.0,121477.5,-8.678572,67.9824
2154.4,118136.2,-16.17477,67.9739
4641.6,105708.3,-28.35904,67.9829
10000.0,83213.17,-52.19788,67.9749
