Frequency,Impedance,Phase Angle,Temperature (Dry Bath)
10.0,1298608.0,-30.63984,71.2646
21.544346900318832,1025863.0,-19.06442,71.2646
46.41588833612777,878871.4,-18.09735,71.2881
100.0,936796.9,-146.468,71.2637
215.44346900318823,497448.5,-59.2139,71.2637
464.15888336127773,445273.4,-57.80799,71.2787
1000.0,316140.6,-77.90947,71.2637
2154.4346900318824,188890.7,-60.54727,71.2751
4641.588833612777,112918.3,-66.25517,71.2727
10000.0,54895.83,-82.16598,71.2762
