Frequency,Impedance,Phase Angle,Temperature (Dry Bath)
10.0,4131781.0,25.88406,67.3
21.544346900318832,3890773.0,-8.117841,67.3
46.41588833612777,3128845.0,-7.836821,67.3
100.0,839153.7,92.05748,67.3
215.44346900318823,881707.5,90.22291,67.3
464.15888336127773,978059.4,80.97108,67.3
1000.0,340913.1,-50.29076,67.3
2154.4346900318824,694932.6,44.13196,67.3
4641.588833612777,1042211.0,-43.97803,67.3
10000.0,458460.8,-117.179,67.3
