Frequency,Impedance,Phase Angle,Temperature (Dry Bath)
10.0,6219912.0,1.497828,70.404
21.544346900318832,5350403.0,-16.47368,70.3932
46.41588833612777,5631312.0,-6.301453,70.4019
100.0,379822.4,41.99764,70.4019
215.44346900318823,270853.8,116.085,70.4074
464.15888336127773,2013451.0,-3.181701,70.3885
1000.0,683498.8,-83.45248,70.3927
2154.4346900318824,424452.1,-111.0523,70.3955
4641.588833612777,295179.0,-59.1829,70.3803
10000.0,159389.3,-72.00897,70.3745
