Frequency,Impedance,Phase Angle,Temperature (Dry Bath)
10.0,4880115.0,-0.9537289,71.3809
21.544346900318832,3488286.0,-1.155099,71.3677
46.41588833612777,4421142.0,-16.06355,71.3842
100.0,1142234.0,-1.052505,71.4012
215.44346900318823,1520585.0,-34.93573,71.3696
464.15888336127773,855142.0,-49.20965,71.3751
1000.0,880112.0,-41.19157,71.3892
2154.4346900318824,538893.3,-67.53228,71.3836
4641.588833612777,316630.8,-75.21379,71.3741
10000.0,160059.2,-81.22502,71.3923
