Frequency,Impedance,Phase Angle,Temperature (Dry Bath)
10.0,25359950.0,0.503181,68.3275
21.5,32496430.0,-40.69948,68.3134
46.4,14337760.0,-44.61768,68.3171
100.0,4518416.0,-17.16512,68.3152
215.4,5454325.0,-38.39961,68.3123
464.2,2275071.0,-55.1015,68.2999
1000.0,1455832.0,-90.52157,68.3003
2154.4,603720.6,-87.14058,68.2925
4641.6,284097.6,-97.87612,68.2918
10000.0,144745.4,-96.03113,68.3057
