Frequency,Impedance,Phase Angle,Temperature (Dry Bath)
10.0,5925743.0,9.196346,72.0213
21.544346900318832,6132095.0,10.74157,72.0129
46.41588833612777,4831097.0,2.107982,72.0129
100.0,235052.1,-64.2237,72.017
215.44346900318823,542410.7,-9.226288,72.0234
464.15888336127773,792016.0,60.47268,72.0324
1000.0,465005.7,-120.8879,72.038
2154.4346900318824,232465.7,-113.8618,72.0217
4641.588833612777,207299.3,-57.96161,72.0075
10000.0,149219.2,-95.09005,72.0125
