Frequency,Impedance,Phase Angle,Temperature (Dry Bath)
10.0,33934890.0,-6.113325,67.9678
21.5,65666210.0,-57.78307,67.9612
46.4,19962050.0,-40.41177,67.9423
100.0,3216446.0,-32.13013,67.9599
215.4,3729515.0,-88.64726,67.9735
464.2,2164300.0,-67.88418,67.9623
1000.0,1588093.0,-91.20023,67.9608
2154.4,759708.4,-89.35439,67.95
4641.6,300286.3,-86.54632,67.952
10000.0,156374.4,-96.04157,67.9723
