Frequency,Impedance,Phase Angle,Temperature (Dry Bath)
10.0,150473.7,-4.994819,67.9406
21.5,145875.0,-4.150192,67.9467
46.4,142352.3,-3.745189,67.9517
100.0,137224.3,-5.712195,67.9522
215.4,134591.6,-4.198424,67.9474
464.2,134396.2,-5.146308,67.9467
1000.0,132140.5,-9.009728,67.9387
2154.4,118798.2,-16.40213,67.939
4641.6,111563.2,-27.12712,67.9604
10000.0,86705.15,-49.95675,67.9349
