Frequency,Impedance,Phase Angle,Temperature (Dry Bath)
10.0,11877890.0,-4.26351,71.0881
21.544346900318832,3546597.0,-1.978806,71.0872
46.41588833612777,6229584.0,5.015613,71.0999
100.0,834314.7,68.22344,71.0978
215.44346900318823,894266.2,4.319743,71.0986
464.15888336127773,1547319.0,16.19764,71.0909
1000.0,1836937.0,-66.70913,71.0987
2154.4346900318824,448042.4,-88.15598,71.094
4641.588833612777,230386.0,-95.23502,71.0716
10000.0,121998.1,-90.03911,71.087
