Frequency,Impedance,Phase Angle,Temperature (Dry Bath)
10.0,6629589.0,-23.16059,71.2785
21.544346900318832,4394269.0,26.60019,71.2797
46.41588833612777,3378423.0,-25.21452,71.2896
100.0,717782.9,156.0176,71.2728
215.44346900318823,703931.9,-169.8925,71.2792
464.15888336127773,729962.4,-7.064115,71.2898
1000.0,429924.7,-109.4072,71.2974
2154.4346900318824,219811.4,-64.71578,71.2687
4641.588833612777,148757.3,-89.47377,71.3021
10000.0,73645.03,-86.45166,71.2866
