Frequency,Impedance,Phase Angle,Temperature (Dry Bath)
10.0,28833210.0,-9.240708,67.1526
21.5,26551570.0,-39.45757,67.1513
46.4,14631930.0,-53.87046,67.1412
100.0,7711296.0,-49.74911,67.1542
215.4,2798194.0,-48.97063,67.1481
464.2,2697480.0,-75.02754,67.1504
1000.0,962844.4,-90.7354,67.1596
2154.4,530771.9,-87.02707,67.159
4641.6,270992.9,-87.23806,67.1719
10000.0,122755.0,-86.31297,67.1576
