Frequency,Impedance,Phase Angle,Temperature (Dry Bath)
10.0,23771340.0,-21.78011,68.1141
21.5,25608000.0,-28.98091,68.1141
46.4,26192400.0,-40.67342,68.1141
100.0,4392847.0,-31.47955,68.1141
215.4,7800956.0,-73.14456,68.1141
464.2,2441730.0,-88.71257,68.1141
1000.0,1377892.0,-93.16778,68.1141
2154.4,686665.3,-88.9399,68.1141
4641.6,300946.4,-89.57637,68.1141
10000.0,146256.3,-98.8178,68.1141
