Frequency,Impedance,Phase Angle,Temperature (Dry Bath)
10.0,117340.6,-3.133135,67.3623
21.5,114987.0,-2.559754,67.3559
46.4,113180.1,-2.375009,67.3578
100.0,113731.1,-3.166625,67.3711
215.4,166246.8,13.46239,67.3642
464.2,109144.2,-5.115171,67.366
1000.0,104931.2,-8.432786,67.3651
2154.4,99665.49,-15.15514,67.3707
4641.6,89473.58,-25.23364,67.378
10000.0,70691.3,-41.81808,67.3628
