Frequency,Impedance,Phase Angle,Temperature (Dry Bath)
10.0,1696429.0,-9.723445,67.9918
21.5,1569645.0,-8.951103,68.0015
46.4,1432504.0,-10.87731,67.9907
100.0,1409681.0,-8.684237,67.99
215.4,1193264.0,-17.01763,67.9958
464.2,1019009.0,-29.69313,67.9785
1000.0,740540.1,-41.48169,67.9838
2154.4,462874.9,-61.18571,67.9874
4641.6,254396.6,-72.18953,67.9849
10000.0,135264.5,-86.20899,67.9828
