Frequency,Impedance,Phase Angle,Temperature (Dry Bath)
10.0,9195936.0,-5.820783,70.9242
21.544346900318832,5205079.0,5.951517,70.9362
46.41588833612777,3425511.0,-25.99271,70.9275
100.0,816203.4,-133.6155,70.9233
215.44346900318823,558926.5,58.67408,70.9163
464.15888336127773,2658440.0,-33.93545,70.9286
1000.0,313674.1,-59.97059,70.9368
2154.4346900318824,222967.5,-81.25121,70.9328
4641.588833612777,109840.8,-94.09098,70.9459
10000.0,62803.81,-91.18029,70.9336
