Frequency,Impedance,Phase Angle,Temperature (Dry Bath)
10.0,31252920.0,-26.65218,68.3172
21.5,24806100.0,-39.03405,68.3172
46.4,12437930.0,-52.60556,68.3172
100.0,4193415.0,-43.3802,68.3172
215.4,5163922.0,-52.20846,68.3172
464.2,2843991.0,-84.13486,68.3172
1000.0,1555190.0,-85.77881,68.3172
2154.4,634612.9,-88.7129,68.3172
4641.6,302070.6,-86.0831,68.3172
10000.0,149628.5,-94.36009,68.3172
