Frequency,Impedance,Phase Angle,Temperature (Dry Bath)
10.0,25508080.0,-30.70148,68.0204
21.5,22610830.0,-22.67142,68.0066
46.4,15804370.0,-44.79342,68.0113
100.0,7313275.0,-13.8958,68.0167
215.4,4388311.0,-87.64931,68.0107
464.2,3646461.0,-87.27765,68.0201
1000.0,1451803.0,-86.11144,67.9977
2154.4,715903.4,-96.01018,68.0202
4641.6,330850.3,-89.45598,68.0013
10000.0,155281.4,-97.83212,68.019
