Frequency,Impedance,Phase Angle,Temperature (Dry Bath)
10.0,18174930.0,31.72044,71.243
21.544346900318832,6000076.0,6.946175,71.2364
46.41588833612777,4810753.0,-27.98879,71.2474
100.0,1532359.0,34.73699,71.2537
215.44346900318823,2611254.0,-164.9072,71.2477
464.15888336127773,1070562.0,127.922,71.241
1000.0,1366223.0,-44.31838,71.2492
2154.4346900318824,1024697.0,-41.05336,71.2442
4641.588833612777,358327.8,-60.66872,71.247
10000.0,145738.5,-71.79073,71.2517
