Frequency,Impedance,Phase Angle,Temperature (Dry Bath)
10.0,235773.1,-22.78989,67.1236
21.5,199174.8,-20.08831,67.1081
46.4,172301.4,-17.62866,67.1122
100.0,152671.1,-13.33471,67.1112
215.4,137657.3,-14.31515,67.0936
464.2,126789.2,-15.19932,67.0991
1000.0,110039.9,-17.02408,67.1085
2154.4,99372.1,-23.366,67.093
4641.6,82357.78,-31.32354,67.0991
10000.0,63426.92,-42.22523,67.0985
