Frequency,Impedance,Phase Angle,Temperature (Dry Bath)
10.0,1429401.0,-15.35405,67.2532
21.5,1351766.0,-14.53342,67.2451
46.4,1291899.0,-15.31718,67.2629
100.0,1104962.0,-7.791573,67.2563
215.4,897206.1,-24.08802,67.2564
464.2,944744.8,-24.59651,67.2511
1000.0,700546.8,-57.52358,67.2437
2154.4,492806.0,-60.02712,67.2353
4641.6,254052.4,-72.39687,67.2281
10000.0,134372.0,-79.57922,67.2417
