Frequency,Impedance,Phase Angle,Temperature (Dry Bath)
10.0,1514108.0,-17.09557,68.2182
21.5,1414088.0,-14.3999,68.253
46.4,1283663.0,-14.63044,68.2291
100.0,1005870.0,-12.25859,68.2438
215.4,924000.8,-23.02359,68.2438
464.2,860474.1,-31.63339,68.2501
1000.0,768908.9,-40.80959,68.2464
2154.4,518487.7,-61.55226,68.2421
4641.6,242965.0,-72.81875,68.2531
10000.0,134297.9,-86.737,68.2503
