Frequency,Impedance,Phase Angle,Temperature (Dry Bath)
10.0,25046160.0,-1.996454,68.3094
21.5,19425240.0,-33.06521,68.3094
46.4,19390320.0,-46.2099,68.3094
100.0,9730791.0,-9.402678,68.3094
215.4,5369237.0,-67.34889,68.3094
464.2,4419900.0,-74.06679,68.3094
1000.0,1467556.0,-87.42093,68.3094
2154.4,673775.4,-90.72475,68.3094
4641.6,358009.4,-88.36584,68.3094
10000.0,153596.8,-99.48417,68.3094
