Frequency,Impedance,Phase Angle,Temperature (Dry Bath)
10.0,6493072.0,28.53597,71.268
21.544346900318832,6261599.0,25.25859,71.2483
46.41588833612777,6228185.0,-3.912044,71.2589
100.0,1298225.0,-3.334745,71.2595
215.44346900318823,3163134.0,18.59332,71.2628
464.15888336127773,583788.9,-120.9967,71.2521
1000.0,3449436.0,-27.29933,71.2553
2154.4346900318824,512117.9,-58.67735,71.2686
4641.588833612777,338245.6,-116.1667,71.2649
10000.0,141584.9,-89.81849,71.2642
