Frequency,Impedance,Phase Angle,Temperature (Dry Bath)
10.0,86053.67,-3.117297,66.9892
21.5,84259.51,-2.68276,66.9897
46.4,82470.68,-2.418325,66.9764
100.0,82032.55,-2.904427,66.9885
215.4,83074.48,-3.044301,67.0131
464.2,79075.17,-4.403615,66.9896
1000.0,75395.74,-7.020455,67.0079
2154.4,74116.84,-10.24564,67.0056
4641.6,69769.62,-19.58765,66.9939
10000.0,58430.5,-35.03633,66.9742
