Frequency,Impedance,Phase Angle,Temperature (Dry Bath)
10.0,5973071.0,-5.349193,28.4625
21.544346900318832,5213705.0,-9.183552,28.5235
46.41588833612777,7729650.0,-19.22317,28.8727
100.0,3028850.0,-172.0546,28.8496
215.44346900318823,1715287.0,-80.43682,28.4444
464.15888336127773,5512554.0,129.7132,28.938
1000.0,622281.0,-91.85555,28.8888
2154.4346900318824,434317.7,-75.12882,28.8399
4641.588833612777,505475.9,-60.97349,28.9632
10000.0,135423.4,-84.78438,28.9291
