Frequency,Impedance,Phase Angle,Temperature (Dry Bath)
10.0,3722693.0,-9.660464,70.9164
21.544346900318832,4113497.0,-7.895132,70.9121
46.41588833612777,3592288.0,-20.13694,70.8982
100.0,1365384.0,19.7373,70.9171
215.44346900318823,931575.3,-2.616475,70.9163
464.15888336127773,2052754.0,-169.7804,70.911
1000.0,439821.0,-68.02495,70.8895
2154.4346900318824,320198.8,-127.8492,70.9058
4641.588833612777,116755.3,-104.1482,70.9069
10000.0,64538.21,-90.55703,70.905
