Frequency,Impedance,Phase Angle,Temperature (Dry Bath)
10.0,115688.5,-3.173748,67.4378
21.5,113421.2,-2.539531,67.4275
46.4,111696.0,-2.421116,67.4229
100.0,111207.2,-2.046778,67.4167
215.4,107721.9,-13.56442,67.4291
464.2,106031.3,-7.183265,67.4132
1000.0,101468.7,-8.361545,67.427
2154.4,98700.58,-13.8951,67.4187
4641.6,87408.34,-24.30738,67.4347
10000.0,69159.42,-41.52333,67.4206
