Frequency,Impedance,Phase Angle,Temperature (Dry Bath)
10.0,1550146.0,-16.65169,67.9752
21.5,1402952.0,-15.0826,67.9926
46.4,1227130.0,-13.85504,67.9946
100.0,1120451.0,-15.99502,67.9952
215.4,977860.3,-17.42949,67.9978
464.2,734566.0,-22.1635,67.9894
1000.0,764425.2,-40.10823,67.9963
2154.4,490215.9,-59.86674,68.0059
4641.6,271736.7,-74.9234,67.9913
10000.0,122095.7,-89.02163,67.9946
