Frequency,Impedance,Phase Angle,Temperature (Dry Bath)
10.0,1260452.0,-23.47255,71.3137
21.544346900318832,940999.1,-20.24511,71.3187
46.41588833612777,891213.8,-19.33068,71.3186
100.0,532458.8,-51.12971,71.3193
215.44346900318823,446927.1,-48.43297,71.3088
464.15888336127773,507005.4,-12.69948,71.3373
1000.0,342882.7,-36.29393,71.3175
2154.4346900318824,280885.3,-67.87134,71.3087
4641.588833612777,132126.2,-78.71971,71.3151
10000.0,61142.43,-80.71263,71.3131
