Frequency,Impedance,Phase Angle,Temperature (Dry Bath)
10.0,4224972.0,25.72341,71.3638
21.544346900318832,4421640.0,-5.843907,71.3643
46.41588833612777,2438084.0,15.85013,71.3627
100.0,695742.6,-154.9143,71.3526
215.44346900318823,16159.79,177.6438,71.3504
464.15888336127773,451173.8,-99.17527,71.3545
1000.0,1504645.0,-76.04152,71.3623
2154.4346900318824,272302.0,-90.89469,71.3588
4641.588833612777,128602.3,-86.96072,71.3451
10000.0,64053.09,-91.64483,71.3532
