Frequency,Impedance,Phase Angle,Temperature (Dry Bath)
10.0,4446055.0,-14.33906,66.3339
21.544346900318832,3345781.0,-35.73823,66.3322
46.41588833612777,3671871.0,-12.28692,66.3289
100.0,913420.5,37.69447,66.3334
215.44346900318823,363571.5,19.97438,66.3332
464.15888336127773,1342092.0,-81.76555,66.3359
1000.0,263398.7,-121.9095,66.3286
2154.4346900318824,347417.0,-111.5602,66.3229
4641.588833612777,130850.0,-87.40398,66.323
10000.0,61203.08,-84.23245,66.3471
