Frequency,Impedance,Phase Angle,Temperature (Dry Bath)
10.0,28869610.0,-10.44556,68.1557
21.5,22240690.0,-23.23552,68.1434
46.4,28358920.0,-39.28129,68.1572
100.0,9560001.0,-47.17895,68.1524
215.4,4811274.0,-89.40411,68.1447
464.2,3231715.0,-69.39231,68.1606
1000.0,1394211.0,-88.85003,68.1456
2154.4,654492.6,-87.53926,68.171
4641.6,325711.4,-93.10665,68.1577
10000.0,154746.7,-98.06654,68.1598
