Frequency,Impedance,Phase Angle,Temperature (Dry Bath)
10.0,19899760.0,-18.82331,68.1346
21.5,22380190.0,-39.88217,68.1338
46.4,20445940.0,-56.13888,68.1215
100.0,5312072.0,-68.57904,68.1323
215.4,2841616.0,-84.04725,68.1386
464.2,1776089.0,-81.80735,68.1116
1000.0,1011232.0,-83.83587,68.1193
2154.4,488540.4,-84.18299,68.1374
4641.6,253426.0,-84.31802,68.1261
10000.0,147982.7,-87.83208,68.138
