Frequency,Impedance,Phase Angle,Temperature (Dry Bath)
10.0,586859.4,-19.50608,70.9397
21.544346900318832,494355.7,-18.2696,70.9406
46.41588833612777,415810.8,-16.85257,70.946
100.0,283408.7,-31.4276,70.9382
215.44346900318823,260776.7,-21.58498,70.9292
464.15888336127773,346010.9,-19.58372,70.9535
1000.0,190683.9,-66.22123,70.93
2154.4346900318824,156006.6,-51.65638,70.9485
4641.588833612777,97841.89,-71.67435,70.9413
10000.0,53949.79,-72.77269,70.9418
