Frequency,Impedance,Phase Angle,Temperature (Dry Bath)
10.0,24776510.0,-24.14592,67.2334
21.5,24726050.0,-40.61444,67.2297
46.4,16282170.0,-64.79747,67.232
100.0,10566490.0,-39.9542,67.2279
215.4,341710.1,90.52515,67.2481
464.2,2093414.0,-55.9322,67.2336
1000.0,1203167.0,-88.32728,67.237
2154.4,556318.9,-87.45518,67.2262
4641.6,260522.1,-86.86805,67.2268
10000.0,123010.6,-86.05383,67.2182
