Frequency,Impedance,Phase Angle,Temperature (Dry Bath)
10.0,757522.6,-4.634575,71.0659
21.544346900318832,757321.1,-5.391833,71.062
46.41588833612777,761516.6,-5.193617,71.0633
100.0,442070.7,3.781084,71.0737
215.44346900318823,806785.7,72.88169,71.0574
464.15888336127773,355587.1,10.89525,71.0658
1000.0,286009.0,-39.16775,71.0478
2154.4346900318824,209338.7,-72.66699,71.0643
4641.588833612777,196318.5,-94.48067,71.0672
10000.0,152807.0,-48.69139,71.0549
