Frequency,Impedance,Phase Angle,Temperature (Dry Bath)
10.0,58790720.0,-21.33552,68.0527
21.5,25194620.0,-37.10067,68.0527
46.4,25294120.0,-50.27678,68.0527
100.0,3964258.0,-27.19515,68.0527
215.4,4999655.0,-66.41687,68.0527
464.2,2400224.0,-80.53276,68.0527
1000.0,1325463.0,-82.99535,68.0527
2154.4,631569.2,-89.8742,68.0527
4641.6,291973.4,-90.13155,68.0527
10000.0,150125.4,-99.21038,68.0527
