Frequency,Impedance,Phase Angle,Temperature (Dry Bath)
10.0,46504820.0,-29.51442,67.891
21.5,33316370.0,-29.50146,67.8965
46.4,20577390.0,-52.02032,67.8799
100.0,5135319.0,-68.21737,67.8882
215.4,3979665.0,-77.29423,67.8896
464.2,2661215.0,-72.36118,67.8817
1000.0,1361654.0,-86.45764,67.8836
2154.4,566448.2,-92.7249,67.868
4641.6,280503.3,-91.75979,67.8663
10000.0,139705.5,-91.69849,67.8823
