Frequency,Impedance,Phase Angle,Temperature (Dry Bath)
10.0,1574533.0,-16.8173,68.1555
21.5,1408585.0,-15.58506,68.1743
46.4,1268182.0,-14.04224,68.1703
100.0,1035803.0,-18.80705,68.1614
215.4,1027113.0,-15.0295,68.1518
464.2,866416.3,-29.01287,68.1635
1000.0,802326.0,-41.68704,68.1565
2154.4,495167.5,-56.32728,68.1575
4641.6,293588.3,-80.62678,68.1705
10000.0,129961.8,-86.82549,68.1589
