Frequency,Impedance,Phase Angle,Temperature (Dry Bath)
10.0,6279536.0,-16.5754,70.998
21.544346900318832,4005510.0,-10.59372,70.9792
46.41588833612777,4854798.0,-22.03668,70.9826
100.0,340334.7,-28.45833,70.9761
215.44346900318823,720089.8,6.997707,70.9757
464.15888336127773,1767497.0,-169.0752,70.9879
1000.0,558178.1,-157.1137,70.985
2154.4346900318824,259488.3,-49.4995,70.9851
4641.588833612777,152266.9,-87.83199,70.9554
10000.0,68038.69,-84.8633,71.0078
