Frequency,Impedance,Phase Angle,Temperature (Dry Bath)
10.0,117155.2,-3.104588,67.1035
21.5,114669.3,-2.643321,67.1078
46.4,112854.3,-2.497614,67.1081
100.0,110994.7,-2.7744,67.1186
215.4,111255.4,-5.432024,67.1122
464.2,107431.5,-5.460339,67.1212
1000.0,103448.2,-8.516543,67.1234
2154.4,99544.42,-14.96935,67.1198
4641.6,89647.47,-25.61387,67.1308
10000.0,69999.12,-41.41732,67.1117
