Frequency,Impedance,Phase Angle,Temperature (Dry Bath)
10.0,5858593.0,-10.25843,66.417
21.544346900318832,6505007.0,18.92663,66.4284
46.41588833612777,4189699.0,-16.77623,66.4317
100.0,655032.4,51.82851,66.4435
215.44346900318823,1008597.0,-19.31163,66.412
464.15888336127773,1289570.0,-93.3848,66.4251
1000.0,357189.8,-98.82083,66.4154
2154.4346900318824,418118.9,-94.05855,66.4255
4641.588833612777,147838.1,-84.64636,66.4188
10000.0,72782.27,-76.46292,66.427
