Frequency,Impedance,Phase Angle,Temperature (Dry Bath)
10.0,24655420.0,-6.044351,68.0766
21.5,32630500.0,-29.04576,68.0694
46.4,32900480.0,-39.18749,68.0893
100.0,5343135.0,-11.8914,68.0617
215.4,5742885.0,-112.0617,68.0711
464.2,2859516.0,-71.35977,68.0506
1000.0,1382222.0,-92.36653,68.0715
2154.4,762432.0,-97.04396,68.0611
4641.6,335840.2,-86.48612,68.0689
10000.0,161876.4,-100.9898,68.0547
