Frequency,Impedance,Phase Angle,Temperature (Dry Bath)
10.0,17173040.0,-24.80528,68.1448
21.5,18729310.0,-29.21021,68.1241
46.4,11091190.0,-44.33828,68.134
100.0,6818999.0,-19.92347,68.125
215.4,5211937.0,-82.11757,68.1293
464.2,2815860.0,-70.36879,68.1293
1000.0,1296941.0,-84.2063,68.1268
2154.4,607139.6,-91.97162,68.1192
4641.6,330219.9,-90.76707,68.1034
10000.0,140360.2,-95.14682,68.1317
