Frequency,Impedance,Phase Angle,Temperature (Dry Bath)
10.0,1472251.0,-18.04763,67.3663
21.5,1349015.0,-15.73278,67.3659
46.4,1198522.0,-15.19932,67.36
100.0,989894.8,-17.12845,67.3417
215.4,243089.2,151.465,67.3473
464.2,803475.3,-24.57911,67.3485
1000.0,656848.5,-43.91893,67.3619
2154.4,455771.8,-60.00927,67.3649
4641.6,232622.1,-69.16536,67.3462
10000.0,116646.5,-79.55422,67.3736
