Frequency,Impedance,Phase Angle,Temperature (Dry Bath)
10.0,112777.8,-15.74665,67.891
21.5,101190.4,-13.52821,67.8849
46.4,92086.94,-11.95587,67.8887
100.0,85563.09,-10.7216,67.8954
215.4,78869.58,-10.35817,67.8884
464.2,73727.16,-10.32508,67.8952
1000.0,69755.95,-11.92109,67.9002
2154.4,64208.03,-16.12129,67.8932
4641.6,57671.37,-18.97526,67.8803
10000.0,52168.81,-31.85523,67.8926
