Frequency,Impedance,Phase Angle,Temperature (Dry Bath)
10.0,39578210.0,-24.49517,68.2754
21.5,16976740.0,-31.06347,68.2754
46.4,11534810.0,-45.5863,68.2754
100.0,6722341.0,-32.27261,68.2754
215.4,5652054.0,-83.04204,68.2754
464.2,3897358.0,-78.3596,68.2754
1000.0,1264419.0,-81.31242,68.2754
2154.4,641022.1,-83.5207,68.2754
4641.6,297467.0,-91.96476,68.2754
10000.0,154864.1,-95.80723,68.2754
