Frequency,Impedance,Phase Angle,Temperature (Dry Bath)
10.0,1720349.0,-27.99223,65.8672
21.544346900318832,1633159.0,-19.47289,65.858
46.41588833612777,1531431.0,-19.09701,65.8561
100.0,626448.7,-6.478562,65.8666
215.44346900318823,18202.67,45.72987,65.8633
464.15888336127773,1372494.0,-84.1321,65.8576
1000.0,239728.1,-34.06914,65.8703
2154.4346900318824,219994.2,-67.48136,65.8646
4641.588833612777,127358.0,-83.64088,65.8446
10000.0,70726.72,-83.58722,65.859
