Frequency,Impedance,Phase Angle,Temperature (Dry Bath)
10.0,1065095.0,-21.45408,71.2876
21.544346900318832,1005213.0,-20.24091,71.2874
46.41588833612777,877335.3,-22.14302,71.2757
100.0,472764.2,-31.71764,71.2842
215.44346900318823,520293.4,-48.14133,71.268
464.15888336127773,932129.4,-39.41697,71.2932
1000.0,235693.4,-63.7139,71.2703
2154.4346900318824,170388.2,-53.20234,71.2857
4641.588833612777,112032.7,-73.69567,71.3026
10000.0,61324.63,-82.4722,71.2577
