Frequency,Impedance,Phase Angle,Temperature (Dry Bath)
10.0,4448489.0,-4.599499,67.1616
21.5,4213876.0,-7.334865,67.1638
46.4,3984430.0,-10.85999,67.1573
100.0,2918960.0,-128.2434,67.1593
215.4,1410737.0,-23.94195,67.1404
464.2,2359346.0,-68.07584,67.1388
1000.0,1396706.0,-56.48837,67.1557
2154.4,510934.5,-90.61653,67.1485
4641.6,269263.7,-82.32144,67.1355
10000.0,124549.1,-84.27965,67.1486
