Frequency,Impedance,Phase Angle,Temperature (Dry Bath)
10.0,45357840.0,-13.27205,67.9676
21.5,42922390.0,-16.86713,67.9768
46.4,41878980.0,-30.1725,67.9638
100.0,7436688.0,-73.64898,67.981
215.4,7249316.0,-32.6765,67.9684
464.2,2795010.0,-66.18385,67.9583
1000.0,1430405.0,-94.36263,67.963
2154.4,714460.1,-88.28044,67.9855
4641.6,323027.1,-93.42223,67.9695
10000.0,166174.8,-96.83982,67.9701
