Frequency,Impedance,Phase Angle,Temperature (Dry Bath)
10.0,39000290.0,-23.31034,68.1193
21.5,16436020.0,-32.84766,68.1223
46.4,13816690.0,-39.94062,68.1283
100.0,4172811.0,-33.89525,68.1096
215.4,4325965.0,-74.95286,68.1004
464.2,4005892.0,-73.93102,68.1312
1000.0,1349189.0,-82.81163,68.1251
2154.4,641829.1,-85.25795,68.1401
4641.6,323910.3,-89.72334,68.1356
10000.0,148924.5,-99.25189,68.1361
