Frequency,Impedance,Phase Angle,Temperature (Dry Bath)
10.0,19793880.0,5.900702,67.945
21.5,28582300.0,-27.78929,67.9522
46.4,28636980.0,-38.614,67.96
100.0,13429410.0,-94.5949,67.9574
215.4,13383540.0,-95.65147,67.9513
464.2,3569182.0,-80.76836,67.95
1000.0,1782491.0,-86.83529,67.9444
2154.4,720028.0,-83.52165,67.9577
4641.6,318974.5,-87.68891,67.9395
10000.0,154862.7,-93.3483,67.9628
