Frequency,Impedance,Phase Angle,Temperature (Dry Bath)
10.0,30631530.0,-18.48311,67.0858
21.5,22070640.0,-27.33594,67.0973
46.4,16598550.0,-62.6952,67.1114
100.0,6601589.0,-72.72807,67.0967
215.4,285326.9,90.9573,67.1153
464.2,2177076.0,-72.74701,67.1112
1000.0,1087940.0,-82.69674,67.109
2154.4,560353.0,-90.49598,67.1168
4641.6,273200.4,-87.5411,67.121
10000.0,125862.8,-87.11191,67.0881
