Frequency,Impedance,Phase Angle,Temperature (Dry Bath)
10.0,718095.4,-26.05385,71.3543
21.544346900318832,618159.3,-25.29096,71.3597
46.41588833612777,441059.4,-31.59152,71.3548
100.0,379935.8,-3.49259,71.3673
215.44346900318823,28404.94,-114.0503,71.3717
464.15888336127773,160292.7,-24.21191,71.3529
1000.0,623910.5,-49.66524,71.3597
2154.4346900318824,132833.0,-57.10697,71.369
4641.588833612777,93440.09,-61.74636,71.377
10000.0,51818.14,-71.26004,71.3741
