Frequency,Impedance,Phase Angle,Temperature (Dry Bath)
10.0,230227.3,-23.14278,67.1385
21.5,193870.3,-20.44855,67.1466
46.4,167818.0,-17.81408,67.1449
100.0,148703.9,-15.55548,67.1509
215.4,129616.6,-17.564,67.1427
464.2,123919.0,-14.85892,67.1453
1000.0,111035.2,-16.84432,67.1453
2154.4,98650.55,-22.36633,67.1531
4641.6,82776.57,-31.01616,67.145
10000.0,61770.84,-42.86425,67.1346
