Frequency,Impedance,Phase Angle,Temperature (Dry Bath)
10.0,284180.5,-19.79868,66.464
21.5,248148.6,-17.49943,66.4741
46.4,220226.4,-15.75624,66.4736
100.0,201178.3,-11.96879,66.4736
215.4,112510.4,17.76983,66.4778
464.2,168490.5,-13.59036,66.498
1000.0,154428.8,-15.2656,66.4855
2154.4,137859.6,-20.80833,66.4981
4641.6,115743.0,-32.69129,66.5251
10000.0,82617.93,-49.75137,66.4767
