Frequency,Impedance,Phase Angle,Temperature (Dry Bath)
10.0,29413620.0,-20.93335,67.1292
21.5,20309210.0,-39.9351,67.1402
46.4,13535230.0,-63.28168,67.1386
100.0,3174947.0,-33.24971,67.1291
215.4,2729524.0,-86.09888,67.124
464.2,1543468.0,-61.45571,67.1431
1000.0,879926.0,-79.57192,67.1236
2154.4,429088.6,-85.84837,67.1199
4641.6,204982.7,-82.75903,67.1315
10000.0,99755.84,-80.68653,67.1253
