Frequency,Impedance,Phase Angle,Temperature (Dry Bath)
10.0,25288490.0,-7.624239,67.4411
21.5,27953610.0,-37.61032,67.4567
46.4,19969630.0,-51.27855,67.4451
100.0,8954511.0,-28.5566,67.4364
215.4,2568310.0,-32.07131,67.4232
464.2,2489068.0,-68.34806,67.429
1000.0,1069256.0,-71.17577,67.4369
2154.4,524772.6,-80.65856,67.42
4641.6,269024.3,-85.72662,67.4376
10000.0,127674.9,-83.83182,67.4365
