Frequency,Impedance,Phase Angle,Temperature (Dry Bath)
10.0,1695985.0,-11.69911,65.7013
21.544346900318832,1425839.0,-16.30508,65.696
46.41588833612777,1229326.0,-18.15973,65.7225
100.0,591402.9,-75.13281,65.7044
215.44346900318823,14868.46,5.899232,65.7119
464.15888336127773,766563.9,-37.16455,65.6983
1000.0,326782.3,-74.56734,65.6991
2154.4346900318824,297388.5,-71.91971,65.7141
4641.588833612777,133425.4,-65.9312,65.7116
10000.0,63838.59,-85.57152,65.7094
