Frequency,Impedance,Phase Angle,Temperature (Dry Bath)
10.0,6285920.0,-14.9579,70.7836
21.544346900318832,4818193.0,-11.8493,70.7579
46.41588833612777,4245200.0,-16.38693,70.7603
100.0,1328571.0,-176.868,70.7765
215.44346900318823,568063.1,-142.7651,70.7705
464.15888336127773,377235.1,-58.53957,70.7785
1000.0,270314.9,-87.39635,70.7876
2154.4346900318824,316889.6,-60.47521,70.7769
4641.588833612777,139334.6,-85.17229,70.7786
10000.0,67255.59,-94.74813,70.77
