Frequency,Impedance,Phase Angle,Temperature (Dry Bath)
10.0,3998056.0,-10.07879,71.316
21.544346900318832,7061719.0,-49.74752,71.3166
46.41588833612777,4731615.0,-24.7473,71.3165
100.0,863500.0,60.01816,71.3036
215.44346900318823,412104.8,-49.0661,71.3143
464.15888336127773,1252723.0,12.24454,71.3102
1000.0,497551.1,-110.9365,71.3195
2154.4346900318824,270051.3,-84.00839,71.3129
4641.588833612777,140423.9,-109.4555,71.3195
10000.0,71405.17,-78.15157,71.3107
