Frequency,Impedance,Phase Angle,Temperature (Dry Bath)
10.0,4354577.0,-22.51871,70.2791
21.544346900318832,3780056.0,-3.066511,70.2763
46.41588833612777,4992706.0,-15.4685,70.291
100.0,600877.6,-109.104,70.2837
215.44346900318823,2527539.0,116.5562,70.2863
464.15888336127773,549922.1,-80.81024,70.2766
1000.0,466081.9,-69.21606,70.2858
2154.4346900318824,225807.0,-83.15577,70.2918
4641.588833612777,88660.58,-84.55139,70.3139
10000.0,51758.0,-83.93471,70.2938
