Frequency,Impedance,Phase Angle,Temperature (Dry Bath)
10.0,4054019.0,-27.93929,65.8803
21.544346900318832,4791815.0,-20.89501,65.8898
46.41588833612777,4190818.0,13.23339,65.8923
100.0,464180.4,170.1576,65.8812
215.44346900318823,20780.7,71.9875,65.8848
464.15888336127773,782376.5,-106.5894,65.8823
1000.0,400911.9,-63.51171,65.908
2154.4346900318824,217882.8,-88.10927,65.879
4641.588833612777,140121.7,-67.1009,65.8858
10000.0,75763.77,-89.10675,65.8778
