Frequency,Impedance,Phase Angle,Temperature (Dry Bath)
10.0,132608.4,-3.903784,67.1989
21.5,129188.5,-3.400662,67.1958
46.4,126371.0,-3.131056,67.1988
100.0,125529.4,-4.297033,67.2111
215.4,223871.6,-65.74562,67.2056
464.2,118366.0,-7.002086,67.1953
1000.0,114212.4,-10.11209,67.1861
2154.4,107485.2,-15.59478,67.2006
4641.6,93222.29,-26.62634,67.2093
10000.0,73822.72,-42.62341,67.1965
