Frequency,Impedance,Phase Angle,Temperature (Dry Bath)
10.0,31902850.0,-31.28195,67.8552
21.5,15747360.0,-32.15433,67.8686
46.4,14238140.0,-47.23702,67.8789
100.0,5496189.0,-47.81828,67.8937
215.4,2696932.0,-89.80452,67.8944
464.2,2655993.0,-86.51053,67.8936
1000.0,1191438.0,-77.07339,67.8783
2154.4,542113.1,-86.05121,67.9016
4641.6,347512.5,-88.76718,67.8944
10000.0,128716.1,-96.89681,67.9091
