Frequency,Impedance,Phase Angle,Temperature (Dry Bath)
10.0,119927.9,-3.204996,67.466
21.5,117148.7,-2.712159,67.4722
46.4,115801.0,-2.714875,67.4654
100.0,116002.2,-3.956732,67.464
215.4,114321.7,-6.130993,67.4648
464.2,110752.3,-4.357779,67.4615
1000.0,107138.7,-8.236522,67.4644
2154.4,102352.9,-13.93548,67.4622
4641.6,91378.88,-24.29257,67.4559
10000.0,74155.49,-40.60905,67.4486
