Frequency,Impedance,Phase Angle,Temperature (Dry Bath)
10.0,1543848.0,-22.10356,65.8409
21.544346900318832,1477791.0,-15.86491,65.8479
46.41588833612777,1270067.0,-18.77751,65.8522
100.0,1524560.0,-129.6539,65.8554
215.44346900318823,295048.4,127.7494,65.839
464.15888336127773,535801.3,-68.4872,65.8452
1000.0,310181.3,-74.60162,65.8484
2154.4346900318824,189977.2,-68.04466,65.8346
4641.588833612777,175596.4,-73.33586,65.8504
10000.0,66602.68,-85.00951,65.8403
