Frequency,Impedance,Phase Angle,Temperature (Dry Bath)
10.0,1584299.0,-19.46459,66.9847
21.5,1404652.0,-16.661,66.9868
46.4,1271484.0,-15.82732,66.9692
100.0,1111531.0,-21.09766,66.9741
215.4,1011031.0,-18.45215,66.9624
464.2,839016.9,-22.44111,66.9759
1000.0,800296.4,-41.95038,66.9762
2154.4,415880.0,-62.15128,66.973
4641.6,224923.0,-74.07331,66.9791
10000.0,109561.2,-79.56908,66.9833
