Frequency,Impedance,Phase Angle,Temperature (Dry Bath)
10.0,724012.3,-10.82786,68.338
21.5,661998.7,-10.35605,68.3635
46.4,622387.2,-11.00241,68.3441
100.0,545083.0,-9.064353,68.3517
215.4,536438.7,-13.20457,68.3476
464.2,482524.7,-20.99109,68.3635
1000.0,398890.6,-28.58187,68.3637
2154.4,324699.4,-40.93792,68.3577
4641.6,228623.7,-52.4805,68.3515
10000.0,130003.7,-75.29378,68.3598
