Frequency,Impedance,Phase Angle,Temperature (Dry Bath)
10.0,117627.9,-3.072796,67.1248
21.5,115235.7,-2.618588,67.0966
46.4,113044.0,-2.29832,67.0929
100.0,109910.1,-2.539147,67.1012
215.4,88200.49,10.20151,67.0938
464.2,107349.1,-6.207976,67.0942
1000.0,106711.3,-8.404705,67.0974
2154.4,100413.0,-14.11783,67.0979
4641.6,89805.71,-24.76812,67.106
10000.0,70557.39,-42.49494,67.0867
