Frequency,Impedance,Phase Angle,Temperature (Dry Bath)
10.0,117544.7,-3.077912,67.2259
21.5,115266.3,-2.579837,67.2303
46.4,113542.3,-2.436653,67.2176
100.0,109886.1,-3.436586,67.2412
215.4,58429.34,-9.920308,67.2502
464.2,106145.7,-5.306406,67.2252
1000.0,102919.3,-7.740159,67.2335
2154.4,99234.03,-14.19179,67.2461
4641.6,87846.88,-25.26582,67.2325
10000.0,70028.86,-41.46362,67.2272
