Frequency,Impedance,Phase Angle,Temperature (Dry Bath)
10.0,4845451.0,-23.67782,71.2976
21.544346900318832,4357597.0,-21.50536,71.2895
46.41588833612777,3674137.0,-28.29052,71.3002
100.0,859153.2,37.32747,71.2992
215.44346900318823,802473.7,-38.04074,71.29
464.15888336127773,1018290.0,-83.83114,71.2829
1000.0,581364.9,-69.97541,71.2857
2154.4346900318824,323264.8,-92.60377,71.2879
4641.588833612777,127906.2,-81.18354,71.2938
10000.0,58912.32,-80.96821,71.2925
