Frequency,Impedance,Phase Angle,Temperature (Dry Bath)
10.0,260544.0,-23.27963,67.2636
21.5,217440.2,-21.49772,67.2572
46.4,185699.2,-19.4475,67.2384
100.0,145864.5,-17.41974,67.2558
215.4,151024.4,-14.4268,67.2202
464.2,129967.1,-16.09036,67.2343
1000.0,115975.3,-23.45503,67.2221
2154.4,102870.4,-23.59714,67.2564
4641.6,83213.48,-30.58476,67.2491
10000.0,61488.8,-42.14093,67.2438
