Frequency,Impedance,Phase Angle,Temperature (Dry Bath)
10.0,29412060.0,2.637075,67.7744
21.5,20665430.0,-34.91819,67.7925
46.4,13597240.0,-45.61212,67.7972
100.0,11423020.0,-13.79901,67.7821
215.4,5215555.0,-64.09961,67.7968
464.2,2653602.0,-88.64189,67.7962
1000.0,1276595.0,-78.93399,67.7884
2154.4,565528.5,-86.1532,67.8008
4641.6,257802.7,-93.51577,67.7852
10000.0,146002.8,-94.73453,67.8002
