Frequency,Impedance,Phase Angle,Temperature (Dry Bath)
10.0,50272.9,-34.54036,67.214
21.5,38370.37,-30.56005,67.2357
46.4,30790.21,-26.66884,67.2309
100.0,25545.56,-22.78877,67.2467
215.4,20725.48,-18.52183,67.2364
464.2,19569.69,-16.47551,67.2382
1000.0,17551.88,-14.20054,67.2365
2154.4,16022.01,-13.01482,67.2345
4641.6,14756.27,-12.66487,67.2381
10000.0,13553.12,-14.29172,67.2466
