Frequency,Impedance,Phase Angle,Temperature (Dry Bath)
10.0,18451410.0,-16.06641,68.1363
21.5,22777080.0,-31.7525,68.1269
46.4,19696490.0,-55.42973,68.1329
100.0,24851780.0,-56.21316,68.1389
215.4,4577454.0,-68.40903,68.1243
464.2,2434388.0,-83.13292,68.1267
1000.0,1213009.0,-85.06489,68.1319
2154.4,534404.7,-87.86576,68.1241
4641.6,261898.2,-91.21078,68.1329
10000.0,124949.0,-96.88362,68.1378
