Frequency,Impedance,Phase Angle,Temperature (Dry Bath)
10.0,11187160.0,-10.58995,71.3085
21.544346900318832,5489170.0,1.95902,71.3332
46.41588833612777,3966915.0,-20.6209,71.3302
100.0,780635.8,101.7378,71.3338
215.44346900318823,14437.68,135.0739,71.3258
464.15888336127773,540364.9,-89.22038,71.3125
1000.0,516693.6,-58.65027,71.3159
2154.4346900318824,258980.9,-101.5914,71.3265
4641.588833612777,139936.0,-83.82413,71.3404
10000.0,65513.88,-80.2548,71.3234
