Frequency,Impedance,Phase Angle,Temperature (Dry Bath)
10.0,66172230.0,-27.37406,67.8868
21.5,41567470.0,-33.99997,67.895
46.4,24926050.0,-50.54733,67.8907
100.0,4158941.0,-44.15109,67.8906
215.4,3611640.0,-100.4677,67.8956
464.2,2016786.0,-74.88601,67.8891
1000.0,1224464.0,-81.19556,67.8947
2154.4,621509.8,-86.10081,67.9036
4641.6,324237.9,-85.82823,67.8923
10000.0,129671.4,-96.36652,67.8914
