Frequency,Impedance,Phase Angle,Temperature (Dry Bath)
10.0,133662.0,-4.018091,67.1317
21.5,130255.6,-3.164335,67.1436
46.4,128808.3,-3.464449,67.1514
100.0,129216.3,-3.657619,67.1248
215.4,125399.6,-2.830291,67.1372
464.2,121727.5,-5.689263,67.1284
1000.0,116109.8,-10.69273,67.114
2154.4,112068.5,-16.6035,67.1327
4641.6,95481.74,-27.052,67.1134
10000.0,73897.55,-43.65651,67.1298
