Frequency,Impedance,Phase Angle,Temperature (Dry Bath)
10.0,7208548.0,7.616894,67.3
21.544346900318832,4177448.0,0.9959959,67.3
46.41588833612777,3663273.0,-16.01737,67.3
100.0,1416997.0,153.4174,67.3
215.44346900318823,2322047.0,-100.0934,67.3
464.15888336127773,3819083.0,-2.440651,67.3
1000.0,2520958.0,-172.075,67.3
2154.4346900318824,2931295.0,-27.80731,67.3
4641.588833612777,781673.9,-65.4325,67.3
10000.0,356725.4,-74.65458,67.3
