Frequency,Impedance,Phase Angle,Temperature (Dry Bath)
10.0,30107510.0,-13.41186,67.2178
21.5,27893230.0,-39.67874,67.2474
46.4,21296500.0,-51.91764,67.2431
100.0,9894335.0,-31.98425,67.2256
215.4,4326551.0,-15.36436,67.2357
464.2,2334325.0,-59.35217,67.2414
1000.0,770771.8,-93.62656,67.2376
2154.4,601056.2,-88.65469,67.2556
4641.6,279049.4,-86.33958,67.2334
10000.0,132467.5,-88.59671,67.2372
