Frequency,Impedance,Phase Angle,Temperature (Dry Bath)
10.0,3960629.0,17.35439,71.4623
21.544346900318832,6222845.0,47.2061,71.4743
46.41588833612777,4492824.0,-14.65157,71.4581
100.0,793543.8,68.01584,71.4598
215.44346900318823,412434.7,-49.75774,71.4637
464.15888336127773,776205.4,-1.140605,71.4755
1000.0,818033.1,169.5816,71.4756
2154.4346900318824,252829.5,-99.72008,71.474
4641.588833612777,113219.0,-76.65752,71.4617
10000.0,72437.4,-78.88458,71.4622
