Frequency,Impedance,Phase Angle,Temperature (Dry Bath)
10.0,893428.7,-7.242745,71.0752
21.544346900318832,825553.9,-3.580151,71.0729
46.41588833612777,815624.9,-6.407399,71.075
100.0,392031.0,-29.91781,71.0824
215.44346900318823,550421.5,13.9287,71.0772
464.15888336127773,540623.9,-28.14764,71.0842
1000.0,510201.0,-5.412271,71.0855
2154.4346900318824,492049.1,-99.51253,71.0698
4641.588833612777,176810.3,-73.37764,71.065
10000.0,124484.8,-70.01501,71.0774
