Frequency,Impedance,Phase Angle,Temperature (Dry Bath)
10.0,50424.81,-34.45922,67.2786
21.5,38498.23,-30.49796,67.2824
46.4,30912.3,-26.67458,67.2837
100.0,25567.94,-22.95982,67.2893
215.4,22226.95,-19.18034,67.2836
464.2,19711.43,-16.68715,67.2882
1000.0,17606.66,-14.20327,67.2856
2154.4,16074.59,-12.82861,67.2872
4641.6,14792.73,-12.55284,67.2817
10000.0,13638.4,-14.21727,67.2819
