Frequency,Impedance,Phase Angle,Temperature (Dry Bath)
10.0,4231583.0,-4.930325,65.7747
21.544346900318832,3980989.0,-14.60313,65.7685
46.41588833612777,2964037.0,-19.83227,65.7607
100.0,619007.3,77.16884,65.759
215.44346900318823,16563.86,140.7578,65.7552
464.15888336127773,1053826.0,146.3031,65.7519
1000.0,284181.8,-76.26609,65.7622
2154.4346900318824,459680.4,-90.99114,65.7809
4641.588833612777,149788.3,-76.47608,65.7824
10000.0,73773.76,-89.63095,65.766
