Frequency,Impedance,Phase Angle,Temperature (Dry Bath)
10.0,22493560.0,-18.74199,67.3866
21.5,25390840.0,-37.46471,67.3782
46.4,20909020.0,-48.09669,67.3807
100.0,6382793.0,-2.39738,67.3819
215.4,201446.6,10.27863,67.3941
464.2,1652652.0,-117.9386,67.3844
1000.0,1313407.0,-92.18894,67.3806
2154.4,625061.8,-95.47019,67.3819
4641.6,269291.8,-89.02773,67.4109
10000.0,131975.2,-86.8325,67.3677
