Frequency,Impedance,Phase Angle,Temperature (Dry Bath)
10.0,39314190.0,-2.005442,67.8877
21.5,60034760.0,-19.06959,67.8855
46.4,34742000.0,-47.90231,67.8745
100.0,10582580.0,-51.00037,67.8801
215.4,5780807.0,-79.95102,67.8632
464.2,3569636.0,-83.0503,67.8735
1000.0,1315569.0,-77.04783,67.8888
2154.4,673095.9,-90.88592,67.8828
4641.6,322024.7,-89.81123,67.8738
10000.0,159005.3,-97.92148,67.8676
