Frequency,Impedance,Phase Angle,Temperature (Dry Bath)
10.0,1614753.0,-14.29358,68.2042
21.5,1426840.0,-13.42556,68.2042
46.4,1248902.0,-13.81045,68.2042
100.0,1093099.0,-9.568426,68.2042
215.4,1143771.0,-20.36388,68.2042
464.2,1011501.0,-26.06647,68.2042
1000.0,757974.9,-39.23045,68.2042
2154.4,535626.8,-56.40631,68.2042
4641.6,303157.7,-71.88294,68.2042
10000.0,135676.1,-83.08788,68.2042
