Frequency,Impedance,Phase Angle,Temperature (Dry Bath)
10.0,220534.7,-23.16233,67.2986
21.5,186459.9,-20.28129,67.2896
46.4,161413.3,-17.71139,67.3049
100.0,144761.4,-15.69888,67.2957
215.4,129515.2,-12.81608,67.283
464.2,118147.7,-14.31351,67.2833
1000.0,107580.7,-16.16436,67.2708
2154.4,94726.63,-21.53615,67.2892
4641.6,79643.83,-29.99512,67.3007
10000.0,60888.38,-41.17653,67.2871
