Frequency,Impedance,Phase Angle,Temperature (Dry Bath)
10.0,21042910.0,-10.03815,67.9847
21.5,23130870.0,-4.982102,67.9809
46.4,15421560.0,-58.83116,67.9692
100.0,8176706.0,-31.00692,67.9861
215.4,9481641.0,-85.39622,67.9697
464.2,4789573.0,-74.02643,67.9873
1000.0,1461606.0,-90.55018,67.9651
2154.4,717508.0,-89.27019,67.9754
4641.6,291046.2,-89.52878,67.9566
10000.0,140472.2,-101.2474,67.9796
