Frequency,Impedance,Phase Angle,Temperature (Dry Bath)
10.0,40425830.0,-22.53076,67.3744
21.5,30260060.0,-39.51959,67.3625
46.4,21715480.0,-52.56571,67.3562
100.0,2671080.0,-72.57249,67.3758
215.4,11889620.0,-132.2258,67.3524
464.2,2790694.0,-101.5467,67.3686
1000.0,1022457.0,-88.4563,67.3624
2154.4,598011.5,-91.78419,67.3601
4641.6,265996.6,-87.82972,67.3453
10000.0,129316.2,-84.49668,67.3636
