Frequency,Impedance,Phase Angle,Temperature (Dry Bath)
10.0,1478456.0,-16.48242,67.4323
21.5,1303523.0,-15.93137,67.4347
46.4,1193336.0,-14.69586,67.4516
100.0,904139.9,-24.74692,67.4453
215.4,877667.6,-16.34165,67.4445
464.2,778544.6,-29.02801,67.4446
1000.0,684590.6,-43.9877,67.4425
2154.4,414034.4,-64.56924,67.446
4641.6,226945.0,-71.81956,67.4287
10000.0,112082.1,-79.35402,67.4531
