Frequency,Impedance,Phase Angle,Temperature (Dry Bath)
10.0,7961701.0,-15.98497,66.4154
21.544346900318832,3766681.0,-5.537971,66.4058
46.41588833612777,4180572.0,-25.85089,66.4146
100.0,1233907.0,27.23266,66.4047
215.44346900318823,1057144.0,-24.14044,66.42
464.15888336127773,1159907.0,-139.8171,66.4139
1000.0,434766.5,-62.68156,66.4005
2154.4346900318824,202449.7,-65.54444,66.4144
4641.588833612777,121476.9,-94.43768,66.3993
10000.0,55768.08,-86.90623,66.4012
