Frequency,Impedance,Phase Angle,Temperature (Dry Bath)
10.0,255185.8,-23.1061,67.3902
21.5,211710.1,-21.23451,67.4004
46.4,182793.7,-18.96336,67.3958
100.0,162753.3,-17.43871,67.3987
215.4,127386.0,29.03911,67.4075
464.2,132029.5,-15.81111,67.3846
1000.0,114738.6,-18.82891,67.3891
2154.4,102334.7,-23.89365,67.3964
4641.6,82225.1,-31.81086,67.3854
10000.0,61639.07,-41.68689,67.3813
