Frequency,Impedance,Phase Angle,Temperature (Dry Bath)
10.0,188566.0,-19.19397,67.3
21.544346900318832,5813681.0,22.60383,67.3
46.41588833612777,5729007.0,14.19276,67.3
100.0,759165.4,-13.56476,67.3
215.44346900318823,2605745.0,-88.23961,67.3
464.15888336127773,1157135.0,-32.96591,67.3
1000.0,118127.3,-67.20145,67.3
2154.4346900318824,604987.7,-1.758002,67.3
4641.588833612777,348899.3,-52.86608,67.3
10000.0,457924.0,38.4598,67.3
