Frequency,Impedance,Phase Angle,Temperature (Dry Bath)
10.0,965165.9,-1.681457,71.2816
21.544346900318832,849529.3,-5.417494,71.2877
46.41588833612777,835461.1,-4.01131,71.2922
100.0,473923.6,-40.50747,71.2969
215.44346900318823,331102.6,-4.943079,71.2983
464.15888336127773,860260.2,155.2669,71.2973
1000.0,251316.2,-92.19565,71.2882
2154.4346900318824,308708.3,-85.50452,71.2876
4641.588833612777,423393.6,-46.28299,71.2848
10000.0,89997.01,-49.83881,71.2791
