Frequency,Impedance,Phase Angle,Temperature (Dry Bath)
10.0,4060268.0,-6.886044,71.3272
21.544346900318832,3684099.0,-18.52803,71.3262
46.41588833612777,3648422.0,-27.54267,71.3163
100.0,494921.4,102.8014,71.316
215.44346900318823,273797.0,125.1866,71.3333
464.15888336127773,1346675.0,-53.24161,71.32
1000.0,331370.1,-135.629,71.3216
2154.4346900318824,257821.6,-113.1829,71.327
4641.588833612777,131364.5,-88.6808,71.3147
10000.0,62705.72,-84.17393,71.3246
