Frequency,Impedance,Phase Angle,Temperature (Dry Bath)
10.0,119200.3,-16.6019,68.0546
21.5,106052.3,-14.21614,68.0683
46.4,96640.07,-12.63499,68.0737
100.0,87202.76,-12.16554,68.0521
215.4,83103.65,-10.90749,68.0713
464.2,76835.72,-9.297978,68.0548
1000.0,70622.85,-12.1899,68.0661
2154.4,65662.15,-15.8938,68.0689
4641.6,59988.03,-22.2243,68.0575
10000.0,53300.74,-34.64192,68.0624
