Frequency,Impedance,Phase Angle,Temperature (Dry Bath)
10.0,57238600.0,-13.57668,67.8947
21.5,30427010.0,-16.70967,67.8893
46.4,26376330.0,-42.62956,67.8867
100.0,8475916.0,-25.60498,67.8876
215.4,9080347.0,-98.2328,67.889
464.2,2859879.0,-94.81599,67.8763
1000.0,1601571.0,-91.0852,67.8864
2154.4,681105.3,-88.58379,67.8924
4641.6,350205.3,-98.36023,67.8913
10000.0,162811.9,-100.7243,67.8903
