Frequency,Impedance,Phase Angle,Temperature (Dry Bath)
10.0,20654070.0,-12.90447,68.2951
21.5,18476720.0,-32.39023,68.2841
46.4,18342690.0,-64.16735,68.2889
100.0,6429603.0,-40.32157,68.2993
215.4,5317686.0,-90.81185,68.2914
464.2,2629606.0,-66.98546,68.279
1000.0,1247315.0,-88.38464,68.2989
2154.4,593457.0,-84.38605,68.2863
4641.6,294409.4,-91.91367,68.2975
10000.0,129556.0,-96.74401,68.2808
