Frequency,Impedance,Phase Angle,Temperature (Dry Bath)
10.0,2844251.0,-6.157395,65.747
21.544346900318832,11927260.0,-38.19202,65.7414
46.41588833612777,4438448.0,-55.62757,65.7329
100.0,935654.5,-166.6719,65.7359
215.44346900318823,10628.08,-11.77965,65.7481
464.15888336127773,508862.0,62.94902,65.7456
1000.0,393498.3,-55.42428,65.7399
2154.4346900318824,432276.9,-71.08547,65.7412
4641.588833612777,160786.9,-87.52322,65.7452
10000.0,75866.77,-82.68266,65.7468
