Frequency,Impedance,Phase Angle,Temperature (Dry Bath)
10.0,35898390.0,-33.79417,67.0629
21.5,21608250.0,-38.81327,67.051
46.4,17719390.0,-57.41478,67.0496
100.0,3530275.0,-17.87649,67.0643
215.4,4506015.0,-35.50376,67.0687
464.2,2286297.0,-93.61842,67.0774
1000.0,1080984.0,-79.47384,67.0723
2154.4,522448.3,-81.60333,67.0776
4641.6,245909.4,-86.09365,67.0865
10000.0,121033.7,-84.50367,67.0833
