Frequency,Impedance,Phase Angle,Temperature (Dry Bath)
10.0,19977020.0,-31.93417,68.1567
21.5,23378500.0,-23.07938,68.1599
46.4,11043280.0,-51.08535,68.1653
100.0,12011930.0,-68.55696,68.1593
215.4,4411554.0,-71.81482,68.1575
464.2,1787608.0,-76.2547,68.1753
1000.0,1104785.0,-82.39949,68.1667
2154.4,553118.7,-93.0272,68.1601
4641.6,270229.3,-89.76199,68.1718
10000.0,134282.2,-95.70097,68.1699
