Frequency,Impedance,Phase Angle,Temperature (Dry Bath)
10.0,4214825.0,-21.73518,71.1281
21.544346900318832,3016673.0,-31.47279,71.1514
46.41588833612777,2485485.0,-34.19514,71.1473
100.0,1024956.0,-161.8553,71.138
215.44346900318823,4378056.0,142.3646,71.1365
464.15888336127773,543113.4,-10.9986,71.1332
1000.0,1174616.0,-24.97574,71.131
2154.4346900318824,314944.6,-102.4451,71.1227
4641.588833612777,155917.8,-100.979,71.1409
10000.0,70575.0,-89.45926,71.1396
