Frequency,Impedance,Phase Angle,Temperature (Dry Bath)
10.0,55621.2,-33.41231,67.2679
21.5,42919.51,-29.07134,67.2824
46.4,35083.71,-25.21386,67.2843
100.0,29803.29,-21.17901,67.2718
215.4,25752.86,-18.10392,67.2612
464.2,23291.92,-15.0552,67.2664
1000.0,20883.3,-13.10685,67.2387
2154.4,19193.23,-11.98457,67.265
4641.6,17823.69,-12.2073,67.2509
10000.0,16530.78,-14.41171,67.2455
