Frequency,Impedance,Phase Angle,Temperature (Dry Bath)
10.0,42335.28,-16.45482,70.6948
21.544346900318832,37223.15,-14.93134,70.6995
46.41588833612777,32810.23,-13.64669,70.6877
100.0,29925.29,-9.980625,70.6911
215.44346900318823,26555.48,-10.71486,70.6837
464.15888336127773,26488.76,-8.626578,70.7016
1000.0,24508.81,-10.25728,70.6967
2154.4346900318824,21178.61,-11.21678,70.6908
4641.588833612777,19792.86,-16.5934,70.685
10000.0,17470.55,-25.46333,70.6812
