Frequency,Impedance,Phase Angle,Temperature (Dry Bath)
10.0,1538127.0,-18.45477,68.1337
21.5,1345098.0,-14.33347,68.1046
46.4,1167725.0,-14.07292,68.14
100.0,1011497.0,-14.40133,68.1254
215.4,1057621.0,-20.44365,68.1263
464.2,907816.3,-34.40974,68.1391
1000.0,748728.9,-40.63474,68.1461
2154.4,498766.6,-59.19969,68.119
4641.6,267909.8,-76.04896,68.1235
10000.0,125292.8,-88.09112,68.1164
