Frequency,Impedance,Phase Angle,Temperature (Dry Bath)
10.0,47558.97,-16.71746,70.6163
21.544346900318832,41938.94,-15.07619,70.6362
46.41588833612777,37296.36,-13.61619,70.6362
100.0,32291.16,-11.6167,70.634
215.44346900318823,29099.56,-14.13052,70.6286
464.15888336127773,28024.35,-11.09214,70.6267
1000.0,27492.67,-14.4026,70.6337
2154.4346900318824,24704.9,-12.78699,70.6345
4641.588833612777,22893.25,-18.83227,70.627
10000.0,18962.9,-26.73861,70.638
