Frequency,Impedance,Phase Angle,Temperature (Dry Bath)
10.0,146006.2,-4.948398,67.9238
21.5,142057.8,-3.993458,67.9243
46.4,137968.1,-3.930486,67.9199
100.0,132135.1,-4.002623,67.9259
215.4,131202.2,-3.05708,67.9324
464.2,128217.4,-6.066878,67.9403
1000.0,125921.4,-8.87541,67.927
2154.4,113356.2,-15.6203,67.9357
4641.6,110229.7,-29.571,67.9326
10000.0,78454.52,-50.36653,67.9514
