Frequency,Impedance,Phase Angle,Temperature (Dry Bath)
10.0,29526320.0,-4.560506,67.3013
21.5,20861790.0,-26.3348,67.2726
46.4,16674740.0,-58.76186,67.263
100.0,2994125.0,-40.03829,67.2825
215.4,2131409.0,-72.62258,67.2905
464.2,2720029.0,-93.54957,67.2624
1000.0,1311139.0,-77.38637,67.2624
2154.4,498682.3,-85.67126,67.2767
4641.6,250254.2,-84.17386,67.251
10000.0,121629.6,-81.54889,67.2825
