Frequency,Impedance,Phase Angle,Temperature (Dry Bath)
10.0,1464026.0,-16.82921,67.1883
21.5,1303276.0,-15.49972,67.2015
46.4,1191521.0,-13.31337,67.1817
100.0,1077516.0,-10.773,67.1911
215.4,1289110.0,-92.36498,67.1872
464.2,1023362.0,-27.83643,67.1839
1000.0,723191.5,-45.75733,67.1835
2154.4,422347.5,-63.98779,67.1967
4641.6,219934.2,-70.68003,67.191
10000.0,112644.1,-77.59298,67.1837
