Frequency,Impedance,Phase Angle,Temperature (Dry Bath)
10.0,40288940.0,2.332207,67.3293
21.5,24314840.0,-41.45378,67.3221
46.4,19089410.0,-47.57708,67.3109
100.0,8889008.0,-16.22347,67.3337
215.4,3014488.0,-97.50641,67.3201
464.2,2123069.0,-86.86708,67.3231
1000.0,1295711.0,-88.02476,67.3263
2154.4,639312.2,-89.47531,67.3338
4641.6,264007.3,-86.34663,67.3289
10000.0,135357.3,-85.07164,67.3148
