Frequency,Impedance,Phase Angle,Temperature (Dry Bath)
10.0,172878.5,-13.16968,65.7649
21.544346900318832,158797.4,-11.11732,65.7436
46.41588833612777,145091.1,-10.99575,65.7479
100.0,134628.6,-0.5544126,65.7488
215.44346900318823,34879.02,170.6585,65.7581
464.15888336127773,111372.0,-10.10421,65.7703
1000.0,96868.98,-8.802435,65.7449
2154.4346900318824,115022.0,-24.45741,65.7508
4641.588833612777,70255.32,-41.81788,65.7631
10000.0,55835.36,-47.97961,65.7375
