Frequency,Impedance,Phase Angle,Temperature (Dry Bath)
10.0,28586190.0,-35.71657,67.1618
21.5,28421730.0,-39.34395,67.1832
46.4,15047870.0,-57.36314,67.1687
100.0,3592814.0,-81.09269,67.186
215.4,187697.5,-17.68183,67.1585
464.2,2105883.0,-88.78456,67.1643
1000.0,1011924.0,-86.87207,67.1753
2154.4,526792.4,-97.67312,67.1639
4641.6,259372.1,-87.674,67.1843
10000.0,122682.4,-83.28905,67.1767
