Frequency,Impedance,Phase Angle,Temperature (Dry Bath)
10.0,2118306.0,-11.17417,68.1405
21.5,1958014.0,-11.50339,68.1203
46.4,1737222.0,-13.41193,68.1388
100.0,1256768.0,-12.29188,68.1447
215.4,1324253.0,-27.3547,68.1326
464.2,1064233.0,-31.5704,68.1368
1000.0,854948.6,-41.64731,68.1329
2154.4,516865.3,-61.92655,68.1287
4641.6,257110.8,-74.44389,68.1317
10000.0,141635.6,-84.16624,68.1368
