Frequency,Impedance,Phase Angle,Temperature (Dry Bath)
10.0,6803673.0,23.36662,66.4323
21.544346900318832,5306767.0,-17.1973,66.4244
46.41588833612777,4283015.0,-38.35596,66.436
100.0,1014797.0,97.02812,66.4386
215.44346900318823,810206.8,156.0627,66.4245
464.15888336127773,2677144.0,-69.38227,66.4331
1000.0,431249.7,-97.28808,66.412
2154.4346900318824,229021.4,-90.41286,66.422
4641.588833612777,211664.6,-85.24168,66.4237
10000.0,67203.96,-85.56119,66.4458
