Frequency,Impedance,Phase Angle,Temperature (Dry Bath)
10.0,3998597.0,8.402893,71.2458
21.544346900318832,5047729.0,5.469315,71.2655
46.41588833612777,4428048.0,-27.56654,71.2716
100.0,247881.8,-0.143336,71.2742
215.44346900318823,635604.0,179.161,71.2626
464.15888336127773,1067644.0,-91.52537,71.2704
1000.0,442458.0,-82.08328,71.2512
2154.4346900318824,297033.5,-78.40888,71.2493
4641.588833612777,111852.2,-79.77709,71.2729
10000.0,67505.28,-84.25322,71.283
