Frequency,Impedance,Phase Angle,Temperature (Dry Bath)
10.0,1605705.0,-19.12767,67.067
21.5,1418477.0,-17.66703,67.0629
46.4,1269829.0,-15.40958,67.0553
100.0,1183927.0,-15.8877,67.0581
215.4,1425814.0,-5.395097,67.0566
464.2,843646.1,-24.8025,67.0535
1000.0,577513.4,-52.77263,67.0647
2154.4,431358.4,-62.07729,67.0459
4641.6,221980.0,-73.15595,67.0699
10000.0,110975.4,-80.90578,67.0646
