Frequency,Impedance,Phase Angle,Temperature (Dry Bath)
10.0,39392050.0,-28.09843,67.7294
21.5,25629500.0,-22.89016,67.7273
46.4,15631640.0,-52.88449,67.722
100.0,4864769.0,-46.91678,67.7269
215.4,3653478.0,-67.89277,67.7321
464.2,2054639.0,-94.10637,67.7275
1000.0,1164083.0,-82.52184,67.7498
2154.4,610436.3,-85.09781,67.7371
4641.6,270569.5,-93.41331,67.7256
10000.0,135933.9,-97.56745,67.7273
