Frequency,Impedance,Phase Angle,Temperature (Dry Bath)
10.0,40952630.0,8.726152,68.1016
21.5,39484150.0,-43.71617,68.1016
46.4,28889930.0,-40.2149,68.1016
100.0,3753752.0,-17.51559,68.1016
215.4,7247305.0,-73.25737,68.1016
464.2,3100982.0,-84.37921,68.1016
1000.0,1398419.0,-82.61713,68.1016
2154.4,655135.0,-90.2595,68.1016
4641.6,334509.7,-91.06933,68.1016
10000.0,153044.3,-96.41718,68.1016
