Frequency,Impedance,Phase Angle,Temperature (Dry Bath)
10.0,2338888.0,-12.47912,68.3254
21.5,2014422.0,-12.95092,68.3292
46.4,1820699.0,-13.45605,68.3339
100.0,1273838.0,-18.61315,68.3223
215.4,1630512.0,-22.71415,68.3274
464.2,1218810.0,-24.30873,68.3327
1000.0,926495.6,-47.11144,68.3188
2154.4,576213.3,-68.42171,68.328
4641.6,288388.8,-78.90363,68.3224
10000.0,146359.6,-91.20078,68.3325
