Frequency,Impedance,Phase Angle,Temperature (Dry Bath)
10.0,27505920.0,15.48998,68.1357
21.5,23432260.0,-32.73141,68.1456
46.4,26765230.0,-50.2361,68.1526
100.0,4936607.0,-43.8995,68.1465
215.4,4313266.0,-89.56769,68.1371
464.2,3034473.0,-86.88027,68.1409
1000.0,1586446.0,-91.71994,68.1413
2154.4,664119.9,-90.50941,68.154
4641.6,312385.6,-88.57692,68.1514
10000.0,152676.6,-95.93435,68.1421
