Frequency,Impedance,Phase Angle,Temperature (Dry Bath)
10.0,22905560.0,-20.39138,68.1569
21.5,20345790.0,-27.95812,68.1471
46.4,23890810.0,-47.39116,68.14
100.0,5169276.0,-38.75052,68.152
215.4,6919894.0,-115.8401,68.1496
464.2,2722481.0,-95.23217,68.1442
1000.0,1194683.0,-82.47563,68.1585
2154.4,574313.1,-85.44408,68.1369
4641.6,291728.0,-91.86942,68.131
10000.0,146800.5,-95.83112,68.1444
