Frequency,Impedance,Phase Angle,Temperature (Dry Bath)
10.0,145239.5,-20.3574,67.9755
21.5,125508.4,-17.26752,67.975
46.4,111654.3,-15.01269,67.9912
100.0,100270.4,-13.51861,67.97
215.4,94437.55,-11.58397,67.9855
464.2,86203.15,-11.75471,67.9757
1000.0,80261.56,-13.74787,67.9702
2154.4,72481.19,-17.11607,67.9703
4641.6,65490.71,-22.76036,67.9683
10000.0,56578.76,-34.42507,67.9793
