Frequency,Impedance,Phase Angle,Temperature (Dry Bath)
10.0,18225780.0,-21.22749,68.0794
21.5,29643110.0,-36.25302,68.0912
46.4,26114320.0,-45.69688,68.0737
100.0,4367077.0,-47.51117,68.0969
215.4,8205703.0,-83.85111,68.0975
464.2,2899860.0,-78.81597,68.0937
1000.0,1349101.0,-86.55622,68.117
2154.4,684828.6,-88.00254,68.095
4641.6,297601.2,-89.43526,68.0772
10000.0,146842.3,-94.18666,68.0827
