Frequency,Impedance,Phase Angle,Temperature (Dry Bath)
10.0,26619850.0,-15.42371,68.1516
21.5,36560810.0,-24.22779,68.1352
46.4,24538210.0,-45.10202,68.1612
100.0,7381864.0,-16.28577,68.1513
215.4,4825503.0,-81.90865,68.1658
464.2,3854007.0,-107.7441,68.168
1000.0,1514962.0,-82.08035,68.1599
2154.4,714142.3,-85.0462,68.1583
4641.6,382025.3,-94.20872,68.1607
10000.0,151573.5,-97.338,68.1625
