Frequency,Impedance,Phase Angle,Temperature (Dry Bath)
10.0,20387830.0,-20.95977,68.3172
21.5,21474130.0,-21.56554,68.3172
46.4,10433460.0,-52.28219,68.3172
100.0,7385964.0,-64.3855,68.3172
215.4,3298312.0,-64.14515,68.3172
464.2,2855422.0,-87.36249,68.3172
1000.0,1122272.0,-81.13888,68.3172
2154.4,569127.4,-87.03275,68.3172
4641.6,292107.6,-87.06927,68.3172
10000.0,128747.6,-95.16564,68.3172
