Frequency,Impedance,Phase Angle,Temperature (Dry Bath)
10.0,20610940.0,-19.83679,68.1531
21.5,17176340.0,-32.80497,68.1531
46.4,15057190.0,-50.95392,68.1532
100.0,5054470.0,-40.94841,68.1452
215.4,7166637.0,-76.99402,68.1484
464.2,2548580.0,-75.22534,68.1428
1000.0,1290841.0,-86.52611,68.1543
2154.4,696972.0,-83.87916,68.1587
4641.6,316329.4,-89.77797,68.1618
10000.0,148374.8,-97.92628,68.1529
