Frequency,Impedance,Phase Angle,Temperature (Dry Bath)
10.0,4141211.0,1.333681,67.0886
21.5,3999832.0,-5.158479,67.0972
46.4,3857786.0,-10.26878,67.0823
100.0,4563078.0,-16.70614,67.0861
215.4,5072335.0,-66.64959,67.104
464.2,2004129.0,-62.62007,67.0883
1000.0,1065040.0,-70.04665,67.0778
2154.4,576569.4,-76.51433,67.0656
4641.6,277574.9,-82.19752,67.1069
10000.0,135774.0,-86.81396,67.102
