Frequency,Impedance,Phase Angle,Temperature (Dry Bath)
10.0,26329640.0,-24.2053,68.2901
21.5,24006050.0,-26.43837,68.3012
46.4,20083590.0,-44.09883,68.2852
100.0,10777790.0,-53.42296,68.287
215.4,4440521.0,-93.49516,68.2993
464.2,2351322.0,-84.30237,68.2833
1000.0,1207707.0,-83.52431,68.297
2154.4,647420.2,-90.61582,68.2877
4641.6,280423.0,-90.57418,68.2809
10000.0,138634.7,-95.85596,68.2822
