Frequency,Impedance,Phase Angle,Temperature (Dry Bath)
10.0,4122951.0,-46.72648,71.2185
21.544346900318832,3242109.0,-17.11017,71.2287
46.41588833612777,2463460.0,-24.13266,71.2188
100.0,352125.5,11.05132,71.2174
215.44346900318823,815999.5,-41.60056,71.199
464.15888336127773,964942.5,-55.84656,71.2206
1000.0,460122.6,-2.977825,71.2276
2154.4346900318824,263500.7,-76.30623,71.223
4641.588833612777,143001.1,-75.65572,71.2202
10000.0,62195.81,-81.18336,71.2172
