Frequency,Impedance,Phase Angle,Temperature (Dry Bath)
10.0,4702273.0,6.133455,71.2657
21.544346900318832,3700836.0,-9.413585,71.2758
46.41588833612777,3965259.0,36.26162,71.2684
100.0,454216.9,-34.89613,71.2836
215.44346900318823,144678.0,134.0641,71.2774
464.15888336127773,431104.4,-124.7676,71.2751
1000.0,329458.9,-60.92146,71.2732
2154.4346900318824,265326.2,-73.77159,71.2792
4641.588833612777,134930.2,-85.09291,71.2794
10000.0,67423.74,-78.81391,71.2671
