Frequency,Impedance,Phase Angle,Temperature (Dry Bath)
10.0,87152.97,-18.96634,71.3985
21.544346900318832,74617.62,-18.14794,71.4152
46.41588833612777,64207.32,-17.97294,71.4089
100.0,51753.38,-20.21603,71.3969
215.44346900318823,47850.8,-15.40606,71.414
464.15888336127773,43182.13,-16.37967,71.3956
1000.0,36963.67,-16.79892,71.4096
2154.4346900318824,34271.17,-15.13068,71.4224
4641.588833612777,30086.94,-15.86104,71.4184
10000.0,26651.08,-21.05835,71.3916
