Frequency,Impedance,Phase Angle,Temperature (Dry Bath)
10.0,43500.6,-14.85622,71.3176
21.544346900318832,39038.6,-13.36665,71.3161
46.41588833612777,35526.74,-12.23584,71.3188
100.0,31020.97,-13.27845,71.316
215.44346900318823,30929.57,-11.31252,71.312
464.15888336127773,27535.41,-13.19818,71.3363
1000.0,25186.08,-15.07648,71.3239
2154.4346900318824,23308.99,-12.58796,71.3229
4641.588833612777,21727.29,-18.76075,71.3356
10000.0,18678.8,-25.50238,71.3318
