Frequency,Impedance,Phase Angle,Temperature (Dry Bath)
10.0,114769.7,-3.11699,67.3877
21.5,112640.0,-2.56705,67.3945
46.4,110615.8,-2.456895,67.3993
100.0,107555.0,-3.116636,67.3827
215.4,106499.6,-3.729072,67.3997
464.2,106716.3,-5.313832,67.3881
1000.0,100235.0,-7.23528,67.3862
2154.4,99391.56,-13.78107,67.3938
4641.6,88448.97,-24.5342,67.3939
10000.0,69422.59,-41.10492,67.3887
