Frequency,Impedance,Phase Angle,Temperature (Dry Bath)
10.0,26476480.0,-16.35812,67.926
21.5,27574200.0,-32.91989,67.9239
46.4,34217350.0,-44.67574,67.9268
100.0,22530130.0,-39.0019,67.9197
215.4,5717961.0,-97.10933,67.9368
464.2,2900856.0,-81.13913,67.9311
1000.0,1539318.0,-79.23282,67.9381
2154.4,680030.0,-87.16914,67.9016
4641.6,331454.0,-89.30879,67.933
10000.0,154659.1,-92.61071,67.9171
