Frequency,Impedance,Phase Angle,Temperature (Dry Bath)
10.0,19871420.0,-12.03339,67.9018
21.5,25774100.0,-28.7665,67.8881
46.4,21929270.0,-52.66284,67.8939
100.0,5771323.0,-27.06764,67.8838
215.4,4001222.0,-43.96225,67.8904
464.2,2925567.0,-98.96868,67.8866
1000.0,1268771.0,-74.53586,67.9036
2154.4,572375.6,-81.31494,67.9096
4641.6,287081.8,-92.24726,67.8815
10000.0,127445.6,-93.53246,67.8999
