Frequency,Impedance,Phase Angle,Temperature (Dry Bath)
10.0,23643590.0,-25.28578,67.1927
21.5,18399860.0,-29.77457,67.2075
46.4,13347750.0,-64.07431,67.2006
100.0,3693506.0,-39.46081,67.2018
215.4,1834382.0,-69.46492,67.198
464.2,1602822.0,-74.85006,67.2005
1000.0,962506.1,-84.68986,67.2033
2154.4,397823.0,-84.81361,67.1919
4641.6,199702.5,-81.13906,67.1865
10000.0,98113.71,-79.87597,67.2039
