Frequency,Impedance,Phase Angle,Temperature (Dry Bath)
10.0,6287489.0,-3.739193,65.8434
21.544346900318832,3937650.0,-2.657203,65.8674
46.41588833612777,4308831.0,-18.97681,65.8579
100.0,463150.5,122.8672,65.8811
215.44346900318823,684481.2,53.39363,65.8646
464.15888336127773,5233992.0,110.6275,65.8522
1000.0,361961.2,-38.95869,65.8528
2154.4346900318824,240011.0,-100.8578,65.8573
4641.588833612777,144652.3,-72.04166,65.8536
10000.0,64964.52,-86.99816,65.8603
