Frequency,Impedance,Phase Angle,Temperature (Dry Bath)
10.0,18188140.0,-18.10832,68.2234
21.5,17936790.0,-33.9652,68.2091
46.4,19865430.0,-49.61235,68.2082
100.0,7195639.0,-38.70635,68.2105
215.4,5434028.0,-74.57555,68.2339
464.2,3689060.0,-70.92265,68.2137
1000.0,1305997.0,-79.20408,68.206
2154.4,613376.1,-85.98634,68.2055
4641.6,298051.0,-94.83025,68.2106
10000.0,141163.6,-93.39631,68.206
