Frequency,Impedance,Phase Angle,Temperature (Dry Bath)
10.0,60291.68,-32.34996,67.4714
21.5,47156.56,-28.07047,67.4932
46.4,39010.34,-24.09933,67.4707
100.0,33000.69,-20.30941,67.4877
215.4,28291.57,-29.04306,67.4668
464.2,26277.13,-14.19837,67.47
1000.0,23814.01,-12.40494,67.4754
2154.4,21935.1,-11.55555,67.4866
4641.6,20327.73,-12.1536,67.4694
10000.0,18937.74,-14.95495,67.4863
