Frequency,Impedance,Phase Angle,Temperature (Dry Bath)
10.0,25974780.0,-5.446652,67.1669
21.5,23040160.0,-36.2409,67.1891
46.4,28088980.0,-79.33453,67.1885
100.0,5624680.0,-56.3599,67.204
215.4,176126.6,29.89868,67.1873
464.2,3444122.0,-86.27422,67.197
1000.0,1181182.0,-91.88163,67.2105
2154.4,538967.8,-87.67244,67.1882
4641.6,261324.4,-84.53269,67.2039
10000.0,122268.8,-86.99065,67.1947
