Frequency,Impedance,Phase Angle,Temperature (Dry Bath)
10.0,30316350.0,-17.28238,67.9279
21.5,22113380.0,-28.55752,67.9206
46.4,31311260.0,-38.23847,67.929
100.0,4223871.0,-46.36273,67.9128
215.4,5067409.0,-92.063,67.9295
464.2,2483283.0,-93.18001,67.931
1000.0,1473225.0,-78.35716,67.9306
2154.4,681154.6,-81.83233,67.9302
4641.6,317703.6,-86.37093,67.9155
10000.0,154519.5,-95.50453,67.9053
