Frequency,Impedance,Phase Angle,Temperature (Dry Bath)
10.0,172556.9,-12.44801,65.8378
21.544346900318832,157579.7,-10.54384,65.8357
46.41588833612777,145905.5,-11.08616,65.8415
100.0,119607.8,-8.866971,65.8447
215.44346900318823,201200.1,-51.86415,65.8472
464.15888336127773,127394.6,-15.26867,65.8475
1000.0,77253.23,-16.44032,65.8454
2154.4346900318824,100799.4,-15.17391,65.8416
4641.588833612777,75208.43,-34.36237,65.8524
10000.0,51720.43,-57.51162,65.8517
