Frequency,Impedance,Phase Angle,Temperature (Dry Bath)
10.0,31241470.0,-20.7818,67.0683
21.5,28133700.0,-40.31575,67.069
46.4,20046940.0,-48.47059,67.0558
100.0,4186803.0,9.109357,67.0581
215.4,3958980.0,-15.08891,67.067
464.2,2146684.0,-81.41221,67.0493
1000.0,1122895.0,-86.91738,67.074
2154.4,531430.2,-90.2468,67.0758
4641.6,258898.6,-85.05831,67.0658
10000.0,125318.5,-86.76735,67.0561
