Frequency,Impedance,Phase Angle,Temperature (Dry Bath)
10.0,1437923.0,-14.86218,68.0226
21.5,1244554.0,-13.80922,68.01
46.4,1088973.0,-13.55736,68.0241
100.0,909038.3,-12.40398,68.0267
215.4,938818.0,-19.48469,68.0211
464.2,882056.2,-34.50555,68.0138
1000.0,679009.9,-37.609,68.0165
2154.4,463876.0,-58.50591,68.0279
4641.6,249743.6,-72.56968,68.0216
10000.0,123062.1,-88.74617,68.0179
