Frequency,Impedance,Phase Angle,Temperature (Dry Bath)
10.0,3952508.0,8.13848,70.8847
21.544346900318832,4332625.0,-11.12512,70.8983
46.41588833612777,4201431.0,-36.16267,70.8837
100.0,1464145.0,82.29192,70.8836
215.44346900318823,1254993.0,95.85055,70.8837
464.15888336127773,319948.9,-171.566,70.9042
1000.0,728124.7,-74.20711,70.8758
2154.4346900318824,223335.4,-83.76098,70.8818
4641.588833612777,128018.3,-73.7242,70.8776
10000.0,54198.65,-83.72262,70.8893
