Frequency,Impedance,Phase Angle,Temperature (Dry Bath)
10.0,3910654.0,5.595645,71.6248
21.544346900318832,5963552.0,-33.10381,71.6138
46.41588833612777,5115220.0,-5.612301,71.6111
100.0,490535.6,-25.99059,71.616
215.44346900318823,458187.8,-129.4727,71.6092
464.15888336127773,1179406.0,-149.5121,71.6284
1000.0,850276.9,-0.1105953,71.6157
2154.4346900318824,256191.9,-89.74226,71.6407
4641.588833612777,521822.4,-119.2763,71.6301
10000.0,397069.1,-79.886,71.626
