Frequency,Impedance,Phase Angle,Temperature (Dry Bath)
10.0,27554940.0,-15.25605,67.1142
21.5,23950300.0,-35.50959,67.1017
46.4,12755960.0,-62.46096,67.1128
100.0,7867611.0,-80.64708,67.1143
215.4,3230030.0,-67.56948,67.1022
464.2,2190218.0,-85.40184,67.1277
1000.0,777796.5,-79.87235,67.0821
2154.4,405107.2,-82.87212,67.1138
4641.6,202687.5,-82.67625,67.1275
10000.0,100918.2,-80.50957,67.1087
