Frequency,Impedance,Phase Angle,Temperature (Dry Bath)
10.0,34727000.0,-21.6959,68.1938
21.5,17111080.0,-25.22345,68.1827
46.4,21851470.0,-46.4536,68.1859
100.0,7155311.0,-12.65435,68.1976
215.4,4115279.0,-79.36975,68.1946
464.2,3686685.0,-94.42783,68.1868
1000.0,1299751.0,-81.30769,68.1916
2154.4,704408.1,-89.12793,68.1987
4641.6,315479.4,-93.72218,68.1901
10000.0,147597.6,-98.92623,68.1908
