Frequency,Impedance,Phase Angle,Temperature (Dry Bath)
10.0,51274.03,-34.50894,67.3616
21.5,39157.39,-30.45949,67.3693
46.4,31487.88,-26.52358,67.3587
100.0,26395.52,-22.24884,67.3626
215.4,22717.59,-19.22485,67.3691
464.2,20204.04,-16.0905,67.3533
1000.0,18184.66,-13.86794,67.3621
2154.4,16627.74,-12.47254,67.3645
4641.6,15292.75,-12.16439,67.3573
10000.0,14221.22,-14.01784,67.3488
