Frequency,Impedance,Phase Angle,Temperature (Dry Bath)
10.0,1393135.0,-15.92562,67.9
21.5,1236625.0,-15.23846,67.9123
46.4,1121435.0,-12.65864,67.8908
100.0,1030051.0,-18.02066,67.9161
215.4,901298.2,-13.46236,67.9122
464.2,978898.1,-24.50324,67.9263
1000.0,724142.3,-40.69523,67.9326
2154.4,472187.5,-58.00944,67.9177
4641.6,262245.8,-74.84849,67.9172
10000.0,128805.2,-86.18432,67.9226
