Frequency,Impedance,Phase Angle,Temperature (Dry Bath)
10.0,157072.1,-20.99677,67.6931
21.5,135300.1,-17.82474,67.6962
46.4,119910.8,-15.366,67.6872
100.0,106928.4,-13.38354,67.6983
215.4,98493.17,-12.57402,67.6997
464.2,89160.32,-12.31817,67.6949
1000.0,83777.13,-13.58606,67.6812
2154.4,76730.82,-17.54045,67.7039
4641.6,67100.42,-25.04765,67.7176
10000.0,56944.97,-37.94638,67.6929
