Frequency,Impedance,Phase Angle,Temperature (Dry Bath)
10.0,107511.5,-4.320649,67.0697
21.5,105078.7,-3.809162,67.0544
46.4,102523.4,-3.208117,67.0649
100.0,102434.6,-4.525002,67.0825
215.4,100316.1,-2.742457,67.0602
464.2,96694.25,-5.490498,67.0704
1000.0,93737.25,-8.359144,67.0528
2154.4,89000.42,-13.20425,67.086
4641.6,82247.73,-22.8376,67.0803
10000.0,66003.46,-38.50751,67.0695
