Frequency,Impedance,Phase Angle,Temperature (Dry Bath)
10.0,1454974.0,-14.89504,68.0004
21.5,1258459.0,-14.97807,67.9855
46.4,1120655.0,-14.22309,67.9942
100.0,1137489.0,-24.6052,67.9851
215.4,915190.5,-21.1861,67.9969
464.2,924567.5,-18.73319,67.9926
1000.0,680619.6,-37.70039,67.9854
2154.4,466246.6,-57.70004,67.9772
4641.6,255117.7,-73.7976,67.987
10000.0,127457.9,-88.90253,67.9758
