Frequency,Impedance,Phase Angle,Temperature (Dry Bath)
10.0,2145115.0,-18.74405,66.217
21.544346900318832,2179116.0,-11.66893,66.2525
46.41588833612777,2084755.0,-25.17222,66.2326
100.0,471554.1,5.016771,66.2152
215.44346900318823,436002.9,-3.583779,66.2352
464.15888336127773,544207.2,-34.96622,66.2371
1000.0,356313.8,-68.41697,66.2315
2154.4346900318824,213493.2,-74.71949,66.2239
4641.588833612777,148966.3,-84.97201,66.2111
10000.0,70342.25,-81.01119,66.22
