Frequency,Impedance,Phase Angle,Temperature (Dry Bath)
10.0,16438030.0,-25.8681,68.2142
21.5,21652260.0,-29.65692,68.2246
46.4,20066020.0,-50.12689,68.2233
100.0,6180640.0,-51.1021,68.2221
215.4,4431579.0,-78.55079,68.2154
464.2,2097120.0,-81.7941,68.2254
1000.0,1202288.0,-77.71369,68.2143
2154.4,589154.9,-84.00652,68.2176
4641.6,280328.5,-86.74267,68.2217
10000.0,128233.2,-95.8002,68.2314
