Frequency,Impedance,Phase Angle,Temperature (Dry Bath)
10.0,3410980.0,-20.81328,71.3193
21.544346900318832,3875165.0,-12.80222,71.318
46.41588833612777,2438685.0,-26.40968,71.3184
100.0,359639.7,-76.20532,71.3334
215.44346900318823,9347178.0,-68.19187,71.3193
464.15888336127773,1084898.0,-62.99619,71.3149
1000.0,549653.0,-64.00402,71.3168
2154.4346900318824,352683.9,-96.31258,71.3102
4641.588833612777,151839.0,-87.81099,71.3174
10000.0,63465.18,-83.58358,71.3131
