Frequency,Impedance,Phase Angle,Temperature (Dry Bath)
10.0,1452179.0,-9.90088,67.9653
21.5,1323804.0,-9.548194,67.962
46.4,1186852.0,-10.92246,67.9538
100.0,951647.3,-11.42842,67.9471
215.4,1080804.0,-16.0185,67.9647
464.2,860988.0,-30.27211,67.9612
1000.0,673389.9,-40.66199,67.9739
2154.4,471243.9,-56.83814,67.9731
4641.6,265793.2,-73.83749,67.9686
10000.0,136337.1,-84.41581,67.9738
