Frequency,Impedance,Phase Angle,Temperature (Dry Bath)
10.0,27526020.0,-18.10596,68.1986
21.5,33638330.0,-32.9331,68.2042
46.4,31576920.0,-42.3204,68.2103
100.0,4831798.0,-52.28439,68.2107
215.4,6790395.0,-101.5897,68.1902
464.2,2822565.0,-81.86123,68.2127
1000.0,1456083.0,-87.16594,68.217
2154.4,730873.8,-88.483,68.2172
4641.6,304823.4,-92.00093,68.2166
10000.0,143334.5,-98.57118,68.2339
