Frequency,Impedance,Phase Angle,Temperature (Dry Bath)
10.0,35614490.0,-9.484626,67.2859
21.5,27741000.0,-34.50703,67.2875
46.4,17857220.0,-53.78184,67.2746
100.0,29041540.0,179.0964,67.2637
215.4,6222728.0,-120.1594,67.2668
464.2,2273995.0,-77.23178,67.2797
1000.0,1219515.0,-85.348,67.2787
2154.4,559829.9,-89.62721,67.2696
4641.6,258576.4,-85.67142,67.2802
10000.0,127457.6,-86.23306,67.2873
