Frequency,Impedance,Phase Angle,Temperature (Dry Bath)
10.0,40943570.0,-25.45289,67.4238
21.5,27998730.0,-36.38059,67.4192
46.4,11896030.0,-73.05196,67.4178
100.0,7647504.0,-65.80839,67.4071
215.4,2936388.0,62.10504,67.42
464.2,2295187.0,-64.43134,67.4029
1000.0,1034611.0,-86.57269,67.417
2154.4,562659.7,-89.3815,67.4091
4641.6,265487.5,-87.56668,67.415
10000.0,122986.2,-88.12066,67.4124
