Frequency,Impedance,Phase Angle,Temperature (Dry Bath)
10.0,19891710.0,-12.10581,68.1021
21.5,19148580.0,-32.73617,68.112
46.4,22113780.0,-41.87694,68.101
100.0,7531011.0,-57.16997,68.1045
215.4,6641749.0,-85.30939,68.1005
464.2,2532528.0,-79.95293,68.0942
1000.0,1356324.0,-79.52793,68.1059
2154.4,600792.3,-87.64984,68.1035
4641.6,309376.8,-88.54236,68.0947
10000.0,145552.3,-96.4,68.1033
