Frequency,Impedance,Phase Angle,Temperature (Dry Bath)
10.0,17574350.0,-6.653548,68.1182
21.5,32676420.0,-40.39953,68.1103
46.4,30868690.0,-42.83785,68.1135
100.0,6666782.0,-25.39403,68.0836
215.4,3238075.0,-75.05973,68.0863
464.2,3062382.0,-79.44479,68.0929
1000.0,1591100.0,-90.82345,68.0904
2154.4,726418.9,-88.51215,68.0927
4641.6,343870.8,-95.57209,68.1222
10000.0,158446.5,-95.60848,68.1085
