Frequency,Impedance,Phase Angle,Temperature (Dry Bath)
10.0,21751170.0,-5.800617,68.0068
21.5,24260510.0,-36.82078,68.0017
46.4,30144660.0,-40.81712,68.0047
100.0,6410170.0,-44.36569,67.9953
215.4,6267079.0,-77.00043,67.9993
464.2,2766539.0,-55.84131,68.0159
1000.0,1408722.0,-84.49243,67.9807
2154.4,657010.5,-90.17823,67.9914
4641.6,319205.4,-90.87648,67.9953
10000.0,163941.1,-95.18046,68.0006
