Frequency,Impedance,Phase Angle,Temperature (Dry Bath)
10.0,20017660.0,-13.30508,67.789
21.5,27953300.0,-27.858,67.7883
46.4,24103730.0,-47.94693,67.7785
100.0,5743439.0,-46.50027,67.7853
215.4,10655470.0,-100.1527,67.7873
464.2,2705600.0,-83.74641,67.7878
1000.0,1388431.0,-95.08548,67.7787
2154.4,640646.8,-78.28877,67.7721
4641.6,283914.5,-87.36488,67.8042
10000.0,155231.3,-97.44648,67.7733
