Frequency,Impedance,Phase Angle,Temperature (Dry Bath)
10.0,1424491.0,-14.60941,67.3092
21.5,1286676.0,-12.84532,67.3034
46.4,1216016.0,-12.88207,67.3103
100.0,760080.0,-16.94781,67.3017
215.4,925052.5,-1.936926,67.296
464.2,892630.1,-25.66156,67.3164
1000.0,678687.9,-36.58265,67.303
2154.4,459949.2,-56.46874,67.2954
4641.6,250153.5,-69.81443,67.3056
10000.0,126129.5,-75.81234,67.2887
