Frequency,Impedance,Phase Angle,Temperature (Dry Bath)
10.0,22875680.0,-31.96435,68.2151
21.5,20918590.0,-32.57951,68.2136
46.4,17043690.0,-48.94337,68.2162
100.0,5218340.0,-78.81084,68.229
215.4,4368532.0,-72.67856,68.2306
464.2,3427534.0,-87.5738,68.2176
1000.0,1399016.0,-89.37235,68.217
2154.4,677365.3,-86.55202,68.206
4641.6,292243.8,-88.32666,68.2217
10000.0,135806.2,-93.92857,68.2106
