Frequency,Impedance,Phase Angle,Temperature (Dry Bath)
10.0,50245.34,-34.25491,67.0911
21.5,38595.29,-30.48517,67.1069
46.4,30954.2,-26.65081,67.0991
100.0,25894.49,-22.31172,67.0892
215.4,20704.96,-19.85076,67.1062
464.2,19882.95,-16.06585,67.0975
1000.0,17843.45,-13.90633,67.1004
2154.4,16307.7,-12.53883,67.1067
4641.6,15004.71,-12.2567,67.12
10000.0,13855.16,-14.08985,67.1161
