Frequency,Impedance,Phase Angle,Temperature (Dry Bath)
10.0,17127940.0,-6.302684,68.0047
21.5,19652280.0,-26.05378,68.0062
46.4,19264690.0,-56.4958,68.0026
100.0,6773627.0,-41.11575,67.9926
215.4,5621572.0,-69.21851,67.9958
464.2,2500678.0,-76.47493,68.0039
1000.0,1094156.0,-77.63119,68.0039
2154.4,621335.4,-88.26282,67.9973
4641.6,293989.5,-90.84847,68.0113
10000.0,138438.4,-88.64136,67.9977
