Frequency,Impedance,Phase Angle,Temperature (Dry Bath)
10.0,9716553.0,-1.08507,70.8078
21.544346900318832,8733132.0,-45.27181,70.8184
46.41588833612777,4763440.0,-10.38142,70.8116
100.0,934836.2,-50.35278,70.8261
215.44346900318823,790250.1,-26.21555,70.8188
464.15888336127773,508031.5,-56.35537,70.8152
1000.0,1118481.0,-55.43077,70.844
2154.4346900318824,470403.2,-66.23095,70.824
4641.588833612777,130648.7,-79.11149,70.8384
10000.0,72188.16,-87.11198,70.8454
