Frequency,Impedance,Phase Angle,Temperature (Dry Bath)
10.0,21755690.0,-19.40701,68.082
21.5,40546520.0,-35.75286,68.085
46.4,28866240.0,-47.04306,68.0662
100.0,3272191.0,-58.69086,68.0831
215.4,7050368.0,-32.48141,68.0684
464.2,2463474.0,-64.93838,68.1024
1000.0,1438097.0,-90.52972,68.0884
2154.4,598325.8,-93.40676,68.0818
4641.6,316846.0,-87.12078,68.0881
10000.0,151228.4,-99.56835,68.0956
