Frequency,Impedance,Phase Angle,Temperature (Dry Bath)
10.0,3092887.0,14.10779,67.9519
21.5,5002726.0,12.44899,67.9519
46.4,29144500.0,-31.54725,67.9519
100.0,5886571.0,-20.64041,67.9519
215.4,5420249.0,-85.44455,67.9519
464.2,2452490.0,-79.84283,67.9519
1000.0,1385078.0,-90.86777,67.9519
2154.4,616073.8,-91.13925,67.9519
4641.6,328241.9,-90.93503,67.9519
10000.0,151000.9,-96.33484,67.9519
