Frequency,Impedance,Phase Angle,Temperature (Dry Bath)
10.0,28864890.0,-8.894096,67.265
21.5,28302270.0,-43.42482,67.2823
46.4,15912230.0,-52.53459,67.2688
100.0,2482843.0,-76.41411,67.2712
215.4,11455370.0,29.16055,67.2742
464.2,2986178.0,-79.67738,67.2833
1000.0,936316.0,-84.37134,67.2758
2154.4,606966.7,-87.16164,67.2723
4641.6,255239.9,-87.12706,67.2694
10000.0,123568.5,-85.84446,67.2643
