Frequency,Impedance,Phase Angle,Temperature (Dry Bath)
10.0,51889.28,-20.31963,71.3392
21.544346900318832,44129.12,-19.81493,71.3428
46.41588833612777,37580.97,-19.82718,71.3369
100.0,32581.7,-19.69755,71.3548
215.44346900318823,26989.37,-18.07709,71.3455
464.15888336127773,23394.64,-17.80408,71.3475
1000.0,19770.55,-16.46934,71.345
2154.4346900318824,17900.02,-15.11599,71.351
4641.588833612777,16418.57,-14.02014,71.3387
10000.0,14836.7,-15.48022,71.3404
