Frequency,Impedance,Phase Angle,Temperature (Dry Bath)
10.0,99662.35,-13.7266,71.4557
21.544346900318832,89350.77,-12.40713,71.4427
46.41588833612777,82286.22,-11.90211,71.4541
100.0,71864.32,-28.57283,71.456
215.44346900318823,59784.02,-14.28325,71.4584
464.15888336127773,63040.61,-7.652223,71.4364
1000.0,54003.39,-4.647005,71.4392
2154.4346900318824,51167.3,-15.69032,71.4426
4641.588833612777,42804.34,-27.94156,71.4626
10000.0,31803.23,-41.60021,71.451
