Frequency,Impedance,Phase Angle,Temperature (Dry Bath)
10.0,1558957.0,-13.12229,68.1421
21.5,1504740.0,-14.10771,68.1421
46.4,1329703.0,-13.24022,68.1421
100.0,1125988.0,-16.10482,68.1421
215.4,1183207.0,-18.96578,68.1421
464.2,1073388.0,-28.59316,68.1421
1000.0,749919.6,-42.46121,68.1421
2154.4,507004.8,-59.97922,68.1421
4641.6,280258.5,-75.52825,68.1421
10000.0,142165.0,-84.1534,68.1421
