Frequency,Impedance,Phase Angle,Temperature (Dry Bath)
10.0,128309.7,-3.769556,67.3309
21.5,125524.9,-3.520468,67.3313
46.4,122342.1,-3.248579,67.3208
100.0,121807.2,-4.998991,67.3183
215.4,117685.4,-2.951621,67.3142
464.2,114616.9,-5.670105,67.3076
1000.0,108015.9,-9.663493,67.31
2154.4,102927.0,-15.5948,67.3157
4641.6,91304.59,-26.26964,67.3222
10000.0,69918.25,-41.98467,67.3016
