Frequency,Impedance,Phase Angle,Temperature (Dry Bath)
10.0,4687232.0,-14.29514,65.7719
21.544346900318832,9106194.0,-20.98848,65.7617
46.41588833612777,4630040.0,-27.43491,65.7622
100.0,656154.2,-76.08954,65.7585
215.44346900318823,17411.36,156.7369,65.7321
464.15888336127773,969077.5,-101.9077,65.7458
1000.0,459692.1,-127.2167,65.7415
2154.4346900318824,250467.7,-86.66395,65.7247
4641.588833612777,170247.2,-83.57228,65.7406
10000.0,71513.54,-85.48815,65.7446
