Frequency,Impedance,Phase Angle,Temperature (Dry Bath)
10.0,1499314.0,-17.49487,67.7779
21.5,1363567.0,-16.12391,67.7892
46.4,1281802.0,-14.16439,67.7936
100.0,1028660.0,-17.31006,67.7864
215.4,981678.5,-21.72808,67.7913
464.2,878883.5,-26.62716,67.7915
1000.0,711583.5,-42.57238,67.7831
2154.4,485129.9,-56.63082,67.7856
4641.6,241407.2,-73.84579,67.7908
10000.0,131126.2,-82.50225,67.7976
