Frequency,Impedance,Phase Angle,Temperature (Dry Bath)
10.0,4453951.0,2.003389,71.1981
21.544346900318832,4490738.0,-29.09728,71.204
46.41588833612777,4735097.0,-40.68343,71.1909
100.0,550843.5,-98.09513,71.1911
215.44346900318823,897100.0,178.24,71.1854
464.15888336127773,953981.4,-45.01144,71.1819
1000.0,402760.3,-94.21811,71.1834
2154.4346900318824,294729.9,-66.61856,71.1876
4641.588833612777,139700.1,-83.5822,71.1905
10000.0,61457.8,-84.93764,71.2086
