Frequency,Impedance,Phase Angle,Temperature (Dry Bath)
10.0,68751.12,-13.97399,72.1197
21.544346900318832,61579.97,-12.81771,72.1236
46.41588833612777,56292.16,-11.56472,72.1201
100.0,49089.19,-9.951877,72.1244
215.44346900318823,45908.85,-11.82579,72.1151
464.15888336127773,44939.17,-10.35747,72.1156
1000.0,44748.69,-7.502343,72.1169
2154.4346900318824,38985.59,-9.682296,72.1236
4641.588833612777,41212.03,-9.606635,72.1408
10000.0,36490.9,-11.03439,72.1267
