Frequency,Impedance,Phase Angle,Temperature (Dry Bath)
10.0,18819680.0,-15.01805,68.0525
21.5,18806450.0,-30.09565,68.0531
46.4,21183410.0,-52.14749,68.0461
100.0,4189114.0,-39.65149,68.0508
215.4,7038851.0,5.028336,68.0625
464.2,2417243.0,-82.59033,68.0588
1000.0,1403295.0,-82.93201,68.0391
2154.4,719845.9,-88.6565,68.0608
4641.6,335144.5,-95.26838,68.0552
10000.0,165610.0,-94.57838,68.0548
