Frequency,Impedance,Phase Angle,Temperature (Dry Bath)
10.0,179452.2,-22.37076,67.9771
21.5,152648.2,-19.29242,67.9778
46.4,132918.3,-16.911,67.9791
100.0,116574.5,-15.65223,67.9682
215.4,105652.0,-14.24443,67.978
464.2,97838.14,-13.25432,67.9606
1000.0,91045.56,-14.34831,67.9759
2154.4,82635.72,-17.65609,67.9571
4641.6,72156.77,-26.33957,67.9719
10000.0,60936.77,-38.92849,67.9599
