Frequency,Impedance,Phase Angle,Temperature (Dry Bath)
10.0,23180030.0,-24.1587,68.0502
21.5,23134760.0,-29.8198,68.0502
46.4,23078230.0,-48.36561,68.0548
100.0,3563053.0,-28.51178,68.05
215.4,4805386.0,-64.85606,68.0513
464.2,2404573.0,-76.47409,68.0516
1000.0,1244729.0,-88.4865,68.0506
2154.4,608667.9,-83.15373,68.0577
4641.6,304280.2,-87.53515,68.0532
10000.0,145242.6,-95.38226,68.0462
