Frequency,Impedance,Phase Angle,Temperature (Dry Bath)
10.0,20830150.0,-17.67302,67.939
21.5,28573010.0,-22.26134,67.9327
46.4,31453230.0,-53.3456,67.9527
100.0,5126972.0,-46.20392,67.9332
215.4,5226032.0,-83.06963,67.9362
464.2,3970727.0,-95.12726,67.9396
1000.0,1137785.0,-80.85054,67.9425
2154.4,545406.8,-90.02624,67.9272
4641.6,284704.3,-88.3931,67.9256
10000.0,124185.8,-94.22839,67.9364
