Frequency,Impedance,Phase Angle,Temperature (Dry Bath)
10.0,110174.6,-3.135967,67.4987
21.5,107955.0,-2.59523,67.4781
46.4,106119.1,-2.406916,67.4746
100.0,107363.9,-3.442281,67.4959
215.4,121052.4,-0.9271854,67.4847
464.2,102123.5,-4.978997,67.4856
1000.0,97594.25,-7.932596,67.4871
2154.4,94071.7,-14.07732,67.4797
4641.6,85044.22,-23.19266,67.4729
10000.0,68088.23,-39.00797,67.4857
