Frequency,Impedance,Phase Angle,Temperature (Dry Bath)
10.0,1569206.0,-18.29112,67.0059
21.5,1394925.0,-16.15228,67.004
46.4,1257271.0,-15.633,67.0173
100.0,1082042.0,-20.19684,67.0268
215.4,823999.2,-31.36991,67.01
464.2,837763.6,-31.42786,67.0188
1000.0,673348.5,-41.79148,67.0303
2154.4,424935.8,-58.33499,67.0326
4641.6,227829.8,-73.40401,67.02
10000.0,112558.5,-80.16493,67.0239
