Frequency,Impedance,Phase Angle,Temperature (Dry Bath)
10.0,117041.3,-3.10653,67.1816
21.5,114679.5,-2.696029,67.1781
46.4,112737.7,-2.470833,67.1829
100.0,111254.9,-2.38722,67.1814
215.4,78669.48,10.48398,67.1749
464.2,108250.1,-5.109846,67.1676
1000.0,104578.0,-8.472102,67.15
2154.4,99948.07,-14.16825,67.156
4641.6,88879.43,-25.22836,67.1731
10000.0,69794.48,-42.25016,67.1561
