Frequency,Impedance,Phase Angle,Temperature (Dry Bath)
10.0,1524778.0,-17.83968,67.1702
21.5,1382548.0,-16.36457,67.1592
46.4,1190651.0,-13.68268,67.1419
100.0,1016894.0,-20.10825,67.1452
215.4,192960.9,-104.8275,67.1427
464.2,953119.4,-29.95253,67.1352
1000.0,654381.2,-46.40227,67.1299
2154.4,429031.9,-60.44933,67.1362
4641.6,229091.8,-73.22688,67.1486
10000.0,109342.3,-79.46661,67.1262
