Frequency,Impedance,Phase Angle,Temperature (Dry Bath)
10.0,193241.8,-15.4491,72.1608
21.544346900318832,171231.7,-15.2651,72.1642
46.41588833612777,154312.4,-14.94345,72.1852
100.0,125776.9,-25.00093,72.162
215.44346900318823,141015.3,-16.96609,72.1831
464.15888336127773,95567.53,-8.14794,72.1755
1000.0,117120.6,-6.69395,72.1853
2154.4346900318824,69322.1,-18.34761,72.1921
4641.588833612777,87993.54,-25.78994,72.1807
10000.0,56481.25,-33.94653,72.2056
