Frequency,Impedance,Phase Angle,Temperature (Dry Bath)
10.0,201015.1,-12.49746,70.4
21.544346900318832,206370.1,-14.29671,70.4
46.41588833612777,188381.5,-15.49445,70.4
100.0,170307.6,-15.03024,70.4
215.44346900318823,150762.1,-15.23071,70.4
464.15888336127773,125144.4,-14.8823,70.4
1000.0,117447.7,-20.2608,70.4
2154.4346900318824,106407.6,-13.77653,70.4
4641.588833612777,98190.4,-13.17822,70.4
10000.0,84336.92,-14.34551,70.4
