Frequency,Impedance,Phase Angle,Temperature (Dry Bath)
10.0,6704155.0,1.203157,71.3141
21.544346900318832,4633607.0,0.4289965,71.3136
46.41588833612777,5257010.0,-29.36286,71.3163
100.0,564959.4,-50.08267,71.3231
215.44346900318823,406465.4,43.02635,71.3104
464.15888336127773,696509.7,-103.727,71.3159
1000.0,658143.3,-39.45162,71.3201
2154.4346900318824,252151.0,-97.68323,71.3206
4641.588833612777,134252.5,-87.91561,71.3224
10000.0,69060.36,-85.34105,71.3285
