Frequency,Impedance,Phase Angle,Temperature (Dry Bath)
10.0,4281140.0,-9.701042,65.7623
21.544346900318832,4067081.0,-13.10136,65.7752
46.41588833612777,4153760.0,-12.84811,65.7934
100.0,809479.8,2.972611,65.7828
215.44346900318823,309139.3,-90.48855,65.7554
464.15888336127773,928066.1,-139.3616,65.7777
1000.0,416175.3,-52.91042,65.7886
2154.4346900318824,256064.9,-84.68221,65.7861
4641.588833612777,134890.2,-89.21263,65.7643
10000.0,67824.05,-87.56933,65.7819
