Frequency,Impedance,Phase Angle,Temperature (Dry Bath)
10.0,34356150.0,-10.04562,68.0338
21.5,55322160.0,-30.01632,68.0291
46.4,24078250.0,-48.18667,68.04
100.0,7108953.0,-9.321994,68.04
215.4,5229628.0,-69.50813,68.0257
464.2,2863706.0,-90.04823,68.0406
1000.0,1204747.0,-81.5713,68.0269
2154.4,662400.7,-85.77641,68.0145
4641.6,304460.3,-87.11855,68.0285
10000.0,141038.0,-99.051,68.0141
