Frequency,Impedance,Phase Angle,Temperature (Dry Bath)
10.0,4186185.0,-6.600172,71.4517
21.544346900318832,5324217.0,-3.741778,71.4379
46.41588833612777,7499966.0,-7.713606,71.4523
100.0,1456400.0,13.15114,71.4595
215.44346900318823,1561323.0,97.42719,71.4589
464.15888336127773,7787288.0,-123.2569,71.4539
1000.0,1065361.0,-65.89463,71.4695
2154.4346900318824,364468.5,-29.65688,71.4647
4641.588833612777,299139.7,-90.88683,71.4681
10000.0,150357.6,-88.34075,71.4602
