Frequency,Impedance,Phase Angle,Temperature (Dry Bath)
10.0,175826.9,-22.34738,68.1669
21.5,149120.6,-19.38263,68.1523
46.4,130842.3,-16.78855,68.1463
100.0,113569.7,-15.41174,68.1552
215.4,103816.1,-13.47134,68.1649
464.2,95592.41,-13.71588,68.1448
1000.0,88213.38,-14.37051,68.1564
2154.4,80846.68,-19.57964,68.1736
4641.6,71926.78,-25.30964,68.1589
10000.0,57444.61,-38.97817,68.1687
