Frequency,Impedance,Phase Angle,Temperature (Dry Bath)
10.0,248039.0,-22.99745,67.3134
21.5,207826.8,-20.94133,67.2932
46.4,178582.1,-18.52322,67.2992
100.0,159433.4,-15.37258,67.296
215.4,141380.4,-14.14515,67.2802
464.2,127151.8,-14.28787,67.2936
1000.0,114671.0,-17.87965,67.2826
2154.4,101683.8,-22.79419,67.2966
4641.6,81810.19,-30.54513,67.3106
10000.0,62351.62,-41.81553,67.2962
