Frequency,Impedance,Phase Angle,Temperature (Dry Bath)
10.0,27998190.0,-10.02633,67.1004
21.5,26552010.0,-26.9053,67.0977
46.4,18908080.0,-52.04895,67.1028
100.0,9487570.0,-8.528786,67.1209
215.4,2830452.0,-69.44959,67.0974
464.2,2899966.0,-99.70016,67.1033
1000.0,1219554.0,-85.3371,67.0977
2154.4,552479.6,-82.56619,67.0871
4641.6,260044.2,-87.91757,67.1029
10000.0,122008.0,-87.30335,67.1122
