Frequency,Impedance,Phase Angle,Temperature (Dry Bath)
10.0,21601780.0,-16.93379,67.477
21.5,17796600.0,-39.58787,67.4386
46.4,13770520.0,-57.31383,67.4703
100.0,4706747.0,10.67326,67.4654
215.4,225849.2,44.55478,67.4714
464.2,1304368.0,-77.61399,67.4793
1000.0,707547.8,-75.9571,67.481
2154.4,402774.9,-85.36846,67.4681
4641.6,196450.7,-84.32116,67.4499
10000.0,101512.1,-80.44568,67.4649
