Frequency,Impedance,Phase Angle,Temperature (Dry Bath)
10.0,3747085.0,-6.566763,71.5603
21.544346900318832,6112645.0,-21.20789,71.5358
46.41588833612777,6182566.0,-9.416456,71.5399
100.0,292544.2,-11.22151,71.5267
215.44346900318823,551902.0,-76.29543,71.5452
464.15888336127773,893210.1,-158.9379,71.5628
1000.0,1431657.0,9.061398,71.5515
2154.4346900318824,317880.8,-84.17574,71.5533
4641.588833612777,284472.3,-105.0191,71.5419
10000.0,163952.8,-89.70586,71.5328
