Frequency,Impedance,Phase Angle,Temperature (Dry Bath)
10.0,27090330.0,-17.42968,67.9196
21.5,30388250.0,-26.51154,67.9276
46.4,30677870.0,-31.54529,67.9396
100.0,7245031.0,-61.48274,67.9364
215.4,7867728.0,-80.61111,67.9234
464.2,2709791.0,-92.3393,67.925
1000.0,1329552.0,-87.42164,67.9302
2154.4,648127.0,-90.35838,67.9334
4641.6,292684.3,-93.63642,67.9328
10000.0,141116.3,-93.26025,67.9249
