Frequency,Impedance,Phase Angle,Temperature (Dry Bath)
10.0,82218.44,-36.38433,66.3759
21.544346900318832,61723.48,-32.28375,66.3807
46.41588833612777,47375.0,-28.53072,66.3639
100.0,36482.35,-22.55937,66.374
215.44346900318823,31446.65,-18.96631,66.3781
464.15888336127773,26565.33,-19.5687,66.3766
1000.0,24541.25,-16.03537,66.38
2154.4346900318824,21293.32,-15.97439,66.3722
4641.588833612777,19961.49,-16.83923,66.3842
10000.0,17108.7,-23.10113,66.3714
