Frequency,Impedance,Phase Angle,Temperature (Dry Bath)
10.0,14271.96,-17.1305,71.3889
21.544346900318832,12574.74,-15.63863,71.4108
46.41588833612777,11179.5,-15.1699,71.4149
100.0,9949.29,-16.00518,71.4089
215.44346900318823,8904.736,-13.47525,71.4101
464.15888336127773,7932.703,-13.37395,71.4111
1000.0,7207.02,-11.54219,71.3974
2154.4346900318824,6548.918,-10.75202,71.4026
4641.588833612777,5986.246,-10.25425,71.4029
10000.0,5693.044,-9.346892,71.4088
