Frequency,Impedance,Phase Angle,Temperature (Dry Bath)
10.0,2234125.0,-11.52437,66.3981
21.544346900318832,1722712.0,-20.26965,66.3895
46.41588833612777,2110113.0,-23.37547,66.4013
100.0,799235.8,-4.514089,66.4036
215.44346900318823,335200.5,-87.56053,66.3997
464.15888336127773,382472.5,-61.80978,66.3996
1000.0,1008328.0,128.1963,66.4082
2154.4346900318824,294152.8,-70.90484,66.4071
4641.588833612777,126543.2,-76.62069,66.4142
10000.0,67302.05,-85.06344,66.4088
