Frequency,Impedance,Phase Angle,Temperature (Dry Bath)
10.0,148921.5,-4.937176,67.8935
21.5,144095.0,-4.11194,67.9101
46.4,140245.7,-3.727696,67.9141
100.0,135282.5,-4.082365,67.9082
215.4,135691.9,-6.597864,67.9105
464.2,132525.3,-7.1245,67.896
1000.0,123301.3,-9.907072,67.9114
2154.4,119724.4,-16.13707,67.9329
4641.6,110196.5,-31.38453,67.9095
10000.0,92690.12,-50.06404,67.9024
