Frequency,Impedance,Phase Angle,Temperature (Dry Bath)
10.0,34096880.0,-13.97306,67.0907
21.5,28473140.0,-40.75305,67.0911
46.4,17155050.0,-52.60076,67.0562
100.0,4439974.0,-9.596983,67.0839
215.4,2926297.0,-101.9889,67.0922
464.2,2814594.0,-74.21269,67.1039
1000.0,1081228.0,-62.09107,67.0813
2154.4,562946.6,-88.92977,67.0922
4641.6,277990.3,-84.14309,67.0779
10000.0,124224.0,-84.03947,67.0884
