Frequency,Impedance,Phase Angle,Temperature (Dry Bath)
10.0,29807150.0,-29.0616,67.3243
21.5,20552670.0,-50.81711,67.3163
46.4,13970130.0,-62.12789,67.3152
100.0,3546501.0,-64.80196,67.3282
215.4,4369143.0,-55.84709,67.3005
464.2,1444641.0,-79.3918,67.3018
1000.0,870112.3,-93.21513,67.3061
2154.4,418741.8,-88.20721,67.3035
4641.6,206525.7,-81.37063,67.2869
10000.0,99180.69,-80.83989,67.2954
