Frequency,Impedance,Phase Angle,Temperature (Dry Bath)
10.0,3179161.0,-1.216485,67.1038
21.5,3045665.0,-2.629698,67.1061
46.4,2951653.0,-8.11934,67.0988
100.0,2384114.0,-6.138922,67.1093
215.4,1820126.0,-19.05648,67.1108
464.2,1630993.0,-50.89127,67.0974
1000.0,913916.2,-58.12838,67.1043
2154.4,509124.1,-79.84494,67.1028
4641.6,280399.7,-82.92545,67.096
10000.0,125885.2,-82.95056,67.1072
