Frequency,Impedance,Phase Angle,Temperature (Dry Bath)
10.0,230375.4,-22.5753,67.5024
21.5,194272.0,-20.21953,67.5039
46.4,168171.9,-17.7525,67.4959
100.0,144906.3,-15.89422,67.5076
215.4,223441.3,83.82648,67.4948
464.2,122003.6,-13.53042,67.4998
1000.0,110085.8,-17.17899,67.4971
2154.4,98298.6,-20.81625,67.5042
4641.6,80440.63,-30.40053,67.5061
10000.0,63065.77,-40.93548,67.488
