Frequency,Impedance,Phase Angle,Temperature (Dry Bath)
10.0,32556850.0,-22.55412,67.3439
21.5,24891030.0,-33.40175,67.3586
46.4,20638780.0,-49.45138,67.3417
100.0,4128075.0,-68.54044,67.3328
215.4,4401882.0,-101.7216,67.3474
464.2,2701818.0,-55.3643,67.3338
1000.0,1324983.0,-88.26681,67.3341
2154.4,542927.8,-91.35352,67.3301
4641.6,252674.5,-85.60374,67.3455
10000.0,123736.2,-86.39328,67.3336
