Frequency,Impedance,Phase Angle,Temperature (Dry Bath)
10.0,133345.4,-4.022076,67.3389
21.5,130300.6,-3.667445,67.3484
46.4,127999.9,-3.618756,67.3514
100.0,127070.1,-4.175419,67.356
215.4,122172.8,-7.059618,67.3547
464.2,120171.2,-7.066542,67.367
1000.0,114944.6,-9.867998,67.356
2154.4,108565.1,-15.38182,67.3497
4641.6,96740.99,-27.92154,67.347
10000.0,72510.62,-43.12437,67.336
