Frequency,Impedance,Phase Angle,Temperature (Dry Bath)
10.0,2899523.0,-20.80801,66.3333
21.544346900318832,2065131.0,-13.47466,66.3207
46.41588833612777,1795931.0,-24.73305,66.3365
100.0,716583.9,-74.93022,66.3047
215.44346900318823,888063.2,-4.586446,66.3269
464.15888336127773,793551.1,-66.74871,66.3256
1000.0,595204.1,-135.5092,66.3255
2154.4346900318824,223332.6,-73.27612,66.3155
4641.588833612777,152311.9,-80.51023,66.3284
10000.0,63553.69,-76.91041,66.3222
