Frequency,Impedance,Phase Angle,Temperature (Dry Bath)
10.0,230347.7,-22.72843,67.0641
21.5,194962.7,-20.04449,67.0822
46.4,169360.6,-17.5394,67.062
100.0,143925.7,-14.4855,67.0801
215.4,137700.9,-13.83071,67.089
464.2,125366.5,-14.60535,67.0822
1000.0,108581.9,-17.29454,67.0629
2154.4,98235.03,-21.71963,67.0912
4641.6,80532.8,-31.05282,67.072
10000.0,61318.93,-42.23191,67.0672
