Frequency,Impedance,Phase Angle,Temperature (Dry Bath)
10.0,8388875.0,-6.512615,70.8425
21.544346900318832,4351982.0,-13.22517,70.8265
46.41588833612777,4023605.0,-37.69735,70.8492
100.0,364060.5,19.79584,70.8568
215.44346900318823,6475913.0,21.80357,70.8556
464.15888336127773,1427902.0,-95.08282,70.8693
1000.0,462082.4,-102.8982,70.8384
2154.4346900318824,318573.4,-111.9993,70.8467
4641.588833612777,119983.5,-97.54754,70.8482
10000.0,66556.92,-90.68941,70.8498
