Frequency,Impedance,Phase Angle,Temperature (Dry Bath)
10.0,4286865.0,26.21178,71.5622
21.544346900318832,4222809.0,2.694592,71.5739
46.41588833612777,4054976.0,-0.9609078,71.5583
100.0,723442.3,-40.22224,71.5691
215.44346900318823,804012.0,-151.4392,71.5699
464.15888336127773,1439584.0,-80.85652,71.5706
1000.0,1199026.0,-108.7577,71.5657
2154.4346900318824,839936.4,-126.412,71.5708
4641.588833612777,200976.0,-80.53516,71.5738
10000.0,125875.3,-82.08884,71.5717
