Frequency,Impedance,Phase Angle,Temperature (Dry Bath)
10.0,59593.03,-32.83102,67.2787
21.5,46274.75,-28.8861,67.2796
46.4,37909.96,-25.19772,67.2744
100.0,32047.59,-21.40443,67.2709
215.4,27888.54,-18.67198,67.2921
464.2,24784.57,-15.59855,67.2751
1000.0,22288.66,-13.87937,67.2867
2154.4,20422.47,-12.61731,67.284
4641.6,18757.03,-13.30894,67.2766
10000.0,17300.72,-15.8012,67.283
