Frequency,Impedance,Phase Angle,Temperature (Dry Bath)
10.0,209397.2,-23.70282,67.2605
21.5,174943.5,-20.49716,67.2536
46.4,151273.8,-17.35773,67.2607
100.0,131022.8,-14.74121,67.2693
215.4,101641.8,-49.20664,67.2655
464.2,113595.9,-13.49328,67.2605
1000.0,100354.4,-16.57915,67.251
2154.4,92003.93,-19.96312,67.2576
4641.6,77679.69,-28.33578,67.2653
10000.0,59685.56,-39.3381,67.2483
