Frequency,Impedance,Phase Angle,Temperature (Dry Bath)
10.0,33137510.0,-27.45749,67.1494
21.5,27299600.0,-37.72405,67.1763
46.4,16561550.0,-54.61393,67.1565
100.0,11751010.0,21.87007,67.1498
215.4,9487842.0,179.1349,67.1662
464.2,2176442.0,-66.52248,67.1617
1000.0,1157785.0,-86.42281,67.1695
2154.4,477881.3,-87.99554,67.1627
4641.6,253797.7,-88.42317,67.1518
10000.0,122815.6,-86.45471,67.1635
