Frequency,Impedance,Phase Angle,Temperature (Dry Bath)
10.0,16088680.0,-36.63184,68.0857
21.5,20822360.0,-45.57343,68.0821
46.4,19609680.0,-56.31793,68.084
100.0,5903135.0,-55.97851,68.0794
215.4,4097814.0,-64.35655,68.0784
464.2,1696951.0,-71.94791,68.0927
1000.0,919075.6,-82.70012,68.0892
2154.4,481002.6,-76.86993,68.0722
4641.6,265823.3,-80.80949,68.0819
10000.0,126456.8,-85.6587,68.0802
