Frequency,Impedance,Phase Angle,Temperature (Dry Bath)
10.0,1407028.0,-14.46905,68.1778
21.5,1255793.0,-13.96026,68.1811
46.4,1137684.0,-12.88742,68.1648
100.0,941680.9,-13.72084,68.1706
215.4,953918.5,-15.67932,68.1868
464.2,827692.1,-22.20511,68.172
1000.0,645514.6,-38.59806,68.177
2154.4,498719.8,-54.94212,68.1737
4641.6,272245.1,-70.91192,68.1591
10000.0,139945.7,-88.31344,68.1894
