Frequency,Impedance,Phase Angle,Temperature (Dry Bath)
10.0,66494.93,-36.77713,68.1316
21.5,50183.53,-34.10557,68.1287
46.4,38711.78,-30.47393,68.139
100.0,30328.31,-26.9059,68.1376
215.4,24940.26,-21.29917,68.1216
464.2,21614.49,-18.0027,68.1308
1000.0,19060.78,-14.99396,68.123
2154.4,17109.24,-13.85408,68.1544
4641.6,15593.67,-13.78003,68.1387
10000.0,14344.06,-15.91357,68.1393
