Frequency,Impedance,Phase Angle,Temperature (Dry Bath)
10.0,22406440.0,-18.09865,68.1069
21.5,36400140.0,-37.08298,68.1136
46.4,34221970.0,-52.95141,68.0939
100.0,6633785.0,-17.40014,68.1185
215.4,7839979.0,-75.14297,68.102
464.2,4899315.0,-75.9594,68.0943
1000.0,1438920.0,-90.72891,68.0984
2154.4,738374.5,-93.69494,68.0965
4641.6,324345.1,-96.44362,68.0971
10000.0,156235.2,-98.47948,68.1065
