Frequency,Impedance,Phase Angle,Temperature (Dry Bath)
10.0,4630737.0,-8.795394,71.3451
21.544346900318832,6501415.0,2.001535,71.3509
46.41588833612777,4669107.0,-15.31668,71.345
100.0,1551471.0,152.8992,71.3361
215.44346900318823,712766.2,-122.5683,71.34
464.15888336127773,1344309.0,171.8281,71.343
1000.0,393561.2,-45.6776,71.3352
2154.4346900318824,425862.7,-67.36716,71.3372
4641.588833612777,136411.4,-76.87648,71.3345
10000.0,61823.97,-87.9776,71.3352
