Frequency,Impedance,Phase Angle,Temperature (Dry Bath)
10.0,5056238.0,15.48026,71.1413
21.544346900318832,8763462.0,-2.597426,71.1223
46.41588833612777,4206068.0,-22.81,71.1149
100.0,446181.3,-121.8676,71.1298
215.44346900318823,507719.0,-15.53945,71.1235
464.15888336127773,1035524.0,147.756,71.1218
1000.0,362056.2,-66.65404,71.1236
2154.4346900318824,385818.2,-47.41459,71.1323
4641.588833612777,198570.2,-91.63304,71.1164
10000.0,241868.8,-79.92458,71.1318
