Frequency,Impedance,Phase Angle,Temperature (Dry Bath)
10.0,5002729.0,10.7276,66.6
21.544346900318832,3122914.0,9.665705,66.6
46.41588833612777,5380131.0,-7.657019,66.6
100.0,654487.4,-66.52559,66.6
215.44346900318823,698706.1,74.07344,66.6
464.15888336127773,816078.1,51.67107,66.6
1000.0,1077368.0,-86.32239,66.6
2154.4346900318824,535256.0,134.5912,66.6
4641.588833612777,506112.7,37.44212,66.6
10000.0,503885.3,-51.36727,66.6
