Frequency,Impedance,Phase Angle,Temperature (Dry Bath)
10.0,1641702.0,-14.47225,68.2338
21.5,1474001.0,-13.94968,68.2338
46.4,1319283.0,-12.64512,68.2338
100.0,938790.1,-14.0193,68.2338
215.4,1086491.0,-12.1219,68.2338
464.2,981978.7,-28.98442,68.2338
1000.0,775374.6,-32.40195,68.2338
2154.4,520702.0,-57.34055,68.2338
4641.6,284326.2,-72.88514,68.2338
10000.0,146164.8,-86.55641,68.2338
