Frequency,Impedance,Phase Angle,Temperature (Dry Bath)
10.0,4686804.0,-27.07165,70.7254
21.544346900318832,6184579.0,1.192058,70.727
46.41588833612777,4771523.0,-36.64001,70.7209
100.0,390222.7,-123.9188,70.7173
215.44346900318823,638071.5,96.03489,70.7163
464.15888336127773,3010417.0,-157.1235,70.7124
1000.0,368158.3,-42.62008,70.7011
2154.4346900318824,187415.3,-74.78345,70.7122
4641.588833612777,133626.2,-84.13784,70.6999
10000.0,60689.43,-83.27142,70.7167
