Frequency,Impedance,Phase Angle,Temperature (Dry Bath)
10.0,20699300.0,-12.38389,68.0
21.5,28704540.0,-22.87778,68.0039
46.4,32969630.0,-48.9826,67.9978
100.0,21153560.0,26.26261,67.9965
215.4,3997034.0,-68.49023,67.9962
464.2,2293497.0,-80.61631,68.0172
1000.0,1316513.0,-86.56132,67.9952
2154.4,548737.3,-84.07384,67.9921
4641.6,313806.8,-92.42558,67.9941
10000.0,139276.4,-90.91183,68.0174
