Frequency,Impedance,Phase Angle,Temperature (Dry Bath)
10.0,1506884.0,-15.50417,68.0235
21.5,1295449.0,-13.8771,68.0293
46.4,1180406.0,-13.60871,68.0093
100.0,1001205.0,-14.52186,68.0174
215.4,1040286.0,-19.9872,68.0025
464.2,995788.5,-21.03959,68.0229
1000.0,742282.5,-44.45607,68.0142
2154.4,462480.1,-62.94106,67.9887
4641.6,271147.6,-77.99231,68.0002
10000.0,149276.3,-87.50172,67.9931
