Frequency,Impedance,Phase Angle,Temperature (Dry Bath)
10.0,222870.0,-23.0873,67.1379
21.5,188040.2,-20.27814,67.1545
46.4,162716.7,-17.64164,67.1418
100.0,145496.5,-16.77584,67.1435
215.4,132164.7,-13.64497,67.1407
464.2,121766.0,-14.22022,67.1405
1000.0,107658.0,-16.21564,67.145
2154.4,95990.92,-21.43676,67.1533
4641.6,80079.31,-29.47677,67.1447
10000.0,60824.07,-41.65252,67.1493
