Frequency,Impedance,Phase Angle,Temperature (Dry Bath)
10.0,4116635.0,17.23533,66.4118
21.544346900318832,7175082.0,-12.366,66.393
46.41588833612777,4388236.0,-26.20013,66.415
100.0,713901.4,83.48269,66.4007
215.44346900318823,249686.5,-92.86091,66.3953
464.15888336127773,1136223.0,-141.4209,66.4029
1000.0,609356.7,-97.45778,66.4042
2154.4346900318824,409593.0,-59.23782,66.3913
4641.588833612777,159366.5,-95.44734,66.4014
10000.0,66159.24,-88.76519,66.4082
