Frequency,Impedance,Phase Angle,Temperature (Dry Bath)
10.0,57145010.0,-15.21759,67.6846
21.5,47285580.0,-32.22242,67.684
46.4,22801860.0,-45.62146,67.668
100.0,8055046.0,-77.47011,67.6737
215.4,5405963.0,-77.58731,67.6696
464.2,3125162.0,-66.72882,67.6792
1000.0,1323703.0,-89.99171,67.6832
2154.4,657407.5,-87.84219,67.6749
4641.6,292930.3,-93.27331,67.677
10000.0,159840.5,-91.00171,67.6711
