Frequency,Impedance,Phase Angle,Temperature (Dry Bath)
10.0,116210.3,-16.19255,68.0394
21.5,103724.4,-14.06011,68.0575
46.4,94206.43,-12.5173,68.0503
100.0,84515.2,-11.38573,68.0742
215.4,80635.47,-11.55358,68.0705
464.2,75161.58,-10.5499,68.0661
1000.0,70529.84,-11.51678,68.0857
2154.4,65109.14,-14.84023,68.0582
4641.6,59921.92,-22.65108,68.0561
10000.0,52018.65,-32.69076,68.0415
