Frequency,Impedance,Phase Angle,Temperature (Dry Bath)
10.0,39206050.0,-35.64833,67.1531
21.5,32639940.0,-24.30867,67.1667
46.4,20398850.0,-45.3822,67.1506
100.0,6357156.0,-63.51886,67.1424
215.4,210815.4,68.54145,67.1443
464.2,2140491.0,-87.12798,67.1418
1000.0,1176598.0,-74.34477,67.1535
2154.4,535624.3,-89.8669,67.1583
4641.6,253834.9,-85.02863,67.1665
10000.0,121224.8,-86.42931,67.1519
