Frequency,Impedance,Phase Angle,Temperature (Dry Bath)
10.0,3108279.0,-12.27465,67.9553
21.5,3486330.0,-13.81715,67.9463
46.4,3560594.0,-14.85431,67.9704
100.0,3292653.0,-8.872865,67.9478
215.4,2207051.0,-29.53615,67.953
464.2,1834651.0,-59.35403,67.9523
1000.0,1057109.0,-64.14034,67.9559
2154.4,600712.4,-76.86939,67.9464
4641.6,305052.3,-89.55936,67.9392
10000.0,142989.2,-92.10828,67.9453
