Frequency,Impedance,Phase Angle,Temperature (Dry Bath)
10.0,8614916.0,-22.06736,72.0099
21.544346900318832,6245555.0,27.64949,72.0204
46.41588833612777,5308383.0,-20.84347,72.0355
100.0,646829.1,-55.5737,72.0332
215.44346900318823,1185367.0,71.57433,72.0227
464.15888336127773,399032.9,-43.41004,72.0224
1000.0,370957.2,-130.8216,72.0217
2154.4346900318824,444418.5,-92.19489,72.0264
4641.588833612777,146162.6,-113.3491,72.0292
10000.0,174927.2,-104.266,72.0197
