Frequency,Impedance,Phase Angle,Temperature (Dry Bath)
10.0,21600250.0,1.6352,67.947
21.5,20893750.0,-37.89916,67.9563
46.4,25865770.0,-53.77838,67.944
100.0,21527770.0,-47.40664,67.941
215.4,2997056.0,-90.56293,67.9684
464.2,2352893.0,-101.1725,67.9577
1000.0,1468344.0,-86.22497,67.959
2154.4,563940.2,-87.42136,67.9632
4641.6,301457.8,-89.9059,67.9575
10000.0,149570.1,-91.25508,67.9473
