Frequency,Impedance,Phase Angle,Temperature (Dry Bath)
10.0,121029.6,-16.71432,67.8976
21.5,107481.2,-14.59905,67.885
46.4,97484.1,-12.81068,67.8798
100.0,87241.11,-10.63294,67.8974
215.4,84046.84,-11.06112,67.9086
464.2,77493.48,-10.93563,67.9029
1000.0,72585.78,-12.27284,67.9031
2154.4,66931.1,-13.9667,67.8993
4641.6,61451.46,-21.03934,67.9039
10000.0,53417.97,-32.86813,67.8946
