Frequency,Impedance,Phase Angle,Temperature (Dry Bath)
10.0,149045.9,-4.846535,67.8746
21.5,144149.2,-4.073501,67.8853
46.4,140705.8,-3.69983,67.9049
100.0,138662.8,-2.542956,67.8882
215.4,133613.5,-4.940888,67.8675
464.2,136639.0,-5.505884,67.8825
1000.0,125267.1,-10.39731,67.8755
2154.4,119433.2,-16.73094,67.9185
4641.6,111032.6,-28.90059,67.8982
10000.0,88055.19,-47.7569,67.883
