Frequency,Impedance,Phase Angle,Temperature (Dry Bath)
10.0,134183.8,-3.849016,67.4806
21.5,131626.6,-3.626858,67.4889
46.4,128461.0,-3.363912,67.4845
100.0,123259.4,-3.764664,67.494
215.4,92330.21,15.68013,67.487
464.2,120616.1,-5.675547,67.4826
1000.0,112659.7,-9.636209,67.4958
2154.4,107172.7,-15.85814,67.5001
4641.6,95550.08,-28.44288,67.4888
10000.0,74048.97,-43.69407,67.477
