Frequency,Impedance,Phase Angle,Temperature (Dry Bath)
10.0,2327700.0,-11.96613,68.2754
21.5,2117817.0,-12.03155,68.2754
46.4,1887701.0,-13.10633,68.2754
100.0,1597395.0,-8.714007,68.2754
215.4,1477650.0,-22.32365,68.2754
464.2,1300676.0,-32.50545,68.2754
1000.0,917410.4,-50.32586,68.2754
2154.4,568845.3,-64.59847,68.2754
4641.6,269495.4,-77.77001,68.2754
10000.0,145362.6,-88.14395,68.2754
