Frequency,Impedance,Phase Angle,Temperature (Dry Bath)
10.0,29179510.0,-24.94744,67.9551
21.5,33197540.0,-26.45557,67.9509
46.4,42529540.0,-47.84032,67.9394
100.0,6493599.0,-41.21363,67.937
215.4,16209980.0,-68.3083,67.9284
464.2,2871525.0,-67.21825,67.9326
1000.0,1463993.0,-87.73903,67.9406
2154.4,670058.6,-84.62688,67.9417
4641.6,328386.9,-93.44737,67.9476
10000.0,156286.5,-102.6103,67.9292
