Frequency,Impedance,Phase Angle,Temperature (Dry Bath)
10.0,1412703.0,-15.49829,68.0819
21.5,1244770.0,-14.45579,68.0703
46.4,1106598.0,-13.73406,68.0729
100.0,933045.7,-13.48487,68.0868
215.4,987242.5,-20.72251,68.0771
464.2,865581.0,-25.83328,68.0769
1000.0,633137.3,-41.69262,68.067
2154.4,479672.9,-54.4241,68.08
4641.6,289136.3,-74.31695,68.0898
10000.0,137477.1,-86.87011,68.0803
