Frequency,Impedance,Phase Angle,Temperature (Dry Bath)
10.0,21376420.0,-0.930843,68.1428
21.5,18781290.0,-35.0087,68.1427
46.4,28166280.0,-41.57353,68.1476
100.0,5736941.0,-51.83582,68.142
215.4,5594114.0,-70.46372,68.1441
464.2,2773381.0,-84.08885,68.1464
1000.0,1344060.0,-82.05962,68.1463
2154.4,635671.8,-89.096,68.1503
4641.6,337554.0,-91.35842,68.1478
10000.0,140317.8,-95.2826,68.147
