Frequency,Impedance,Phase Angle,Temperature (Dry Bath)
10.0,5234693.0,7.009616,71.4741
21.544346900318832,5137841.0,-12.26063,71.4899
46.41588833612777,7002940.0,-6.118586,71.4847
100.0,875114.9,0.4529545,71.4639
215.44346900318823,2910475.0,-35.29357,71.4735
464.15888336127773,542491.2,-171.3097,71.485
1000.0,962199.1,-93.17457,71.4837
2154.4346900318824,392610.5,-86.09613,71.4838
4641.588833612777,216056.9,-86.75658,71.4701
10000.0,154765.4,-84.36164,71.4769
