Frequency,Impedance,Phase Angle,Temperature (Dry Bath)
10.0,118875.0,-16.7328,67.9077
21.5,105925.5,-14.35235,67.9082
46.4,96266.27,-12.4775,67.9058
100.0,86693.32,-11.12112,67.9027
215.4,82976.3,-10.38457,67.895
464.2,77253.23,-11.02073,67.9125
1000.0,71748.32,-12.16397,67.9155
2154.4,66753.19,-15.46614,67.9013
4641.6,60084.4,-23.26565,67.902
10000.0,51640.23,-32.95771,67.9133
