Frequency,Impedance,Phase Angle,Temperature (Dry Bath)
10.0,26907030.0,-22.47502,66.9985
21.5,18289250.0,-52.41622,67.0006
46.4,13725560.0,-59.93149,67.0049
100.0,3121582.0,-8.100059,66.9864
215.4,3612041.0,-47.52728,67.0012
464.2,1397089.0,-80.88568,66.9965
1000.0,834274.7,-77.86925,66.9865
2154.4,452509.9,-89.29181,66.9878
4641.6,202600.3,-81.60092,66.9834
10000.0,100282.4,-80.0193,66.9884
