Frequency,Impedance,Phase Angle,Temperature (Dry Bath)
10.0,214523.7,-22.98194,67.4159
21.5,180092.1,-20.23025,67.4244
46.4,156221.0,-17.7899,67.4207
100.0,141517.1,-14.48426,67.4109
215.4,85386.3,-10.93562,67.4094
464.2,117737.2,-14.83461,67.4096
1000.0,105499.6,-16.0136,67.4196
2154.4,94509.36,-20.65844,67.4142
4641.6,80483.08,-28.57262,67.427
10000.0,62200.33,-40.78716,67.4199
