Frequency,Impedance,Phase Angle,Temperature (Dry Bath)
10.0,19519770.0,-13.12646,68.0055
21.5,22788720.0,-29.60442,68.006
46.4,27160680.0,-45.91547,68.0112
100.0,4244409.0,-75.90962,68.0094
215.4,6112998.0,-84.94874,68.0225
464.2,3086701.0,-89.45217,68.0023
1000.0,1385301.0,-85.90479,68.0111
2154.4,611742.0,-88.80896,68.0093
4641.6,334716.8,-85.7806,68.0327
10000.0,138578.0,-98.37882,68.0161
