Frequency,Impedance,Phase Angle,Temperature (Dry Bath)
10.0,74899.47,-14.23338,71.1578
21.544346900318832,67645.98,-11.93777,71.1421
46.41588833612777,61395.97,-10.92876,71.1588
100.0,63886.69,-6.939799,71.1642
215.44346900318823,54138.59,-13.40234,71.1506
464.15888336127773,49265.25,-9.993386,71.1575
1000.0,46386.23,-12.00472,71.1663
2154.4346900318824,44984.66,-16.63412,71.1563
4641.588833612777,40176.86,-22.83077,71.149
10000.0,30808.98,-36.86238,71.1421
