Frequency,Impedance,Phase Angle,Temperature (Dry Bath)
10.0,574455.0,-3.52256,71.4854
21.544346900318832,548160.1,-5.979024,71.5003
46.41588833612777,538570.7,-5.400014,71.5118
100.0,358555.4,21.10349,71.5065
215.44346900318823,587418.9,-16.54399,71.4981
464.15888336127773,514147.3,-24.36005,71.506
1000.0,398109.4,-40.78427,71.5107
2154.4346900318824,379950.2,-39.50986,71.5017
4641.588833612777,202562.6,-68.27493,71.5104
10000.0,80893.28,-64.05667,71.5073
