Frequency,Impedance,Phase Angle,Temperature (Dry Bath)
10.0,2085561.0,-11.75733,67.949
21.5,1924967.0,-12.65891,67.9595
46.4,1696162.0,-13.85246,67.9465
100.0,1292752.0,-9.768048,67.95
215.4,1331033.0,-20.00792,67.9376
464.2,1161723.0,-29.15734,67.9442
1000.0,843747.9,-46.02301,67.9529
2154.4,534581.7,-58.99667,67.9405
4641.6,283377.2,-73.565,67.9472
10000.0,142845.9,-87.44072,67.9561
