Frequency,Impedance,Phase Angle,Temperature (Dry Bath)
10.0,29303940.0,-38.76629,67.4924
21.5,21631170.0,-41.33418,67.4792
46.4,16472320.0,-67.26269,67.4954
100.0,12281150.0,-68.01834,67.4912
215.4,193788.3,64.32974,67.495
464.2,2704168.0,-85.53191,67.4978
1000.0,1317467.0,-80.42045,67.4936
2154.4,519670.6,-87.02711,67.5151
4641.6,269248.4,-86.81963,67.4933
10000.0,122983.2,-84.91312,67.4772
