Frequency,Impedance,Phase Angle,Temperature (Dry Bath)
10.0,232542.7,-22.7392,67.3324
21.5,195879.0,-20.32125,67.332
46.4,169477.0,-17.90951,67.3228
100.0,149892.7,-15.95392,67.3303
215.4,135634.3,-19.97793,67.3355
464.2,124798.3,-14.27466,67.3365
1000.0,112232.1,-19.35118,67.3477
2154.4,99893.71,-21.79235,67.3355
4641.6,82057.33,-29.10432,67.3435
10000.0,62825.91,-40.8766,67.3273
