Frequency,Impedance,Phase Angle,Temperature (Dry Bath)
10.0,7625358.0,-23.54676,66.2989
21.544346900318832,5056438.0,-38.47262,66.269
46.41588833612777,4970749.0,-49.26944,66.297
100.0,661122.2,176.1925,66.2975
215.44346900318823,1109763.0,21.6697,66.3052
464.15888336127773,376349.5,-25.82179,66.295
1000.0,841195.1,-60.83052,66.287
2154.4346900318824,536378.5,-70.31433,66.2759
4641.588833612777,110144.2,-89.95975,66.2822
10000.0,63347.43,-88.51168,66.2797
