Frequency,Impedance,Phase Angle,Temperature (Dry Bath)
10.0,32705600.0,-24.99173,68.0538
21.5,31260610.0,-31.52487,68.0766
46.4,27392330.0,-52.29407,68.0813
100.0,5551922.0,-49.28986,68.088
215.4,11393680.0,-84.41962,68.0655
464.2,2946404.0,-68.53178,68.0728
1000.0,1217174.0,-85.05843,68.0621
2154.4,623947.0,-89.82962,68.0666
4641.6,315759.7,-90.97095,68.097
10000.0,157786.8,-97.10236,68.0859
