Frequency,Impedance,Phase Angle,Temperature (Dry Bath)
10.0,111364.8,-3.023077,67.2775
21.5,109087.4,-2.6856,67.2551
46.4,107098.0,-2.193363,67.2602
100.0,104974.2,-1.364819,67.2435
215.4,166737.0,-23.44071,67.2617
464.2,101722.4,-4.56455,67.2503
1000.0,97844.17,-7.661861,67.2627
2154.4,95571.0,-13.88938,67.2581
4641.6,86050.41,-23.04052,67.265
10000.0,68381.62,-39.71024,67.2442
