Frequency,Impedance,Phase Angle,Temperature (Dry Bath)
10.0,75163.95,-14.62708,70.8832
21.544346900318832,67048.8,-12.79681,70.8619
46.41588833612777,61430.81,-11.20145,70.8794
100.0,46439.26,-14.73603,70.8542
215.44346900318823,51912.63,-8.624727,70.871
464.15888336127773,48175.56,-6.431278,70.8643
1000.0,44299.37,-11.96449,70.8761
2154.4346900318824,44312.73,-14.83284,70.8848
4641.588833612777,40791.82,-25.46548,70.8748
10000.0,30176.35,-35.63852,70.8745
