Frequency,Impedance,Phase Angle,Temperature (Dry Bath)
10.0,1585047.0,-18.76755,67.3005
21.5,1399998.0,-17.53826,67.3048
46.4,1263862.0,-15.14986,67.304
100.0,1095983.0,-21.0757,67.3024
215.4,1190093.0,16.12949,67.3035
464.2,883187.4,-18.774,67.3103
1000.0,741940.5,-46.1518,67.3138
2154.4,480214.6,-60.07225,67.3146
4641.6,262924.5,-74.39217,67.3184
10000.0,127671.5,-79.03101,67.3387
