Frequency,Impedance,Phase Angle,Temperature (Dry Bath)
10.0,5723927.0,-6.721236,70.8982
21.544346900318832,5678267.0,-20.66397,70.8882
46.41588833612777,4404813.0,-7.403682,70.8762
100.0,391370.5,-4.806953,70.8985
215.44346900318823,7553602.0,-79.79876,70.8769
464.15888336127773,452175.1,-111.2008,70.8945
1000.0,313681.3,-56.55118,70.8974
2154.4346900318824,236859.3,-78.72204,70.8898
4641.588833612777,113276.3,-69.3975,70.8868
10000.0,63474.83,-82.72275,70.8913
