Frequency,Impedance,Phase Angle,Temperature (Dry Bath)
10.0,27749460.0,-1.990651,68.1273
21.5,13067020.0,-16.02976,68.1213
46.4,18482100.0,-43.2036,68.1397
100.0,10572520.0,-91.59903,68.1313
215.4,4713894.0,-83.08609,68.1418
464.2,2551741.0,-68.11046,68.1224
1000.0,1550412.0,-86.6044,68.1408
2154.4,660614.7,-89.37294,68.1392
4641.6,326691.7,-89.95629,68.1201
10000.0,151020.4,-97.35408,68.1288
