Frequency,Impedance,Phase Angle,Temperature (Dry Bath)
10.0,25152460.0,-4.786115,67.4381
21.5,26876170.0,-31.96111,67.4341
46.4,18041640.0,-54.49379,67.436
100.0,4923334.0,-102.0656,67.4502
215.4,3714314.0,44.10621,67.4495
464.2,2180418.0,-83.96883,67.4135
1000.0,1176702.0,-99.72965,67.4351
2154.4,560911.3,-85.03121,67.4344
4641.6,269558.5,-84.68513,67.4382
10000.0,128107.0,-84.88933,67.4478
