Frequency,Impedance,Phase Angle,Temperature (Dry Bath)
10.0,1418750.0,-15.88954,67.946
21.5,1287007.0,-14.09808,67.9398
46.4,1179476.0,-13.15297,67.9318
100.0,1064832.0,-7.993457,67.9502
215.4,966013.6,-18.22571,67.942
464.2,916078.0,-28.7238,67.9609
1000.0,726661.4,-37.23055,67.9297
2154.4,488349.7,-56.93839,67.9376
4641.6,273523.7,-76.05521,67.9561
10000.0,127567.9,-85.12927,67.9535
