Frequency,Impedance,Phase Angle,Temperature (Dry Bath)
10.0,66558180.0,-23.88797,67.8978
21.5,38075740.0,-25.92608,67.9123
46.4,18962280.0,-43.35381,67.9281
100.0,8947057.0,-14.52803,67.9022
215.4,6328359.0,-74.73229,67.9326
464.2,2575587.0,-85.95356,67.9126
1000.0,1352556.0,-87.84127,67.9014
2154.4,605099.7,-90.09061,67.8891
4641.6,288668.0,-90.98699,67.8987
10000.0,135703.2,-98.16782,67.8931
