Frequency,Impedance,Phase Angle,Temperature (Dry Bath)
10.0,3802351.0,-12.62673,71.413
21.544346900318832,4613803.0,-13.96559,71.3951
46.41588833612777,3503721.0,-38.63139,71.4127
100.0,748302.2,76.62635,71.4121
215.44346900318823,32319.45,-48.2021,71.4146
464.15888336127773,466445.2,-121.721,71.431
1000.0,1408059.0,55.27205,71.4019
2154.4346900318824,191646.2,-60.21361,71.4189
4641.588833612777,124094.7,-91.68419,71.4047
10000.0,59136.6,-82.70636,71.4071
