Frequency,Impedance,Phase Angle,Temperature (Dry Bath)
10.0,29204710.0,-9.924287,68.1421
21.5,19630790.0,-26.52841,68.1421
46.4,16693140.0,-56.6805,68.1421
100.0,5254673.0,-36.17253,68.1421
215.4,9271053.0,-48.26721,68.1421
464.2,2410159.0,-64.70475,68.1421
1000.0,1562541.0,-84.30364,68.1421
2154.4,606207.5,-87.93704,68.1421
4641.6,321279.5,-88.08193,68.1421
10000.0,141947.5,-99.00864,68.1421
