Frequency,Impedance,Phase Angle,Temperature (Dry Bath)
10.0,36379190.0,-4.565819,67.1333
21.5,39370500.0,-48.95272,67.1373
46.4,19206540.0,-45.7916,67.1279
100.0,4062945.0,-54.15937,67.115
215.4,171737.2,168.3076,67.1233
464.2,2217497.0,-85.82665,67.1318
1000.0,1294073.0,-84.62183,67.143
2154.4,580599.5,-89.42472,67.1328
4641.6,272789.0,-84.25671,67.1337
10000.0,131842.7,-87.14008,67.1208
