Frequency,Impedance,Phase Angle,Temperature (Dry Bath)
10.0,41819.72,-14.5595,70.709
21.544346900318832,37910.52,-12.45068,70.695
46.41588833612777,34806.38,-11.36626,70.7001
100.0,28015.27,-12.62266,70.6865
215.44346900318823,28215.49,-11.6711,70.7017
464.15888336127773,26175.74,-8.917137,70.6877
1000.0,25612.4,-11.28108,70.6958
2154.4346900318824,24116.13,-14.85638,70.699
4641.588833612777,22465.7,-14.21748,70.6931
10000.0,19414.63,-24.16493,70.6859
