Frequency,Impedance,Phase Angle,Temperature (Dry Bath)
10.0,27355460.0,-13.2562,67.3825
21.5,20247980.0,-46.32215,67.3739
46.4,14109970.0,-59.97911,67.37
100.0,6554653.0,-1.299431,67.3734
215.4,238615.8,-89.47018,67.3529
464.2,1622364.0,-85.99248,67.3778
1000.0,818083.8,-69.72193,67.3718
2154.4,425143.4,-82.52367,67.3659
4641.6,205378.5,-83.55017,67.3756
10000.0,97900.8,-80.59485,67.3683
