Frequency,Impedance,Phase Angle,Temperature (Dry Bath)
10.0,37664.78,-13.65468,70.8502
21.544346900318832,34405.4,-11.62127,70.8494
46.41588833612777,31803.97,-10.63686,70.8295
100.0,30926.09,-13.52349,70.8527
215.44346900318823,27506.56,-11.8412,70.8504
464.15888336127773,24398.81,-10.89927,70.8525
1000.0,23794.87,-17.10405,70.8472
2154.4346900318824,22368.93,-13.38721,70.8506
4641.588833612777,21050.36,-14.98995,70.8418
10000.0,17952.25,-24.49649,70.8288
