Frequency,Impedance,Phase Angle,Temperature (Dry Bath)
10.0,22266740.0,-28.64266,67.9687
21.5,24285190.0,-22.82967,67.9687
46.4,26496010.0,-49.6211,67.9687
100.0,5459696.0,-65.42405,67.9687
215.4,5160555.0,-79.01262,67.9687
464.2,2906468.0,-90.76505,67.9687
1000.0,1327564.0,-85.26043,67.9687
2154.4,586589.0,-84.76044,67.9687
4641.6,294850.1,-88.61361,67.9687
10000.0,133689.6,-97.09393,67.9687
