Frequency,Impedance,Phase Angle,Temperature (Dry Bath)
10.0,2032925.0,-11.27489,68.1426
21.5,1983136.0,-11.68741,68.1547
46.4,1806166.0,-13.67903,68.1476
100.0,1394822.0,-11.66677,68.1349
215.4,1356630.0,-24.34977,68.1485
464.2,1256324.0,-34.93649,68.167
1000.0,871741.7,-48.44584,68.1557
2154.4,548253.4,-65.29978,68.1415
4641.6,295015.1,-69.49245,68.1481
10000.0,146467.5,-89.36162,68.1503
