Frequency,Impedance,Phase Angle,Temperature (Dry Bath)
10.0,23053810.0,-1.118232,68.1485
21.5,33393590.0,-24.79583,68.1452
46.4,39961990.0,-42.80791,68.1517
100.0,7926815.0,-13.45792,68.1633
215.4,5950634.0,-65.33308,68.1538
464.2,3599414.0,-82.60816,68.1535
1000.0,1505249.0,-89.56177,68.154
2154.4,761230.4,-88.46909,68.1543
4641.6,293618.4,-88.50653,68.1502
10000.0,157991.5,-99.38502,68.1569
