Frequency,Impedance,Phase Angle,Temperature (Dry Bath)
10.0,23741990.0,-16.58671,67.9986
21.5,19615600.0,-17.81616,68.0016
46.4,36236360.0,-41.2213,68.0022
100.0,5152053.0,-20.15671,68.0039
215.4,6989645.0,-80.39393,68.002
464.2,2218590.0,-77.17274,67.9927
1000.0,1489005.0,-84.16838,67.9992
2154.4,637347.6,-87.62189,68.007
4641.6,326802.1,-91.7054,68.0048
10000.0,147724.7,-98.6839,68.0179
