Frequency,Impedance,Phase Angle,Temperature (Dry Bath)
10.0,132745.6,-3.856302,67.4302
21.5,129787.5,-3.372133,67.4461
46.4,126796.3,-3.286704,67.4177
100.0,120441.3,-4.002787,67.4432
215.4,122861.4,-3.66252,67.4286
464.2,117977.8,-6.889951,67.4429
1000.0,113823.2,-9.828978,67.4437
2154.4,107936.9,-16.2987,67.4362
4641.6,93034.73,-27.37493,67.4327
10000.0,72136.41,-42.70019,67.4336
