Frequency,Impedance,Phase Angle,Temperature (Dry Bath)
10.0,4148275.0,10.1086,66.5
21.544346900318832,4116124.0,-2.95853,66.5
46.41588833612777,7786310.0,5.22204,66.5
100.0,1496183.0,-132.387,66.5
215.44346900318823,2193145.0,159.3163,66.5
464.15888336127773,1716347.0,-77.83795,66.5
1000.0,994010.9,-19.53125,66.5
2154.4346900318824,1443787.0,15.25774,66.5
4641.588833612777,901894.4,-144.9462,66.5
10000.0,2208482.0,-28.51609,66.5
