Frequency,Impedance,Phase Angle,Temperature (Dry Bath)
10.0,27280250.0,-31.12753,67.0985
21.5,21381190.0,-38.5292,67.1072
46.4,12929540.0,-60.22987,67.0951
100.0,6573298.0,-15.24653,67.1053
215.4,2048427.0,126.6426,67.1097
464.2,2193345.0,-81.10611,67.1096
1000.0,651384.3,-80.72385,67.115
2154.4,414797.4,-82.02442,67.0993
4641.6,201552.7,-80.91969,67.0971
10000.0,97914.02,-81.02806,67.106
