Frequency,Impedance,Phase Angle,Temperature (Dry Bath)
10.0,14600670.0,-11.98083,68.1238
21.5,18152420.0,-43.21524,68.1365
46.4,18816060.0,-41.20847,68.1389
100.0,6104910.0,-107.4282,68.1244
215.4,8546944.0,-55.41813,68.1379
464.2,2835429.0,-72.79581,68.1353
1000.0,1312847.0,-78.10826,68.1343
2154.4,659722.8,-88.29733,68.1165
4641.6,298228.2,-95.31511,68.1412
10000.0,140388.3,-94.78094,68.1294
