Frequency,Impedance,Phase Angle,Temperature (Dry Bath)
10.0,173389.0,-12.01938,65.7607
21.544346900318832,157042.3,-10.89152,65.7604
46.41588833612777,145460.4,-9.807397,65.7467
100.0,123391.7,-6.935659,65.7781
215.44346900318823,84954.42,-1.140952,65.7811
464.15888336127773,106043.0,-16.13337,65.7751
1000.0,92069.03,-6.421418,65.764
2154.4346900318824,93254.81,-22.3817,65.771
4641.588833612777,74649.77,-41.83202,65.7653
10000.0,54025.93,-51.75613,65.7709
