Frequency,Impedance,Phase Angle,Temperature (Dry Bath)
10.0,262473.9,-23.7732,67.3651
21.5,218720.3,-21.67907,67.349
46.4,187130.5,-19.22061,67.3369
100.0,158864.1,-14.66241,67.3336
215.4,146153.6,-18.91261,67.3412
464.2,135414.9,-16.36699,67.3514
1000.0,117928.3,-17.44538,67.3439
2154.4,100967.1,-24.34505,67.3311
4641.6,82964.57,-31.68761,67.3496
10000.0,63671.58,-41.92624,67.3495
