Frequency,Impedance,Phase Angle,Temperature (Dry Bath)
10.0,26340980.0,-26.56353,67.4205
21.5,22514360.0,-36.04756,67.4235
46.4,19725910.0,-58.16663,67.4213
100.0,6778342.0,30.33019,67.4326
215.4,250329.3,113.4316,67.4194
464.2,2351432.0,-71.83893,67.4366
1000.0,1046077.0,-84.85957,67.4308
2154.4,578191.0,-89.69776,67.421
4641.6,256065.6,-88.31294,67.4246
10000.0,125165.2,-86.02407,67.4158
