Frequency,Impedance,Phase Angle,Temperature (Dry Bath)
10.0,21301650.0,-9.493769,68.1646
21.5,18114960.0,-23.36636,68.1577
46.4,19130310.0,-44.93426,68.1587
100.0,4656512.0,-59.02571,68.171
215.4,4690839.0,-69.57153,68.1892
464.2,3012409.0,-69.54632,68.1658
1000.0,1198423.0,-89.73927,68.158
2154.4,628863.0,-87.63269,68.1704
4641.6,342763.3,-91.02634,68.174
10000.0,148624.6,-91.23621,68.1829
