Frequency,Impedance,Phase Angle,Temperature (Dry Bath)
10.0,18146630.0,-26.68317,68.3094
21.5,24730030.0,-25.31447,68.3094
46.4,15012000.0,-45.76163,68.3094
100.0,9320673.0,-42.37227,68.3094
215.4,4718962.0,-90.24118,68.3094
464.2,3033634.0,-82.46968,68.3094
1000.0,1350917.0,-87.66832,68.3094
2154.4,677799.5,-88.36881,68.3094
4641.6,309759.4,-85.48753,68.3094
10000.0,158818.1,-100.6564,68.3094
