Frequency,Impedance,Phase Angle,Temperature (Dry Bath)
10.0,1549755.0,-17.82721,67.3086
21.5,1460125.0,-15.56318,67.3256
46.4,1299181.0,-15.92305,67.3224
100.0,1009898.0,-15.41155,67.3152
215.4,1450433.0,-6.750028,67.3154
464.2,1148066.0,-22.5356,67.3174
1000.0,637588.0,-40.7901,67.311
2154.4,483768.1,-55.10283,67.2981
4641.6,257811.9,-70.11865,67.3134
10000.0,125871.2,-79.85388,67.3052
