Frequency,Impedance,Phase Angle,Temperature (Dry Bath)
10.0,21854690.0,-62.05344,66.3588
21.544346900318832,3929316.0,-17.78292,66.3501
46.41588833612777,4755266.0,-3.586286,66.3568
100.0,859414.2,-72.72742,66.3712
215.44346900318823,434766.0,-170.6886,66.3538
464.15888336127773,914901.2,-9.879378,66.3624
1000.0,456398.7,-105.8989,66.3468
2154.4346900318824,307289.6,-116.956,66.3383
4641.588833612777,136750.6,-85.20392,66.3585
10000.0,68360.48,-90.27195,66.3577
