Frequency,Impedance,Phase Angle,Temperature (Dry Bath)
10.0,1431045.0,-15.5199,68.0707
21.5,1324321.0,-13.60457,68.0703
46.4,1196509.0,-14.01551,68.0572
100.0,853657.1,-12.38589,68.0843
215.4,1060694.0,-20.89469,68.0736
464.2,936520.8,-19.69339,68.0521
1000.0,688163.8,-39.90285,68.0727
2154.4,454832.8,-55.41713,68.0654
4641.6,238062.6,-73.05968,68.0658
10000.0,131234.1,-83.20069,68.063
