Frequency,Impedance,Phase Angle,Temperature (Dry Bath)
10.0,3338485.0,-11.94184,70.4
21.544346900318832,4430147.0,0.455901,70.4
46.41588833612777,9634048.0,-3.030013,70.4
100.0,6675221.0,-101.7871,70.4
215.44346900318823,3935882.0,1.806301,70.4
464.15888336127773,2314800.0,11.19001,70.4
1000.0,880325.4,-98.61267,70.4
2154.4346900318824,3410080.0,-17.46171,70.4
4641.588833612777,2379152.0,3.412228,70.4
10000.0,800799.9,-75.84499,70.4
