Frequency,Impedance,Phase Angle,Temperature (Dry Bath)
10.0,53631.28,-33.77465,67.1235
21.5,41377.22,-29.8823,67.1165
46.4,33409.84,-26.127,67.111
100.0,27995.72,-22.39487,67.1233
215.4,24167.28,-18.87399,67.109
464.2,21470.26,-16.21999,67.106
1000.0,19227.08,-13.98933,67.1326
2154.4,17551.74,-12.94516,67.1291
4641.6,16117.27,-13.08239,67.1198
10000.0,14859.68,-14.87352,67.1286
