Frequency,Impedance,Phase Angle,Temperature (Dry Bath)
10.0,2807594.0,0.8186262,71.4864
21.544346900318832,6613442.0,-23.28267,71.4844
46.41588833612777,5228437.0,-3.343337,71.4874
100.0,3577404.0,-111.0587,71.4664
215.44346900318823,1073522.0,60.72158,71.4742
464.15888336127773,648494.4,87.66748,71.4831
1000.0,1150394.0,-45.44811,71.4869
2154.4346900318824,404946.7,-77.76398,71.4837
4641.588833612777,310201.6,-62.64037,71.477
10000.0,127074.6,-64.64674,71.4786
