Frequency,Impedance,Phase Angle,Temperature (Dry Bath)
10.0,1604401.0,-19.49865,66.9274
21.5,1432045.0,-16.6389,66.9245
46.4,1314633.0,-14.73765,66.9307
100.0,1065863.0,-5.81578,66.9317
215.4,144555.1,-74.13568,66.9116
464.2,968812.2,-27.11615,66.9189
1000.0,567362.9,-51.5881,66.9209
2154.4,435349.6,-64.47652,66.9223
4641.6,230418.3,-71.70021,66.9193
10000.0,110338.6,-80.96456,66.9347
