Frequency,Impedance,Phase Angle,Temperature (Dry Bath)
10.0,51299.4,-34.19603,67.1674
21.5,39423.07,-30.34122,67.1896
46.4,31731.73,-26.5714,67.1944
100.0,26385.37,-22.77317,67.2054
215.4,21353.38,-14.31202,67.2005
464.2,20162.26,-16.30982,67.197
1000.0,18079.84,-14.4219,67.1883
2154.4,16544.04,-12.94909,67.1953
4641.6,15143.8,-12.84599,67.196
10000.0,13979.32,-14.6071,67.1894
