Frequency,Impedance,Phase Angle,Temperature (Dry Bath)
10.0,1563629.0,-18.64286,67.1221
21.5,1378544.0,-16.61936,67.1116
46.4,1249262.0,-15.34817,67.0999
100.0,1172168.0,-21.46385,67.0913
215.4,1282888.0,-25.51563,67.114
464.2,964231.1,-25.5556,67.1052
1000.0,671965.2,-40.86547,67.1057
2154.4,397087.1,-61.84093,67.0984
4641.6,224415.7,-72.85144,67.112
10000.0,110705.0,-77.88012,67.1098
