Frequency,Impedance,Phase Angle,Temperature (Dry Bath)
10.0,1230048.0,-27.66122,71.3205
21.544346900318832,885761.9,-22.66924,71.3375
46.41588833612777,779169.1,-22.34285,71.3313
100.0,532682.9,-84.57975,71.3291
215.44346900318823,315251.4,-28.30552,71.3319
464.15888336127773,603586.1,-36.2046,71.3325
1000.0,372080.5,-28.8775,71.3274
2154.4346900318824,271907.4,-49.32612,71.3337
4641.588833612777,112873.9,-69.30094,71.3318
10000.0,57440.21,-74.34416,71.3341
