Frequency,Impedance,Phase Angle,Temperature (Dry Bath)
10.0,31874070.0,-14.45846,67.3185
21.5,28593420.0,-33.64568,67.3462
46.4,15207710.0,-56.34548,67.3258
100.0,6734438.0,-8.158837,67.3217
215.4,2390953.0,-82.99301,67.3321
464.2,1707011.0,-95.69932,67.3217
1000.0,763825.8,-85.2551,67.324
2154.4,426391.2,-82.60984,67.3254
4641.6,210196.9,-82.35704,67.3262
10000.0,105938.5,-80.72856,67.3266
