Frequency,Impedance,Phase Angle,Temperature (Dry Bath)
10.0,549109.3,-27.16682,66.2865
21.544346900318832,438179.8,-26.23949,66.2989
46.41588833612777,351036.1,-23.93376,66.3109
100.0,409052.1,-48.01107,66.3159
215.44346900318823,176938.6,-36.81843,66.3117
464.15888336127773,195808.3,-21.65938,66.2744
1000.0,125822.1,-42.60532,66.2904
2154.4346900318824,121229.4,-36.64106,66.2816
4641.588833612777,99419.77,-58.81205,66.3093
10000.0,53209.16,-68.66566,66.2931
