Frequency,Impedance,Phase Angle,Temperature (Dry Bath)
10.0,17841480.0,-13.52567,68.2619
21.5,20782560.0,-49.80182,68.2714
46.4,26623840.0,-49.38966,68.26
100.0,6221456.0,-61.59654,68.266
215.4,3449517.0,-64.37008,68.2486
464.2,2480395.0,-75.91614,68.2656
1000.0,1145567.0,-81.12917,68.2595
2154.4,642687.3,-83.24792,68.2696
4641.6,305848.4,-87.99315,68.2532
10000.0,141759.2,-98.47673,68.2679
