Frequency,Impedance,Phase Angle,Temperature (Dry Bath)
10.0,23461220.0,-18.43154,67.4538
21.5,26449620.0,-56.20693,67.4422
46.4,18539620.0,-64.38654,67.4424
100.0,10726720.0,-23.54091,67.4433
215.4,1984145.0,-30.94222,67.4361
464.2,1785568.0,-65.64624,67.4528
1000.0,890024.0,-75.13732,67.4336
2154.4,485192.2,-78.00083,67.4444
4641.6,243740.1,-79.8532,67.4538
10000.0,120270.7,-80.25798,67.4435
