Frequency,Impedance,Phase Angle,Temperature (Dry Bath)
10.0,109402.4,-15.07924,68.0843
21.5,97889.71,-13.32405,68.0761
46.4,89580.28,-11.71358,68.0659
100.0,79499.78,-10.25045,68.0768
215.4,79340.74,-9.603307,68.0624
464.2,73475.21,-10.61578,68.0718
1000.0,67310.94,-12.47472,68.0647
2154.4,63395.01,-15.81258,68.0669
4641.6,56986.52,-21.53821,68.0684
10000.0,49724.67,-31.48326,68.0583
