Frequency,Impedance,Phase Angle,Temperature (Dry Bath)
10.0,5029042.0,-19.99879,71.4385
21.544346900318832,4504608.0,-1.229452,71.4363
46.41588833612777,4841940.0,-6.60436,71.4303
100.0,808678.4,90.83061,71.4367
215.44346900318823,2032203.0,76.69024,71.444
464.15888336127773,2036655.0,-91.60466,71.4351
1000.0,778365.0,-134.9089,71.4396
2154.4346900318824,831627.7,-92.96613,71.4341
4641.588833612777,188176.2,-96.62815,71.4464
10000.0,106596.4,-94.33601,71.4484
