Frequency,Impedance,Phase Angle,Temperature (Dry Bath)
10.0,118842.5,-3.407348,67.34
21.5,117085.5,-3.050133,67.3409
46.4,115547.4,-3.2095,67.3381
100.0,112410.0,-3.504725,67.3356
215.4,115340.0,-6.638188,67.3428
464.2,112350.3,-6.691311,67.3063
1000.0,106153.9,-8.929873,67.3391
2154.4,103093.7,-13.18478,67.3458
4641.6,92740.91,-24.53732,67.338
10000.0,73273.49,-40.38186,67.3411
