Frequency,Impedance,Phase Angle,Temperature (Dry Bath)
10.0,3944155.0,-15.50251,70.6839
21.544346900318832,5180637.0,26.01938,70.6909
46.41588833612777,3863489.0,-36.94337,70.6881
100.0,440155.1,-124.3946,70.6961
215.44346900318823,1798203.0,24.74706,70.6963
464.15888336127773,2608921.0,-94.25901,70.688
1000.0,296748.9,-8.403201,70.6845
2154.4346900318824,428667.6,-87.19658,70.6844
4641.588833612777,173239.5,-94.04441,70.692
10000.0,69976.07,-85.27384,70.6751
