Frequency,Impedance,Phase Angle,Temperature (Dry Bath)
10.0,10274550.0,31.57681,67.3
21.544346900318832,8541338.0,125.7867,67.3
46.41588833612777,7484275.0,5.115386,67.3
100.0,898741.3,-33.84819,67.3
215.44346900318823,744996.8,-14.66815,67.3
464.15888336127773,791453.9,76.0672,67.3
1000.0,123945.8,-14.49407,67.3
2154.4346900318824,281869.6,16.82627,67.3
4641.588833612777,752192.7,-127.7757,67.3
10000.0,408083.1,-32.63177,67.3
