Frequency,Impedance,Phase Angle,Temperature (Dry Bath)
10.0,30709300.0,-6.501041,67.6816
21.5,48937030.0,-3.245456,67.6648
46.4,32789560.0,-42.7907,67.6447
100.0,5852935.0,-44.44626,67.656
215.4,7399470.0,-84.51124,67.6428
464.2,2955196.0,-76.01303,67.6618
1000.0,1335048.0,-82.46773,67.6497
2154.4,654041.7,-89.04617,67.6388
4641.6,295744.0,-90.20394,67.6645
10000.0,148258.7,-99.48822,67.6551
