Frequency,Impedance,Phase Angle,Temperature (Dry Bath)
10.0,4443872.0,-21.15051,71.2254
21.544346900318832,4587182.0,10.87628,71.2599
46.41588833612777,4896592.0,-20.20465,71.2409
100.0,170463.8,-15.79306,71.2381
215.44346900318823,624958.7,157.9951,71.2232
464.15888336127773,603082.1,-14.73672,71.2355
1000.0,348215.0,-16.85244,71.2305
2154.4346900318824,251116.5,-73.63797,71.2588
4641.588833612777,90625.22,-84.87569,71.2452
10000.0,67455.01,-82.98479,71.2501
