Frequency,Impedance,Phase Angle,Temperature (Dry Bath)
10.0,18967810.0,-5.992251,67.9519
21.5,18678710.0,-30.73126,67.9519
46.4,17681910.0,-46.20287,67.9519
100.0,4793118.0,-50.37513,67.9519
215.4,4819805.0,-92.72241,67.9519
464.2,2906285.0,-76.04133,67.9519
1000.0,1303519.0,-82.46552,67.9519
2154.4,694998.0,-89.00305,67.9519
4641.6,290590.1,-91.57096,67.9519
10000.0,146078.5,-94.97588,67.9519
