Frequency,Impedance,Phase Angle,Temperature (Dry Bath)
10.0,37712480.0,-27.88087,68.0918
21.5,38608610.0,-23.26234,68.0896
46.4,40092920.0,-54.82713,68.0925
100.0,7717212.0,-66.13347,68.0887
215.4,6183369.0,-67.44213,68.09
464.2,2463918.0,-70.37894,68.0916
1000.0,1451919.0,-87.17112,68.0972
2154.4,631336.1,-92.84612,68.0974
4641.6,311160.2,-89.31705,68.0918
10000.0,161150.0,-94.8741,68.0915
