Frequency,Impedance,Phase Angle,Temperature (Dry Bath)
10.0,1020616.0,-11.08038,71.8652
21.544346900318832,988650.6,-10.63467,71.8647
46.41588833612777,938185.7,-7.008689,71.8561
100.0,344117.0,-18.9544,71.8717
215.44346900318823,550059.6,56.32613,71.8684
464.15888336127773,544691.4,13.99763,71.8659
1000.0,815483.7,96.31067,71.8557
2154.4346900318824,314272.3,-20.32416,71.8685
4641.588833612777,190008.9,-60.77381,71.8668
10000.0,131221.0,-51.74944,71.8864
