Frequency,Impedance,Phase Angle,Temperature (Dry Bath)
10.0,9354086.0,-2.830736,71.4903
21.544346900318832,4786106.0,-32.26924,71.4797
46.41588833612777,4042278.0,-11.99676,71.4721
100.0,906543.9,-133.645,71.4635
215.44346900318823,849145.9,77.5013,71.4822
464.15888336127773,682950.1,-130.2502,71.487
1000.0,290705.9,-69.94297,71.4609
2154.4346900318824,235771.6,-78.54927,71.4522
4641.588833612777,105701.0,-82.21289,71.4766
10000.0,60868.53,-92.47538,71.476
