Frequency,Impedance,Phase Angle,Temperature (Dry Bath)
10.0,30982870.0,-29.27623,67.0964
21.5,25762170.0,-39.01569,67.096
46.4,14914150.0,-41.52679,67.0924
100.0,5181571.0,-85.17254,67.1098
215.4,300868.4,-157.9777,67.0989
464.2,1640963.0,-71.75635,67.1154
1000.0,851833.2,-81.53688,67.1042
2154.4,405253.5,-84.83115,67.115
4641.6,205065.2,-82.30974,67.0922
10000.0,99400.12,-80.93594,67.0961
