Frequency,Impedance,Phase Angle,Temperature (Dry Bath)
10.0,6260625.0,-7.681778,71.3739
21.544346900318832,11035580.0,-9.00772,71.3655
46.41588833612777,5135422.0,-16.32477,71.3596
100.0,883414.4,-21.89754,71.3615
215.44346900318823,1757427.0,109.9311,71.3688
464.15888336127773,612572.4,-49.50128,71.375
1000.0,544569.9,-101.8291,71.3639
2154.4346900318824,231237.1,-80.15357,71.3564
4641.588833612777,128580.5,-87.16024,71.3702
10000.0,67054.6,-76.64071,71.3675
