Frequency,Impedance,Phase Angle,Temperature (Dry Bath)
10.0,1552170.0,-18.51674,67.1422
21.5,1380348.0,-16.49217,67.1592
46.4,1242407.0,-14.96491,67.1482
100.0,1193459.0,-23.97615,67.1446
215.4,887265.4,-30.22834,67.1488
464.2,871850.4,-28.79347,67.1547
1000.0,620651.0,-47.83076,67.1652
2154.4,399625.8,-61.22037,67.1562
4641.6,220589.5,-73.20498,67.1531
10000.0,110634.6,-79.30419,67.164
