Frequency,Impedance,Phase Angle,Temperature (Dry Bath)
10.0,26080700.0,-14.4652,67.6811
21.5,27249990.0,-45.55962,67.6957
46.4,28746140.0,-50.77991,67.7013
100.0,5716603.0,-29.26539,67.6866
215.4,3401851.0,-98.50384,67.7054
464.2,2137164.0,-101.5703,67.6933
1000.0,1292493.0,-85.15406,67.6871
2154.4,621987.0,-91.07408,67.6831
4641.6,266298.0,-87.52874,67.6758
10000.0,134510.2,-90.81728,67.7094
