Frequency,Impedance,Phase Angle,Temperature (Dry Bath)
10.0,110415.7,-3.08572,67.4517
21.5,108208.0,-2.626574,67.4418
46.4,106239.1,-2.740415,67.4565
100.0,103853.6,-3.016408,67.4369
215.4,95956.29,-5.049946,67.4709
464.2,101566.3,-4.99343,67.4426
1000.0,98972.62,-7.39185,67.4426
2154.4,93990.29,-13.78147,67.4444
4641.6,85958.27,-24.17423,67.4507
10000.0,68580.27,-39.27724,67.4407
