Frequency,Impedance,Phase Angle,Temperature (Dry Bath)
10.0,52011.24,-34.11794,67.1567
21.5,39987.69,-30.26882,67.1351
46.4,32189.4,-26.51164,67.1497
100.0,26758.8,-22.8198,67.1502
215.4,23141.84,-19.02161,67.1634
464.2,20638.37,-16.11942,67.1589
1000.0,18327.02,-14.45512,67.1438
2154.4,16754.16,-12.80581,67.1565
4641.6,15351.44,-12.79449,67.1588
10000.0,14184.79,-14.77478,67.1399
