Frequency,Impedance,Phase Angle,Temperature (Dry Bath)
10.0,22400410.0,-5.238398,67.9799
21.5,20312910.0,-26.57165,67.9877
46.4,17478850.0,-54.7057,68.0003
100.0,9982933.0,-25.26892,67.9815
215.4,5375895.0,-117.2996,68.0005
464.2,2600848.0,-101.5012,67.9924
1000.0,1242282.0,-91.04765,68.009
2154.4,646588.4,-93.26437,68.0045
4641.6,330450.6,-91.71785,67.9892
10000.0,155793.8,-97.19203,67.9959
