Frequency,Impedance,Phase Angle,Temperature (Dry Bath)
10.0,6336551.0,-11.83366,68.0303
21.5,5484549.0,-20.82135,68.0317
46.4,5862915.0,-22.38442,68.0197
100.0,3729793.0,-36.48936,68.0234
215.4,3581493.0,-52.15045,68.0263
464.2,2168537.0,-74.19506,68.0279
1000.0,1266597.0,-71.77963,68.0206
2154.4,624611.2,-85.03708,68.0415
4641.6,288377.0,-84.85357,68.0222
10000.0,130874.7,-91.45853,68.0358
