Frequency,Impedance,Phase Angle,Temperature (Dry Bath)
10.0,2146026.0,-11.12212,68.4294
21.5,1870854.0,-11.82223,68.4094
46.4,1700274.0,-13.08237,68.4209
100.0,1367859.0,-18.17372,68.4348
215.4,1444190.0,-27.75459,68.418
464.2,1045297.0,-31.32205,68.4348
1000.0,844850.0,-42.29939,68.4387
2154.4,572939.4,-60.6573,68.4437
4641.6,301917.1,-76.54565,68.4294
10000.0,145688.2,-87.23493,68.4283
