Frequency,Impedance,Phase Angle,Temperature (Dry Bath)
10.0,111278.9,-4.268134,67.0852
21.5,108995.7,-3.668895,67.0788
46.4,106551.9,-3.176059,67.0888
100.0,105225.3,-4.205009,67.0743
215.4,103819.7,-3.772927,67.0734
464.2,101870.9,-6.569228,67.0789
1000.0,96834.93,-8.463767,67.0819
2154.4,95916.18,-13.9303,67.0826
4641.6,85114.03,-23.34491,67.0614
10000.0,67335.73,-39.1356,67.0771
