Frequency,Impedance,Phase Angle,Temperature (Dry Bath)
10.0,46495530.0,-8.88336,68.4005
21.5,41269200.0,-26.42956,68.387
46.4,14675380.0,-46.88408,68.3809
100.0,7306507.0,-27.15538,68.3719
215.4,7033706.0,-73.25126,68.368
464.2,3374684.0,-93.57042,68.3926
1000.0,1277352.0,-83.5927,68.386
2154.4,680916.0,-88.44496,68.3846
4641.6,314696.8,-87.93094,68.3669
10000.0,162439.7,-97.16242,68.3704
