Frequency,Impedance,Phase Angle,Temperature (Dry Bath)
10.0,130610.1,-3.695191,67.0845
21.5,127810.7,-3.469212,67.0813
46.4,124011.7,-3.185976,67.065
100.0,120250.7,-3.855635,67.0733
215.4,120272.1,-4.063561,67.0866
464.2,114463.4,-6.198449,67.0822
1000.0,110695.5,-9.043852,67.0795
2154.4,104833.7,-15.74669,67.0791
4641.6,92344.57,-27.8557,67.087
10000.0,72315.77,-42.21361,67.0858
