Frequency,Impedance,Phase Angle,Temperature (Dry Bath)
10.0,4997452.0,4.223034,71.1249
21.544346900318832,5795663.0,-10.71399,71.1319
46.41588833612777,4736874.0,5.732531,71.138
100.0,652451.8,81.19318,71.1604
215.44346900318823,1304184.0,-143.8512,71.1316
464.15888336127773,301648.7,20.32048,71.1488
1000.0,113496.8,33.26346,71.147
2154.4346900318824,319024.1,-86.05592,71.1427
4641.588833612777,224106.0,-68.22415,71.1537
10000.0,196814.7,-83.21011,71.1628
