Frequency,Impedance,Phase Angle,Temperature (Dry Bath)
10.0,209264.7,-23.45214,67.4854
21.5,175553.1,-20.50042,67.44
46.4,151610.1,-17.71129,67.4604
100.0,132899.9,-15.39542,67.4551
215.4,105749.1,18.58336,67.4521
464.2,110673.1,-14.35045,67.4634
1000.0,100799.1,-16.19494,67.4638
2154.4,90433.04,-21.04498,67.4578
4641.6,76066.25,-29.04036,67.4786
10000.0,60364.42,-40.02453,67.4521
