Frequency,Impedance,Phase Angle,Temperature (Dry Bath)
10.0,533614.7,-28.8514,66.3352
21.544346900318832,403483.2,-25.81522,66.3224
46.41588833612777,337316.0,-24.39553,66.3388
100.0,205091.9,-26.43749,66.3004
215.44346900318823,191743.4,13.98387,66.3252
464.15888336127773,308419.1,-20.4568,66.3043
1000.0,143192.7,-47.7266,66.3391
2154.4346900318824,139213.8,-44.85448,66.31
4641.588833612777,85861.11,-53.78612,66.3067
10000.0,50043.31,-61.37028,66.2979
