Frequency,Impedance,Phase Angle,Temperature (Dry Bath)
10.0,148786.3,-13.98262,71.2965
21.544346900318832,133579.2,-13.08451,71.2845
46.41588833612777,121829.6,-12.41759,71.2808
100.0,102658.0,-17.59866,71.2833
215.44346900318823,113147.2,-18.72576,71.2642
464.15888336127773,84054.6,-6.067683,71.2834
1000.0,110809.1,-20.52584,71.2811
2154.4346900318824,107506.3,-29.5752,71.2959
4641.588833612777,62635.17,-21.4231,71.2716
10000.0,60313.18,-23.91422,71.2769
