Frequency,Impedance,Phase Angle,Temperature (Dry Bath)
10.0,148820.7,-4.971878,67.8982
21.5,145064.6,-4.223159,67.9074
46.4,141295.0,-3.858115,67.9005
100.0,134402.1,-4.199071,67.908
215.4,135801.4,-3.157402,67.9159
464.2,131857.5,-8.186608,67.8939
1000.0,130568.5,-10.36072,67.908
2154.4,120582.8,-17.39331,67.909
4641.6,113096.9,-26.99134,67.8914
10000.0,90443.2,-46.30371,67.9114
