Frequency,Impedance,Phase Angle,Temperature (Dry Bath)
10.0,27487400.0,-6.031694,67.3847
21.5,20586910.0,-41.77846,67.3849
46.4,16298300.0,-65.99059,67.386
100.0,5678338.0,-36.15044,67.3996
215.4,384536.1,124.0761,67.4
464.2,2642590.0,-83.085,67.3934
1000.0,1097842.0,-79.01407,67.3958
2154.4,562960.1,-89.93218,67.3842
4641.6,259432.9,-91.66363,67.3974
10000.0,125258.8,-85.33032,67.3835
