Frequency,Impedance,Phase Angle,Temperature (Dry Bath)
10.0,207826.2,-23.42575,67.49
21.5,174488.0,-20.57723,67.4942
46.4,150611.5,-17.72544,67.4908
100.0,129707.2,-17.23274,67.4947
215.4,76262.99,-51.37079,67.5022
464.2,111608.1,-13.07299,67.4912
1000.0,102022.2,-15.82485,67.494
2154.4,91882.11,-20.28118,67.4871
4641.6,77190.75,-28.51651,67.4931
10000.0,59314.21,-39.18834,67.4795
