Frequency,Impedance,Phase Angle,Temperature (Dry Bath)
10.0,131851.2,-3.843844,67.2571
21.5,129035.7,-3.524058,67.2533
46.4,126025.5,-3.41216,67.2628
100.0,121398.8,-3.037359,67.2692
215.4,108399.9,-2.609206,67.2647
464.2,119292.8,-5.31326,67.282
1000.0,111864.1,-8.958945,67.2647
2154.4,105506.1,-16.14747,67.2696
4641.6,93865.05,-26.59703,67.2599
10000.0,71026.75,-42.53177,67.2591
