Frequency,Impedance,Phase Angle,Temperature (Dry Bath)
10.0,131034.7,-3.786165,67.1234
21.5,128172.5,-3.516901,67.1333
46.4,124204.1,-3.528211,67.1354
100.0,120050.2,-4.260171,67.1313
215.4,109430.4,-13.91419,67.1557
464.2,115146.0,-7.496852,67.1375
1000.0,111347.4,-9.308316,67.1257
2154.4,106654.6,-16.35519,67.1332
4641.6,93347.62,-27.37555,67.1328
10000.0,71143.53,-42.3508,67.1436
