Frequency,Impedance,Phase Angle,Temperature (Dry Bath)
10.0,222784.7,-23.18127,67.1139
21.5,186731.1,-20.30001,67.1093
46.4,162204.1,-17.66348,67.1072
100.0,145461.0,-14.99724,67.1046
215.4,128197.9,-10.90311,67.1281
464.2,121042.2,-13.8003,67.0921
1000.0,108366.8,-16.10382,67.1082
2154.4,95946.19,-21.67693,67.1062
4641.6,79291.07,-30.17169,67.1125
10000.0,60934.76,-41.26529,67.0988
