Frequency,Impedance,Phase Angle,Temperature (Dry Bath)
10.0,5925524.0,0.5349176,71.4851
21.544346900318832,5516118.0,8.351803,71.4905
46.41588833612777,6164401.0,-22.3614,71.5015
100.0,535183.2,-97.64432,71.4905
215.44346900318823,1099133.0,-173.7725,71.4997
464.15888336127773,914113.8,-11.06347,71.4993
1000.0,2338135.0,-149.5582,71.4984
2154.4346900318824,489207.6,-55.0399,71.4774
4641.588833612777,203693.6,-94.47463,71.4847
10000.0,155652.4,-73.62285,71.4825
