Frequency,Impedance,Phase Angle,Temperature (Dry Bath)
10.0,125366.8,-4.15965,67.107
21.5,122844.3,-3.66917,67.1059
46.4,120581.0,-3.476742,67.1252
100.0,118200.5,-4.524913,67.1007
215.4,121144.4,-3.588431,67.109
464.2,114304.4,-6.771233,67.1082
1000.0,109989.7,-9.142135,67.0976
2154.4,103876.7,-15.78306,67.1203
4641.6,92743.02,-26.5812,67.0972
10000.0,71560.23,-42.51962,67.099
