Frequency,Impedance,Phase Angle,Temperature (Dry Bath)
10.0,5787798.0,-35.73314,70.8976
21.544346900318832,6462002.0,4.97864,70.9115
46.41588833612777,4521393.0,-4.325457,70.9084
100.0,501232.4,-37.22497,70.8974
215.44346900318823,556999.6,-90.80896,70.9067
464.15888336127773,1584378.0,75.04584,70.9066
1000.0,359214.4,-65.23391,70.9081
2154.4346900318824,250144.4,-58.87825,70.9098
4641.588833612777,138101.5,-91.67954,70.8953
10000.0,71202.53,-89.07933,70.9099
