Frequency,Impedance,Phase Angle,Temperature (Dry Bath)
10.0,1361417.0,-15.7478,67.755
21.5,1226187.0,-14.95285,67.7655
46.4,1175004.0,-14.02422,67.7574
100.0,963136.5,-17.72069,67.7527
215.4,1007826.0,-16.24854,67.7462
464.2,904067.4,-27.98453,67.7719
1000.0,703143.2,-39.84966,67.7548
2154.4,471611.1,-59.52395,67.7688
4641.6,257333.1,-73.63583,67.7751
10000.0,139434.8,-85.43508,67.7781
