Frequency,Impedance,Phase Angle,Temperature (Dry Bath)
10.0,5072709.0,-12.84467,68.0072
21.5,5495561.0,-10.43521,68.0224
46.4,6970504.0,-17.83555,68.0056
100.0,4337925.0,-29.22031,68.014
215.4,3584845.0,-29.43832,68.0114
464.2,3339756.0,-33.58554,68.0203
1000.0,1237517.0,-79.84954,68.0108
2154.4,629616.2,-82.86605,68.0015
4641.6,263940.0,-82.64683,67.994
10000.0,136068.6,-93.50034,68.0126
