Frequency,Impedance,Phase Angle,Temperature (Dry Bath)
10.0,4251110.0,-10.12137,70.9494
21.544346900318832,7683588.0,3.44896,70.923
46.41588833612777,4604117.0,-20.71209,70.9341
100.0,466037.4,4.088853,70.9288
215.44346900318823,735248.5,58.91051,70.9297
464.15888336127773,449622.1,142.3457,70.9297
1000.0,248873.4,-106.2677,70.9291
2154.4346900318824,380545.4,-78.76889,70.9424
4641.588833612777,131742.9,-92.47949,70.9357
10000.0,66093.62,-88.97498,70.9328
