Frequency,Impedance,Phase Angle,Temperature (Dry Bath)
10.0,7021988.0,-33.56954,66.3559
21.544346900318832,8112824.0,-50.08953,66.3548
46.41588833612777,4747174.0,-36.38983,66.3268
100.0,585273.4,-108.3434,66.3116
215.44346900318823,354108.5,1.105927,66.3066
464.15888336127773,1026015.0,-39.11118,66.297
1000.0,514608.4,-28.78487,66.3088
2154.4346900318824,291723.4,-71.78763,66.3035
4641.588833612777,143227.2,-88.06253,66.3218
10000.0,65139.57,-91.05367,66.3275
