Frequency,Impedance,Phase Angle,Temperature (Dry Bath)
10.0,26435010.0,3.668915,68.0127
21.5,14953120.0,-23.43914,68.0104
46.4,13040480.0,-51.28737,68.0261
100.0,4301194.0,3.065039,68.0219
215.4,2538745.0,-74.29356,68.0345
464.2,2110119.0,-73.50699,68.0185
1000.0,1325811.0,-88.4162,68.03
2154.4,564933.4,-88.64271,68.0217
4641.6,258618.1,-87.96566,68.0219
10000.0,129671.6,-99.52441,68.0331
