Frequency,Impedance,Phase Angle,Temperature (Dry Bath)
10.0,25271610.0,-17.35165,67.3929
21.5,24820240.0,-34.74416,67.39
46.4,20206090.0,-57.80703,67.4027
100.0,14397310.0,-110.6769,67.3951
215.4,2755236.0,134.0992,67.4033
464.2,2002999.0,-85.99031,67.404
1000.0,1091391.0,-84.43269,67.4012
2154.4,529491.9,-87.76332,67.3786
4641.6,256070.0,-85.04855,67.3809
10000.0,124639.4,-84.55579,67.4014
