Frequency,Impedance,Phase Angle,Temperature (Dry Bath)
10.0,5436396.0,3.536573,70.9952
21.544346900318832,5595722.0,-55.69956,70.9814
46.41588833612777,5248087.0,2.677179,71.0011
100.0,884735.4,-96.06732,71.0099
215.44346900318823,1678951.0,-157.0487,70.988
464.15888336127773,334162.6,-48.2554,70.9912
1000.0,548401.1,75.9581,70.993
2154.4346900318824,279226.7,-155.7781,71.0172
4641.588833612777,894956.8,-66.19607,70.9989
10000.0,138659.8,-71.76336,70.9848
