Frequency,Impedance,Phase Angle,Temperature (Dry Bath)
10.0,6649845.0,10.88772,71.1795
21.544346900318832,4185994.0,-11.04451,71.1737
46.41588833612777,4935848.0,-38.14056,71.1867
100.0,340569.7,-19.89793,71.172
215.44346900318823,979406.7,121.8208,71.1798
464.15888336127773,1039108.0,-85.68107,71.1732
1000.0,1103431.0,-156.9141,71.194
2154.4346900318824,378834.8,-87.76529,71.1691
4641.588833612777,129152.5,-89.61125,71.1838
10000.0,64597.71,-84.7732,71.1814
