Frequency,Impedance,Phase Angle,Temperature (Dry Bath)
10.0,29531450.0,-11.96845,67.1806
21.5,25288000.0,-41.15481,67.1731
46.4,28903410.0,-54.06922,67.1847
100.0,2821453.0,10.86687,67.1787
215.4,261319.6,-142.5805,67.1832
464.2,2724404.0,-77.87785,67.1966
1000.0,1032353.0,-80.46918,67.1875
2154.4,505860.9,-87.81702,67.2005
4641.6,248247.5,-87.62696,67.2009
10000.0,125091.6,-84.46153,67.1837
