Frequency,Impedance,Phase Angle,Temperature (Dry Bath)
10.0,5387907.0,6.631297,71.0475
21.544346900318832,3501805.0,-12.13922,71.0705
46.41588833612777,5467270.0,-30.8512,71.056
100.0,1180821.0,-12.84877,71.0687
215.44346900318823,418129.9,-87.25522,71.0761
464.15888336127773,890062.0,-109.8069,71.0621
1000.0,493597.6,-45.91032,71.0523
2154.4346900318824,355865.4,-102.5195,71.0461
4641.588833612777,143241.2,-75.40169,71.0537
10000.0,66780.4,-84.47152,71.0598
