Frequency,Impedance,Phase Angle,Temperature (Dry Bath)
10.0,40341920.0,-29.59539,68.1706
21.5,34540520.0,-8.726197,68.1596
46.4,17680150.0,-42.61796,68.1527
100.0,6364247.0,-41.29303,68.1531
215.4,8425576.0,-96.91193,68.1481
464.2,3544683.0,-73.89436,68.1459
1000.0,1575802.0,-79.68362,68.1299
2154.4,645805.9,-86.42346,68.1236
4641.6,353902.6,-85.49801,68.1349
10000.0,160056.0,-101.178,68.1182
