Frequency,Impedance,Phase Angle,Temperature (Dry Bath)
10.0,27274080.0,4.191027,68.0523
21.5,18919310.0,-21.07681,68.0523
46.4,15490810.0,-45.39933,68.0523
100.0,4238454.0,-22.03089,68.0523
215.4,8451071.0,-97.7396,68.0523
464.2,2852913.0,-73.49893,68.0523
1000.0,1522672.0,-84.09429,68.0523
2154.4,751933.0,-87.71313,68.0523
4641.6,310350.4,-94.14266,68.0523
10000.0,157716.2,-95.15795,68.0523
