Frequency,Impedance,Phase Angle,Temperature (Dry Bath)
10.0,26927450.0,-37.95452,67.2471
21.5,19835610.0,-17.04591,67.2412
46.4,19486500.0,-10.1169,67.2526
100.0,22406510.0,-15.55657,67.2451
215.4,687047.3,-179.0216,67.2314
464.2,2525514.0,-92.66251,67.2538
1000.0,1065980.0,-79.76647,67.2335
2154.4,535323.1,-93.42403,67.2323
4641.6,242790.8,-92.401,67.2438
10000.0,122831.1,-86.85495,67.2473
