Frequency,Impedance,Phase Angle,Temperature (Dry Bath)
10.0,24138820.0,-7.223352,67.9687
21.5,24324130.0,-28.48309,67.9687
46.4,27810750.0,-46.33783,67.9687
100.0,8112746.0,-56.93791,67.9687
215.4,4394002.0,-100.2557,67.9687
464.2,2944998.0,-79.60799,67.9687
1000.0,1173290.0,-77.67543,67.9687
2154.4,697743.4,-89.88492,67.9687
4641.6,313434.4,-87.11692,67.9687
10000.0,137533.8,-93.66105,67.9687
