Frequency,Impedance,Phase Angle,Temperature (Dry Bath)
10.0,4819432.0,7.86204,71.4571
21.544346900318832,8771562.0,-47.27223,71.4526
46.41588833612777,4588469.0,-13.95114,71.4464
100.0,1277750.0,-127.6228,71.4485
215.44346900318823,1581920.0,-121.4971,71.4331
464.15888336127773,726723.8,-47.95698,71.454
1000.0,498202.6,137.2799,71.4577
2154.4346900318824,411793.9,-114.9443,71.4516
4641.588833612777,238324.8,-80.07025,71.457
10000.0,165548.1,-96.35636,71.4416
