Frequency,Impedance,Phase Angle,Temperature (Dry Bath)
10.0,19370300.0,-19.65663,68.0984
21.5,22067100.0,-39.42489,68.0804
46.4,17412810.0,-49.9973,68.08
100.0,5267386.0,-16.33276,68.0786
215.4,4729207.0,-68.76428,68.0961
464.2,2553153.0,-99.59046,68.1039
1000.0,1228645.0,-82.47492,68.0873
2154.4,598790.7,-86.62509,68.0909
4641.6,273990.4,-90.28401,68.1001
10000.0,135654.5,-98.00668,68.084
