Frequency,Impedance,Phase Angle,Temperature (Dry Bath)
10.0,18084350.0,-23.12765,67.9962
21.5,17900280.0,-31.23246,67.9962
46.4,19706670.0,-36.78504,67.9962
100.0,5713605.0,-37.51921,67.9962
215.4,4082125.0,-78.26504,67.9962
464.2,2256560.0,-92.00541,67.9962
1000.0,1367509.0,-85.19225,67.9962
2154.4,678719.9,-86.65158,67.9962
4641.6,319435.4,-85.1792,67.9962
10000.0,148466.7,-97.61791,67.9962
