Frequency,Impedance,Phase Angle,Temperature (Dry Bath)
10.0,204381.2,-23.68908,67.4376
21.5,171093.5,-20.5559,67.4473
46.4,149063.8,-17.07865,67.4429
100.0,130041.7,-16.23762,67.4142
215.4,184027.4,-44.2631,67.4324
464.2,111301.4,-12.97127,67.4248
1000.0,99007.77,-15.66542,67.4258
2154.4,89963.23,-19.30745,67.4103
4641.6,77177.29,-28.26514,67.4115
10000.0,58847.23,-38.92583,67.4077
