Frequency,Impedance,Phase Angle,Temperature (Dry Bath)
10.0,6804814.0,-1.323788,67.3757
21.5,7276066.0,-16.37465,67.383
46.4,5468080.0,-33.44492,67.3779
100.0,3949430.0,-20.35255,67.3658
215.4,215793.3,168.8996,67.3826
464.2,1831564.0,-63.65387,67.4043
1000.0,1016447.0,-75.71041,67.3758
2154.4,553340.9,-91.3533,67.3675
4641.6,277820.0,-84.35395,67.3739
10000.0,125349.0,-84.29943,67.3676
