Frequency,Impedance,Phase Angle,Temperature (Dry Bath)
10.0,28019370.0,-18.19343,68.2106
21.5,25653320.0,-4.692842,68.2015
46.4,13010420.0,-46.91199,68.1832
100.0,21486210.0,-51.17897,68.1887
215.4,5012780.0,-95.63771,68.1884
464.2,2072804.0,-82.0392,68.1829
1000.0,1179252.0,-74.45449,68.1702
2154.4,659118.4,-92.59316,68.1855
4641.6,288725.2,-90.77727,68.165
10000.0,146892.0,-94.94771,68.1525
