Frequency,Impedance,Phase Angle,Temperature (Dry Bath)
10.0,4517086.0,-11.87314,70.985
21.544346900318832,9418272.0,-17.388,70.9914
46.41588833612777,7121693.0,-29.78507,70.9773
100.0,277061.2,58.58948,70.9845
215.44346900318823,582169.9,146.4962,70.9849
464.15888336127773,874193.9,-81.64061,70.9833
1000.0,381629.0,-41.3585,70.9879
2154.4346900318824,426107.0,-106.1145,70.9715
4641.588833612777,158941.0,-79.84741,71.0016
10000.0,63809.62,-90.18088,70.9787
