Frequency,Impedance,Phase Angle,Temperature (Dry Bath)
10.0,1408398.0,-15.42874,68.0992
21.5,1294655.0,-13.49302,68.0967
46.4,1142101.0,-12.97757,68.0914
100.0,870840.9,-6.959781,68.0872
215.4,909310.8,-19.99571,68.0972
464.2,965127.7,-26.27518,68.0841
1000.0,681552.2,-39.89132,68.0869
2154.4,463028.4,-55.23961,68.0762
4641.6,284676.8,-69.17837,68.0834
10000.0,147143.7,-87.5043,68.0794
