Frequency,Impedance,Phase Angle,Temperature (Dry Bath)
10.0,134340.2,-3.782011,67.3821
21.5,131607.8,-3.561648,67.3617
46.4,128464.4,-3.331972,67.3732
100.0,125498.5,-3.410818,67.3798
215.4,122178.4,-3.816979,67.3781
464.2,120833.7,-7.928958,67.3737
1000.0,114234.1,-10.73905,67.3853
2154.4,108837.7,-16.51838,67.3743
4641.6,96779.88,-27.09483,67.3669
10000.0,72992.25,-43.57219,67.3724
