Frequency,Impedance,Phase Angle,Temperature (Dry Bath)
10.0,28076120.0,-42.68876,67.1866
21.5,23600940.0,-39.44133,67.2074
46.4,12545830.0,-78.00249,67.1874
100.0,5912539.0,-10.57647,67.1956
215.4,179834.0,-23.5206,67.1884
464.2,1528236.0,-74.96818,67.1783
1000.0,888515.6,-73.17878,67.2021
2154.4,422350.3,-82.36187,67.1736
4641.6,219885.6,-81.50621,67.1823
10000.0,109045.0,-79.66042,67.1848
