Frequency,Impedance,Phase Angle,Temperature (Dry Bath)
10.0,36645130.0,1.755753,67.5684
21.5,26403630.0,-23.88778,67.5603
46.4,18773160.0,-50.29279,67.5666
100.0,3818493.0,-49.67876,67.5641
215.4,99629.67,78.78394,67.5631
464.2,2009212.0,-84.26476,67.553
1000.0,1378663.0,-81.69564,67.559
2154.4,590626.9,-87.71437,67.5735
4641.6,268386.3,-85.28878,67.5734
10000.0,130593.0,-83.75679,67.5715
