Frequency,Impedance,Phase Angle,Temperature (Dry Bath)
10.0,47799520.0,-7.969836,67.1101
21.5,29286010.0,-42.96749,67.1221
46.4,15609900.0,-52.32621,67.1188
100.0,5121779.0,-9.960939,67.0987
215.4,2719654.0,-114.9672,67.1106
464.2,2829725.0,-89.80918,67.1129
1000.0,1182166.0,-86.3726,67.1074
2154.4,523370.9,-84.60855,67.106
4641.6,256314.1,-85.64852,67.1241
10000.0,118465.0,-86.18896,67.1003
