Frequency,Impedance,Phase Angle,Temperature (Dry Bath)
10.0,7032420.0,-6.280964,65.6325
21.544346900318832,5691243.0,-10.90447,65.6631
46.41588833612777,5451122.0,-13.59517,65.6502
100.0,603928.6,17.01406,65.6532
215.44346900318823,49409.82,-24.0252,65.6321
464.15888336127773,465983.1,-108.6163,65.6541
1000.0,871892.6,-47.09233,65.6496
2154.4346900318824,378529.9,-103.4077,65.6588
4641.588833612777,174270.8,-87.14067,65.6525
10000.0,69553.98,-79.22928,65.669
