Frequency,Impedance,Phase Angle,Temperature (Dry Bath)
10.0,7074317.0,-4.241792,71.3168
21.544346900318832,6629840.0,-3.125421,71.3411
46.41588833612777,4389888.0,-17.03874,71.3336
100.0,1406482.0,-111.9706,71.3245
215.44346900318823,3725638.0,68.18019,71.3262
464.15888336127773,827211.2,-109.5832,71.3453
1000.0,399612.5,-80.80583,71.3312
2154.4346900318824,442916.7,-67.64972,71.3334
4641.588833612777,247244.7,-99.71542,71.3355
10000.0,104526.6,-81.76797,71.3136
