Frequency,Impedance,Phase Angle,Temperature (Dry Bath)
10.0,729737.8,-11.39549,67.6521
21.5,681475.7,-10.88735,67.6603
46.4,636157.4,-10.76349,67.6574
100.0,520265.2,-14.80414,67.6687
215.4,550807.3,-15.30505,67.6707
464.2,475578.5,-22.31715,67.6778
1000.0,424327.0,-27.96847,67.6658
2154.4,318227.0,-40.08648,67.6722
4641.6,220185.6,-58.09684,67.6657
10000.0,120924.4,-73.91212,67.669
