Frequency,Impedance,Phase Angle,Temperature (Dry Bath)
10.0,28433080.0,-35.92944,67.3731
21.5,22320360.0,-35.55373,67.3788
46.4,20843240.0,-50.1756,67.37
100.0,7887870.0,-12.45289,67.3679
215.4,2289202.0,13.86735,67.3767
464.2,2217834.0,-80.32816,67.3567
1000.0,1165469.0,-73.47954,67.3714
2154.4,569350.1,-80.20948,67.3553
4641.6,259636.5,-87.79149,67.3737
10000.0,126403.4,-85.85273,67.3592
