Frequency,Impedance,Phase Angle,Temperature (Dry Bath)
10.0,3854678.0,-7.536308,66.3918
21.544346900318832,3632894.0,1.982197,66.3638
46.41588833612777,3598516.0,-28.50881,66.3757
100.0,1002973.0,23.37196,66.3418
215.44346900318823,777163.3,4.33759,66.3791
464.15888336127773,548208.3,86.02099,66.3648
1000.0,652115.1,-83.99609,66.3652
2154.4346900318824,282467.6,-91.2435,66.3594
4641.588833612777,188733.7,-70.00933,66.3403
10000.0,65160.79,-84.8615,66.3412
