Frequency,Impedance,Phase Angle,Temperature (Dry Bath)
10.0,1408472.0,-14.949,68.0604
21.5,1250561.0,-13.1447,68.0717
46.4,1160801.0,-13.27563,68.0648
100.0,934876.1,-8.033647,68.0758
215.4,890777.3,-19.14038,68.0479
464.2,861475.4,-18.79133,68.0624
1000.0,726636.6,-37.83619,68.0662
2154.4,494482.2,-55.93421,68.055
4641.6,249273.2,-74.90866,68.0631
10000.0,132171.2,-88.14648,68.059
