Frequency,Impedance,Phase Angle,Temperature (Dry Bath)
10.0,4639693.0,-44.47644,69.7223
21.544346900318832,4382954.0,3.766288,69.7272
46.41588833612777,3533627.0,-30.37313,69.728
100.0,1027978.0,-149.882,69.7275
215.44346900318823,1331608.0,138.8244,69.725
464.15888336127773,963499.8,163.9657,69.7119
1000.0,443242.2,-21.0236,69.7295
2154.4346900318824,251746.3,-110.1486,69.7287
4641.588833612777,119583.6,-80.90432,69.7147
10000.0,57562.56,-86.21362,69.7283
