Frequency,Impedance,Phase Angle,Temperature (Dry Bath)
10.0,30514570.0,-11.51186,67.3056
21.5,26953610.0,-38.40453,67.3272
46.4,17215180.0,-50.86067,67.3008
100.0,2824125.0,-88.13844,67.313
215.4,10946770.0,-163.2365,67.3189
464.2,2158485.0,-70.49453,67.3174
1000.0,976242.0,-74.59156,67.3096
2154.4,590617.9,-80.315,67.2811
4641.6,254049.9,-84.84664,67.2854
10000.0,129786.6,-82.16613,67.303
