Frequency,Impedance,Phase Angle,Temperature (Dry Bath)
10.0,30487870.0,-19.54821,67.0277
21.5,32715640.0,-13.07251,67.0437
46.4,16454420.0,-48.21908,67.057
100.0,16359050.0,37.03998,67.0229
215.4,2808941.0,-71.54199,67.0298
464.2,3734727.0,-78.86084,67.0493
1000.0,1176929.0,-83.66677,67.0387
2154.4,537577.7,-86.80127,67.0368
4641.6,280897.1,-88.97265,67.0438
10000.0,133252.6,-85.32787,67.0359
