Frequency,Impedance,Phase Angle,Temperature (Dry Bath)
10.0,19565970.0,-29.16111,68.2711
21.5,21560190.0,-48.64856,68.2604
46.4,22556610.0,-52.7811,68.2654
100.0,7957500.0,-17.44426,68.272
215.4,3977129.0,-72.72803,68.2718
464.2,3513022.0,-76.72108,68.2803
1000.0,1176279.0,-87.70889,68.2771
2154.4,662117.6,-86.33703,68.2572
4641.6,319762.3,-87.15103,68.2731
10000.0,147048.7,-93.37403,68.2526
