Frequency,Impedance,Phase Angle,Temperature (Dry Bath)
10.0,3692893.0,1.577035,71.0156
21.544346900318832,3778311.0,-12.56869,71.0163
46.41588833612777,5878118.0,-27.7971,71.0182
100.0,465718.4,-68.32956,71.0338
215.44346900318823,315177.0,-92.64576,71.0186
464.15888336127773,1072393.0,106.0715,71.0147
1000.0,1063989.0,-107.1659,71.0271
2154.4346900318824,475558.7,-68.39526,71.0155
4641.588833612777,161921.5,-90.19418,71.0282
10000.0,60326.99,-87.09934,71.0324
