Frequency,Impedance,Phase Angle,Temperature (Dry Bath)
10.0,45571170.0,-25.5345,68.031
21.5,28685950.0,-39.25839,68.031
46.4,10787510.0,-50.38238,68.031
100.0,8377250.0,-44.88789,68.031
215.4,4444757.0,-74.76097,68.031
464.2,2493078.0,-95.92928,68.031
1000.0,1331272.0,-82.32528,68.031
2154.4,595787.8,-88.69524,68.031
4641.6,276793.7,-89.78049,68.031
10000.0,134106.1,-93.7032,68.031
