Frequency,Impedance,Phase Angle,Temperature (Dry Bath)
10.0,124594.9,-3.819386,67.4093
21.5,121044.0,-3.176545,67.4001
46.4,118743.7,-3.176888,67.415
100.0,116386.1,-3.581445,67.3985
215.4,167018.9,-6.37631,67.3933
464.2,112834.6,-5.169986,67.3856
1000.0,106085.6,-8.844149,67.396
2154.4,100758.1,-15.37835,67.4013
4641.6,89308.07,-25.70662,67.397
10000.0,70677.39,-40.23296,67.3728
