Frequency,Impedance,Phase Angle,Temperature (Dry Bath)
10.0,18098390.0,-4.753558,68.1449
21.5,19028760.0,-38.56076,68.1485
46.4,22127070.0,-49.70604,68.1234
100.0,10078660.0,-40.0107,68.1411
215.4,4781599.0,-74.21569,68.1385
464.2,2272595.0,-69.15732,68.1501
1000.0,1185897.0,-83.26373,68.1297
2154.4,636935.1,-90.14764,68.1404
4641.6,305036.7,-88.8074,68.1558
10000.0,141838.2,-97.56803,68.1304
