Frequency,Impedance,Phase Angle,Temperature (Dry Bath)
10.0,114784.8,-15.88429,68.0106
21.5,102412.4,-13.62194,68.0148
46.4,93342.98,-12.07281,68.0085
100.0,83445.05,-10.32194,68.0105
215.4,79594.79,-9.361119,68.0115
464.2,74809.99,-9.700802,68.0176
1000.0,70734.54,-11.3332,68.0044
2154.4,64803.33,-14.24492,68.0103
4641.6,58569.95,-20.3704,68.0204
10000.0,53030.71,-32.37288,68.0214
