Frequency,Impedance,Phase Angle,Temperature (Dry Bath)
10.0,1484000.0,-16.1931,68.3279
21.5,1384748.0,-14.92014,68.3376
46.4,1287356.0,-13.56795,68.3252
100.0,1066549.0,-13.22147,68.3298
215.4,1105981.0,-9.111562,68.3526
464.2,926819.9,-24.42735,68.3235
1000.0,701690.4,-39.09821,68.3506
2154.4,500781.7,-53.7525,68.3484
4641.6,251986.3,-76.38481,68.3405
10000.0,130411.6,-84.26418,68.3433
