Frequency,Impedance,Phase Angle,Temperature (Dry Bath)
10.0,27168670.0,-21.47056,67.4682
21.5,32324800.0,-40.95858,67.4651
46.4,20422550.0,-52.39658,67.4766
100.0,3628689.0,-16.84505,67.4716
215.4,466659.4,161.623,67.4722
464.2,3946839.0,-87.08582,67.4684
1000.0,1115291.0,-79.08847,67.4743
2154.4,614758.4,-83.54454,67.4701
4641.6,279328.4,-89.35456,67.476
10000.0,125799.0,-86.42172,67.4653
