Frequency,Impedance,Phase Angle,Temperature (Dry Bath)
10.0,1720580.0,-9.494891,67.7893
21.5,1614416.0,-10.12687,67.7895
46.4,1518660.0,-11.27333,67.79
100.0,1308571.0,-13.24226,67.7837
215.4,1260714.0,-18.91795,67.7735
464.2,1091600.0,-33.04557,67.7825
1000.0,762817.4,-43.88119,67.7898
2154.4,494740.0,-59.89152,67.8004
4641.6,298718.9,-73.94883,67.7985
10000.0,126053.4,-86.93731,67.7731
