Frequency,Impedance,Phase Angle,Temperature (Dry Bath)
10.0,4310097.0,-18.58551,71.4074
21.544346900318832,4473151.0,-26.34275,71.3847
46.41588833612777,3500027.0,-13.6853,71.4107
100.0,278049.7,128.4729,71.4116
215.44346900318823,11039.8,137.4988,71.401
464.15888336127773,2509697.0,30.28881,71.4235
1000.0,293293.7,-68.12265,71.4152
2154.4346900318824,403288.5,-91.51836,71.3892
4641.588833612777,152390.5,-86.27561,71.4095
10000.0,63207.25,-83.82794,71.4063
