Frequency,Impedance,Phase Angle,Temperature (Dry Bath)
10.0,34957300.0,8.598229,67.299
21.5,25735260.0,-26.53373,67.2747
46.4,18153890.0,-55.31874,67.3027
100.0,3567599.0,-64.20163,67.2888
215.4,11657650.0,-88.83735,67.2767
464.2,2022356.0,-66.27946,67.2975
1000.0,1865593.0,-77.94787,67.2762
2154.4,646429.8,-91.10735,67.2628
4641.6,272824.1,-88.67308,67.271
10000.0,132763.0,-87.07164,67.273
