Frequency,Impedance,Phase Angle,Temperature (Dry Bath)
10.0,27918270.0,-13.84339,67.3147
21.5,34053440.0,-35.14004,67.3122
46.4,12557530.0,-32.47014,67.3118
100.0,2940528.0,-23.62442,67.303
215.4,312178.6,-19.83864,67.315
464.2,4483113.0,-89.57413,67.3083
1000.0,1220680.0,-86.85814,67.3189
2154.4,548727.1,-88.84666,67.296
4641.6,255405.1,-85.09182,67.2987
10000.0,123235.3,-86.95022,67.3281
