Frequency,Impedance,Phase Angle,Temperature (Dry Bath)
10.0,41217500.0,-14.1594,67.3225
21.5,26809840.0,-25.98534,67.338
46.4,9707963.0,-69.14464,67.323
100.0,5981393.0,-31.60866,67.3347
215.4,1038374.0,-99.42467,67.3272
464.2,2091260.0,-75.94434,67.3157
1000.0,1302898.0,-77.72307,67.3344
2154.4,541432.1,-92.07074,67.3399
4641.6,249047.5,-84.51982,67.341
10000.0,122019.6,-86.13735,67.3482
