Frequency,Impedance,Phase Angle,Temperature (Dry Bath)
10.0,38264950.0,-19.07873,66.9889
21.5,24210610.0,-39.38364,66.9839
46.4,18511410.0,-47.0991,66.9777
100.0,3678588.0,34.30686,67.0007
215.4,2256189.0,-93.16159,66.9944
464.2,3316770.0,-89.32147,66.9916
1000.0,1134058.0,-81.48442,66.9989
2154.4,561111.7,-85.25549,66.9889
4641.6,276151.9,-86.12905,66.9921
10000.0,131484.3,-87.29712,66.995
