Frequency,Impedance,Phase Angle,Temperature (Dry Bath)
10.0,23542090.0,-5.121737,67.4857
21.5,27805980.0,-29.56693,67.4903
46.4,18614990.0,-30.20406,67.4908
100.0,8639807.0,-69.44303,67.4787
215.4,395245.9,-169.6745,67.4894
464.2,2554283.0,-83.56117,67.4642
1000.0,1065347.0,-85.57695,67.4736
2154.4,558668.1,-89.15126,67.4843
4641.6,268273.3,-85.39561,67.4818
10000.0,125791.3,-86.02477,67.4773
