Frequency,Impedance,Phase Angle,Temperature (Dry Bath)
10.0,22693510.0,-9.583689,68.0848
21.5,24498080.0,-27.04745,68.0848
46.4,17756670.0,-59.3047,68.0848
100.0,8043217.0,-36.41564,68.0848
215.4,4115539.0,-75.74805,68.0848
464.2,2459803.0,-74.87513,68.0848
1000.0,1087159.0,-78.92171,68.0848
2154.4,571321.3,-85.07918,68.0848
4641.6,258849.9,-92.20061,68.0848
10000.0,134898.4,-95.0022,68.0848
