Frequency,Impedance,Phase Angle,Temperature (Dry Bath)
10.0,7009084.0,-15.05706,71.3602
21.544346900318832,4178606.0,-7.165419,71.3606
46.41588833612777,5111073.0,-20.06456,71.3644
100.0,688235.2,-45.85097,71.3474
215.44346900318823,2616536.0,34.64221,71.3467
464.15888336127773,535070.1,-78.52219,71.3587
1000.0,2326410.0,119.2184,71.3589
2154.4346900318824,675021.1,-15.19147,71.344
4641.588833612777,258403.8,-72.0036,71.3479
10000.0,123042.0,-86.75263,71.3469
