Frequency,Impedance,Phase Angle,Temperature (Dry Bath)
10.0,80352.26,-36.71297,71.2541
21.544346900318832,60051.76,-32.85905,71.2502
46.41588833612777,46051.76,-28.52821,71.2489
100.0,35992.45,-24.01147,71.2319
215.44346900318823,29303.07,-22.89306,71.2341
464.15888336127773,26980.69,-20.48091,71.2356
1000.0,22680.89,-15.89285,71.2277
2154.4346900318824,20782.38,-16.57264,71.2321
4641.588833612777,18759.53,-18.148,71.2318
10000.0,16190.28,-21.26034,71.2339
