Frequency,Impedance,Phase Angle,Temperature (Dry Bath)
10.0,33398040.0,-3.077814,68.031
21.5,33700550.0,-10.34457,68.031
46.4,13371720.0,-47.50516,68.031
100.0,3883850.0,-45.30936,68.031
215.4,5043953.0,-66.58278,68.031
464.2,2733047.0,-90.75182,68.031
1000.0,1319199.0,-85.20771,68.031
2154.4,650710.2,-84.66452,68.031
4641.6,327971.4,-95.56546,68.031
10000.0,146139.9,-96.20034,68.031
