Frequency,Impedance,Phase Angle,Temperature (Dry Bath)
10.0,20616080.0,-20.97787,68.1428
21.5,25096970.0,-36.47537,68.1489
46.4,23331590.0,-50.94312,68.1439
100.0,8996542.0,-28.51068,68.1443
215.4,3883782.0,-83.43263,68.1418
464.2,1960648.0,-83.46473,68.1421
1000.0,1176757.0,-82.5163,68.1541
2154.4,560282.4,-84.57164,68.1416
4641.6,261835.3,-88.93361,68.1406
10000.0,129142.1,-97.60396,68.1566
