Frequency,Impedance,Phase Angle,Temperature (Dry Bath)
10.0,208749.2,-23.43089,67.4331
21.5,175555.0,-20.50076,67.4244
46.4,151620.1,-17.70562,67.4281
100.0,133679.7,-15.27476,67.4219
215.4,100096.9,-11.43778,67.439
464.2,113167.9,-14.2667,67.4384
1000.0,101533.2,-15.60668,67.4404
2154.4,91241.56,-20.15578,67.4376
4641.6,76849.15,-28.89779,67.4401
10000.0,60294.42,-40.68838,67.4274
