Frequency,Impedance,Phase Angle,Temperature (Dry Bath)
10.0,232092.4,-22.51868,66.9967
21.5,196264.8,-19.98109,66.9987
46.4,170237.9,-17.60746,67.0146
100.0,154754.3,-14.97414,66.9999
215.4,139555.7,-51.21664,67.0
464.2,121412.9,-15.55412,67.0001
1000.0,112261.5,-17.58256,66.996
2154.4,99093.16,-21.74818,66.9994
4641.6,82960.29,-30.35098,67.0251
10000.0,62312.95,-42.22619,67.0198
