Frequency,Impedance,Phase Angle,Temperature (Dry Bath)
10.0,32950880.0,-23.00344,67.4774
21.5,21755490.0,-32.78927,67.4782
46.4,13080950.0,-17.92874,67.4876
100.0,3333498.0,46.40133,67.4907
215.4,595988.0,159.6807,67.4831
464.2,2509709.0,-91.63598,67.5016
1000.0,1071550.0,-87.3117,67.4883
2154.4,512229.2,-87.67322,67.4906
4641.6,254220.8,-83.17916,67.4924
10000.0,121408.1,-85.9874,67.4965
