Frequency,Impedance,Phase Angle,Temperature (Dry Bath)
10.0,5256056.0,-15.54931,70.9166
21.544346900318832,3493892.0,-16.03171,70.9336
46.41588833612777,5266239.0,-9.127481,70.9249
100.0,431886.6,36.83667,70.9221
215.44346900318823,389112.5,-132.7318,70.9426
464.15888336127773,650537.5,-110.8684,70.9313
1000.0,357705.3,-114.8094,70.9411
2154.4346900318824,317499.1,-70.65091,70.9347
4641.588833612777,131845.7,-76.62322,70.9175
10000.0,61059.72,-88.46291,70.9208
