Frequency,Impedance,Phase Angle,Temperature (Dry Bath)
10.0,29243720.0,-16.50571,68.1141
21.5,31708490.0,-32.52169,68.1141
46.4,31584790.0,-49.07029,68.1141
100.0,5750910.0,-19.46254,68.1141
215.4,4322887.0,-87.73072,68.1141
464.2,2327477.0,-76.06457,68.1141
1000.0,1335094.0,-82.80427,68.1141
2154.4,628657.9,-89.51282,68.1141
4641.6,311579.2,-94.80809,68.1141
10000.0,145195.8,-93.78277,68.1141
