Frequency,Impedance,Phase Angle,Temperature (Dry Bath)
10.0,1426245.0,-14.9742,68.1209
21.5,1281387.0,-13.56082,68.1095
46.4,1123573.0,-13.17494,68.1311
100.0,1007152.0,-15.29407,68.1181
215.4,828146.8,-13.69206,68.1141
464.2,819690.2,-29.40757,68.1032
1000.0,653381.0,-38.49894,68.1178
2154.4,504117.2,-55.10569,68.1267
4641.6,262815.4,-72.16745,68.1186
10000.0,133654.2,-88.8294,68.114
