Frequency,Impedance,Phase Angle,Temperature (Dry Bath)
10.0,2468810.0,-5.446455,71.4377
21.544346900318832,2790537.0,-32.19776,71.4513
46.41588833612777,2052361.0,-20.721,71.443
100.0,452233.1,74.20069,71.4383
215.44346900318823,679126.4,-24.41116,71.4329
464.15888336127773,457886.1,-77.35288,71.4447
1000.0,356051.7,-73.91509,71.4675
2154.4346900318824,322808.6,-82.12924,71.4314
4641.588833612777,136003.1,-84.06459,71.438
10000.0,68490.78,-88.17273,71.4458
