Frequency,Impedance,Phase Angle,Temperature (Dry Bath)
10.0,25783390.0,-10.51235,67.3966
21.5,22210350.0,-19.29869,67.4268
46.4,19459810.0,-52.13863,67.4195
100.0,3630848.0,7.433618,67.4305
215.4,2544519.0,-54.16548,67.4218
464.2,2160770.0,-83.84499,67.4055
1000.0,1001698.0,-79.29892,67.4251
2154.4,528963.6,-82.92778,67.4429
4641.6,262657.2,-86.00939,67.4181
10000.0,124222.4,-84.08027,67.4251
