Frequency,Impedance,Phase Angle,Temperature (Dry Bath)
10.0,9914746.0,-16.8398,67.1
21.544346900318832,8230835.0,-28.08441,67.1
46.41588833612777,8103487.0,-20.63365,67.1
100.0,3922569.0,6.988616,67.1
215.44346900318823,3542787.0,17.33463,67.1
464.15888336127773,6032805.0,11.37258,67.1
1000.0,2029627.0,-27.89149,67.1
2154.4346900318824,4425370.0,-71.6374,67.1
4641.588833612777,9481228.0,21.98104,67.1
10000.0,2232691.0,-42.48354,67.1
