Frequency,Impedance,Phase Angle,Temperature (Dry Bath)
10.0,106862.7,-14.69913,67.9467
21.5,96073.61,-12.5791,67.9474
46.4,87899.64,-11.3871,67.9525
100.0,80693.97,-9.737748,67.9543
215.4,75082.66,-9.883124,67.955
464.2,72365.77,-10.01133,67.9462
1000.0,67723.69,-11.72024,67.9383
2154.4,62377.8,-13.39694,67.9469
4641.6,55208.26,-21.92473,67.9596
10000.0,48043.79,-32.98129,67.9421
