Frequency,Impedance,Phase Angle,Temperature (Dry Bath)
10.0,6439365.0,14.62684,70.908
21.544346900318832,6382543.0,-26.29836,70.9037
46.41588833612777,4214649.0,-39.54523,70.9013
100.0,334987.7,-3.223506,70.9164
215.44346900318823,1176994.0,-73.17972,70.8994
464.15888336127773,1216653.0,110.0028,70.9004
1000.0,499396.9,-77.17314,70.9005
2154.4346900318824,208366.8,-84.76078,70.9011
4641.588833612777,123355.4,-98.40488,70.9182
10000.0,53245.46,-74.32326,70.9073
