Frequency,Impedance,Phase Angle,Temperature (Dry Bath)
10.0,1290896.0,-14.03056,68.355
21.5,1214792.0,-14.13662,68.3791
46.4,1153625.0,-13.35886,68.3828
100.0,953879.8,-10.56216,68.3778
215.4,864887.6,-14.24205,68.3772
464.2,948637.2,-28.6051,68.3736
1000.0,705810.9,-38.79215,68.3791
2154.4,476522.7,-58.10041,68.4024
4641.6,274796.8,-74.65421,68.3579
10000.0,138444.7,-82.53515,68.3809
