Frequency,Impedance,Phase Angle,Temperature (Dry Bath)
10.0,1684650.0,-19.77402,67.3513
21.5,1474860.0,-17.80642,67.3665
46.4,1297641.0,-15.95434,67.3374
100.0,1149616.0,2.809362,67.3559
215.4,1044378.0,-27.94316,67.325
464.2,1067430.0,-24.55924,67.3266
1000.0,684157.7,-41.40527,67.3453
2154.4,494633.5,-63.55509,67.3512
4641.6,242966.3,-74.3886,67.3359
10000.0,131529.2,-78.32056,67.3494
