Frequency,Impedance,Phase Angle,Temperature (Dry Bath)
10.0,36840840.0,-12.22255,68.0259
21.5,44745440.0,-19.91067,68.0331
46.4,35994460.0,-52.90699,68.0254
100.0,4061273.0,-29.16763,68.0193
215.4,6873756.0,-92.86122,68.0212
464.2,2461838.0,-70.66244,68.0297
1000.0,1380461.0,-96.33487,68.0236
2154.4,681105.7,-88.16524,68.0248
4641.6,291195.7,-89.76692,68.0301
10000.0,148107.3,-99.69225,68.0297
