Frequency,Impedance,Phase Angle,Temperature (Dry Bath)
10.0,6131908.0,-21.69057,71.265
21.544346900318832,6027685.0,21.54459,71.2622
46.41588833612777,6658941.0,6.119611,71.265
100.0,741796.1,-113.0943,71.2695
215.44346900318823,1170986.0,-100.5916,71.2645
464.15888336127773,3465185.0,5.031085,71.2607
1000.0,423640.4,-67.68075,71.2557
2154.4346900318824,380760.4,-86.75387,71.2654
4641.588833612777,139554.7,-83.58423,71.2715
10000.0,67820.47,-86.7467,71.2639
