Frequency,Impedance,Phase Angle,Temperature (Dry Bath)
10.0,19702430.0,-18.80967,68.3094
21.5,14464550.0,-43.25603,68.3094
46.4,15202430.0,-48.18555,68.3094
100.0,8327419.0,-44.77467,68.3094
215.4,4554739.0,-87.1654,68.3094
464.2,2849515.0,-70.53696,68.3094
1000.0,1146461.0,-79.99372,68.3094
2154.4,570433.7,-85.30986,68.3094
4641.6,292644.1,-91.72188,68.3094
10000.0,131385.9,-95.98596,68.3094
