Frequency,Impedance,Phase Angle,Temperature (Dry Bath)
10.0,23728490.0,-10.17784,68.031
21.5,22197680.0,-28.81606,68.031
46.4,14507640.0,-43.67028,68.031
100.0,7612330.0,-24.75365,68.031
215.4,5487619.0,-103.0622,68.031
464.2,2826728.0,-86.68578,68.031
1000.0,1497720.0,-86.17124,68.031
2154.4,668309.3,-88.50641,68.031
4641.6,332202.2,-93.36107,68.031
10000.0,176050.5,-99.23959,68.031
