Frequency,Impedance,Phase Angle,Temperature (Dry Bath)
10.0,6640970.0,-27.9373,70.7859
21.544346900318832,3264637.0,-22.73009,70.7778
46.41588833612777,6235039.0,-16.7662,70.785
100.0,2469149.0,15.29915,70.7762
215.44346900318823,1037760.0,-76.56262,70.7855
464.15888336127773,453551.1,-103.6969,70.7923
1000.0,578939.1,-115.2524,70.7888
2154.4346900318824,282185.0,-53.98898,70.7829
4641.588833612777,137568.7,-89.41577,70.7893
10000.0,59642.09,-91.14503,70.7847
