Frequency,Impedance,Phase Angle,Temperature (Dry Bath)
10.0,117308.7,-3.110979,67.3052
21.5,115015.3,-2.574253,67.2882
46.4,113464.8,-2.642371,67.2839
100.0,110735.0,-1.698599,67.3035
215.4,134196.1,-33.76697,67.2939
464.2,109038.6,-5.308469,67.2984
1000.0,104062.2,-7.980227,67.2925
2154.4,99530.62,-14.1097,67.2758
4641.6,89734.49,-25.31767,67.2678
10000.0,71227.84,-41.71663,67.2766
