Frequency,Impedance,Phase Angle,Temperature (Dry Bath)
10.0,5097082.0,-13.87481,71.4269
21.544346900318832,3315719.0,-19.82387,71.4473
46.41588833612777,5445835.0,-17.1682,71.423
100.0,771314.3,-60.89796,71.4273
215.44346900318823,504285.7,132.3237,71.4213
464.15888336127773,969046.8,-57.90609,71.4306
1000.0,398283.2,12.17962,71.4346
2154.4346900318824,331480.5,-86.95776,71.4112
4641.588833612777,140812.0,-88.56111,71.4343
10000.0,73962.06,-86.00775,71.4387
