Frequency,Impedance,Phase Angle,Temperature (Dry Bath)
10.0,28990460.0,-24.06157,67.2079
21.5,27351850.0,-38.58522,67.2037
46.4,14783790.0,-51.69853,67.1884
100.0,2987103.0,-54.6377,67.1903
215.4,1770718.0,-59.7068,67.2025
464.2,2050261.0,-113.6365,67.1913
1000.0,1089761.0,-72.15226,67.1761
2154.4,552348.5,-91.31657,67.1998
4641.6,249950.9,-82.74885,67.2128
10000.0,128802.7,-85.58159,67.1981
