Frequency,Impedance,Phase Angle,Temperature (Dry Bath)
10.0,19242620.0,-7.996687,68.0007
21.5,19091270.0,-35.77106,68.003
46.4,20983150.0,-54.53753,68.0089
100.0,3990021.0,-40.52736,68.005
215.4,4228480.0,-72.17232,68.0022
464.2,3301122.0,-75.47911,68.003
1000.0,1492756.0,-91.01869,68.0095
2154.4,685934.8,-85.17487,68.0093
4641.6,352150.0,-91.07433,68.0032
10000.0,151894.7,-97.64157,68.0082
