Frequency,Impedance,Phase Angle,Temperature (Dry Bath)
10.0,22271490.0,-21.74953,67.3773
21.5,38307200.0,-27.20285,67.3698
46.4,8966421.0,-58.13137,67.3615
100.0,5699766.0,-44.46758,67.3566
215.4,170791.3,26.90782,67.3808
464.2,4546544.0,-71.10371,67.3534
1000.0,1140368.0,-81.70407,67.3509
2154.4,550650.8,-85.03407,67.363
4641.6,272021.4,-90.02254,67.3758
10000.0,129341.8,-86.74158,67.3557
