Frequency,Impedance,Phase Angle,Temperature (Dry Bath)
10.0,4359296.0,-11.64763,65.8417
21.544346900318832,5561453.0,1.246486,65.842
46.41588833612777,3430603.0,-33.51212,65.8356
100.0,713884.6,3.848141,65.8296
215.44346900318823,1893416.0,-6.102445,65.831
464.15888336127773,1558659.0,79.66723,65.8334
1000.0,500005.2,-64.25655,65.83
2154.4346900318824,269563.7,-79.41118,65.8207
4641.588833612777,150541.5,-92.3653,65.8275
10000.0,64182.99,-88.05596,65.8258
