Frequency,Impedance,Phase Angle,Temperature (Dry Bath)
10.0,24912070.0,-8.104579,67.9519
21.5,17972270.0,-25.51664,67.9519
46.4,23037600.0,-48.64155,67.9519
100.0,5839741.0,-33.85016,67.9519
215.4,4195589.0,-82.11334,67.9519
464.2,2972093.0,-87.8362,67.9519
1000.0,1223981.0,-85.55532,67.9519
2154.4,602588.2,-88.47983,67.9519
4641.6,303979.0,-88.96911,67.9519
10000.0,147304.6,-96.25161,67.9519
