Frequency,Impedance,Phase Angle,Temperature (Dry Bath)
10.0,5731434.0,3.182632,71.3493
21.544346900318832,4422711.0,-30.68489,71.3489
46.41588833612777,5175985.0,-13.95333,71.3361
100.0,415611.0,24.05656,71.3383
215.44346900318823,382103.0,86.24521,71.34
464.15888336127773,1588772.0,20.60351,71.3443
1000.0,668666.7,-75.95066,71.3519
2154.4346900318824,354380.1,-98.84994,71.3483
4641.588833612777,108895.0,-88.05276,71.3512
10000.0,66934.61,-85.3956,71.3375
