Frequency,Impedance,Phase Angle,Temperature (Dry Bath)
10.0,51503.32,-34.47772,67.3722
21.5,39399.0,-30.47491,67.3697
46.4,31630.01,-26.39582,67.3708
100.0,26426.25,-22.54345,67.3656
215.4,22921.81,-18.91414,67.3731
464.2,20427.07,-15.99178,67.3722
1000.0,18293.2,-13.70948,67.3758
2154.4,16727.35,-12.35276,67.3647
4641.6,15424.45,-12.23268,67.3691
10000.0,14255.41,-14.06668,67.3741
