Frequency,Impedance,Phase Angle,Temperature (Dry Bath)
10.0,91724.32,-2.994446,67.0068
21.5,90002.47,-2.578326,67.0193
46.4,88347.56,-2.336317,67.0322
100.0,85941.79,-2.71239,67.025
215.4,74713.06,15.74584,67.0252
464.2,85806.34,-3.889182,67.0211
1000.0,82031.35,-6.922483,67.0139
2154.4,80160.71,-11.78078,67.0524
4641.6,74011.78,-21.07286,67.0443
10000.0,61202.1,-35.29051,67.0475
