Frequency,Impedance,Phase Angle,Temperature (Dry Bath)
10.0,2941879.0,-23.93669,71.2295
21.544346900318832,2186641.0,-20.64974,71.235
46.41588833612777,2414685.0,-27.82803,71.2252
100.0,528594.9,6.244047,71.2394
215.44346900318823,196267.7,10.63125,71.2441
464.15888336127773,798623.4,-54.69815,71.2273
1000.0,679277.2,-9.100435,71.2264
2154.4346900318824,401193.9,-98.42709,71.233
4641.588833612777,168390.7,-76.12327,71.2338
10000.0,62539.31,-78.27585,71.2327
