Frequency,Impedance,Phase Angle,Temperature (Dry Bath)
10.0,7975469.0,44.67654,70.671
21.544346900318832,4463797.0,-11.51405,70.6478
46.41588833612777,3694976.0,-27.02944,70.6474
100.0,332275.5,-75.82288,70.6636
215.44346900318823,682702.8,35.72892,70.65
464.15888336127773,685865.7,-22.67557,70.6625
1000.0,181571.0,-50.56348,70.684
2154.4346900318824,336055.4,-106.3796,70.6753
4641.588833612777,155288.5,-100.904,70.652
10000.0,69647.14,-83.59244,70.6627
