Frequency,Impedance,Phase Angle,Temperature (Dry Bath)
10.0,34121.08,-13.0634,70.8859
21.544346900318832,31470.79,-11.26622,70.8727
46.41588833612777,29220.5,-10.24019,70.8713
100.0,27506.07,-14.36836,70.8781
215.44346900318823,25625.72,-9.528351,70.8723
464.15888336127773,24307.2,-9.785993,70.8946
1000.0,22099.43,-11.253,70.8853
2154.4346900318824,20297.0,-9.965206,70.8775
4641.588833612777,19895.91,-15.91861,70.8625
10000.0,17647.3,-22.92088,70.848
