Frequency,Impedance,Phase Angle,Temperature (Dry Bath)
10.0,1387162.0,-14.55952,68.0929
21.5,1208289.0,-14.10276,68.1062
46.4,1077628.0,-13.51892,68.1031
100.0,1001208.0,-17.78566,68.1004
215.4,911649.1,-15.99044,68.1013
464.2,824743.7,-21.50195,68.0999
1000.0,664144.6,-37.99591,68.1147
2154.4,469771.6,-54.58073,68.0967
4641.6,250371.1,-68.56667,68.0951
10000.0,137553.8,-90.13823,68.1068
