Frequency,Impedance,Phase Angle,Temperature (Dry Bath)
10.0,151433.4,-4.753516,68.2615
21.5,147082.2,-4.028735,68.2548
46.4,144183.0,-3.715161,68.2586
100.0,136691.1,-4.251351,68.2462
215.4,142633.6,-3.871739,68.2494
464.2,136015.8,-6.569833,68.2507
1000.0,131609.1,-8.6573,68.246
2154.4,122920.9,-16.7648,68.2471
4641.6,105706.4,-31.32982,68.2454
10000.0,83702.39,-46.31365,68.2581
