Frequency,Impedance,Phase Angle,Temperature (Dry Bath)
10.0,6369115.0,-20.49077,71.1592
21.544346900318832,4539511.0,-20.73609,71.1398
46.41588833612777,5143479.0,-25.55978,71.1479
100.0,346163.0,42.27084,71.1442
215.44346900318823,1006249.0,-18.78883,71.1365
464.15888336127773,1052774.0,-18.6847,71.1353
1000.0,314612.9,-88.96287,71.1647
2154.4346900318824,761480.9,5.732596,71.1401
4641.588833612777,1232250.0,-49.9292,71.1228
10000.0,160975.7,-123.3601,71.1371
