Frequency,Impedance,Phase Angle,Temperature (Dry Bath)
10.0,1404812.0,-17.72717,70.9139
21.544346900318832,1257593.0,-21.19839,70.9082
46.41588833612777,1099521.0,-18.39794,70.9175
100.0,356927.6,-28.37721,70.9178
215.44346900318823,811661.2,20.90268,70.9195
464.15888336127773,750057.8,-32.14114,70.9088
1000.0,485516.5,-58.48987,70.9257
2154.4346900318824,193903.9,-59.48831,70.902
4641.588833612777,125479.0,-75.13196,70.9178
10000.0,61232.53,-80.01298,70.9273
