Frequency,Impedance,Phase Angle,Temperature (Dry Bath)
10.0,40752210.0,-14.65754,66.9922
21.5,22375760.0,-28.13668,66.9899
46.4,19449000.0,-46.50247,66.9927
100.0,5280182.0,-0.8448317,67.0077
215.4,3598256.0,-92.95602,66.9891
464.2,2220039.0,-81.46281,66.9778
1000.0,1178019.0,-83.61735,66.9797
2154.4,556692.9,-85.46552,66.9836
4641.6,264733.5,-86.44294,66.9904
10000.0,125119.7,-87.32743,66.9654
