Frequency,Impedance,Phase Angle,Temperature (Dry Bath)
10.0,5022200.0,-7.306979,65.6913
21.544346900318832,7235663.0,-11.45029,65.6952
46.41588833612777,5570350.0,-20.34986,65.6908
100.0,1163840.0,93.35277,65.6911
215.44346900318823,541451.9,138.4756,65.6741
464.15888336127773,939973.4,16.5333,65.6927
1000.0,537751.9,-53.7281,65.6771
2154.4346900318824,269942.9,-67.93912,65.6826
4641.588833612777,142529.0,-77.79491,65.6893
10000.0,60509.76,-92.97033,65.7021
