Frequency,Impedance,Phase Angle,Temperature (Dry Bath)
10.0,1970334.0,-15.96178,65.7668
21.544346900318832,1986093.0,-13.51119,65.7603
46.41588833612777,1305755.0,-23.23186,65.7619
100.0,450255.9,-13.33902,65.774
215.44346900318823,26119.02,1.565096,65.7614
464.15888336127773,369959.9,-18.34778,65.7646
1000.0,373670.6,-53.74639,65.7729
2154.4346900318824,368245.2,-93.54586,65.7663
4641.588833612777,154249.5,-68.76719,65.7602
10000.0,80961.99,-77.00987,65.7557
