Frequency,Impedance,Phase Angle,Temperature (Dry Bath)
10.0,257579.3,-23.74991,67.248
21.5,218184.3,-21.65726,67.2481
46.4,186607.3,-19.48835,67.2449
100.0,157270.0,-17.91491,67.2394
215.4,134728.1,-16.46455,67.2319
464.2,130329.6,-16.09409,67.2115
1000.0,116875.6,-19.22891,67.1856
2154.4,101538.4,-24.83624,67.2257
4641.6,82071.88,-32.0955,67.2176
10000.0,61399.97,-41.36223,67.2106
