Frequency,Impedance,Phase Angle,Temperature (Dry Bath)
10.0,3833061.0,-1.052693,71.2842
21.544346900318832,4018545.0,8.227641,71.2765
46.41588833612777,5206035.0,-39.94659,71.275
100.0,892992.8,86.46874,71.2884
215.44346900318823,825548.8,-45.35819,71.2926
464.15888336127773,972427.2,-8.139338,71.2937
1000.0,350428.6,4.796349,71.2805
2154.4346900318824,242328.0,-87.68001,71.2883
4641.588833612777,146221.2,-83.6286,71.2784
10000.0,60640.97,-83.37075,71.2815
