Frequency,Impedance,Phase Angle,Temperature (Dry Bath)
10.0,4745928.0,0.7850716,71.4635
21.544346900318832,5937771.0,-0.6331638,71.4514
46.41588833612777,4797158.0,-9.368753,71.4845
100.0,1117544.0,-10.88141,71.468
215.44346900318823,1611842.0,-136.7426,71.4765
464.15888336127773,3636640.0,-35.59629,71.4817
1000.0,3105582.0,-5.241951,71.4674
2154.4346900318824,349609.0,-76.99585,71.46
4641.588833612777,479753.2,-55.3887,71.466
10000.0,164045.0,-83.64,71.4636
