Frequency,Impedance,Phase Angle,Temperature (Dry Bath)
10.0,74980.8,-14.05332,71.7681
21.544346900318832,67132.06,-13.20701,71.7928
46.41588833612777,60292.19,-12.07877,71.7469
100.0,53459.17,-12.9289,71.7727
215.44346900318823,48697.07,-10.06275,71.7605
464.15888336127773,49268.42,-9.792172,71.7551
1000.0,40912.55,-13.0407,71.7709
2154.4346900318824,37496.26,-3.79637,71.7752
4641.588833612777,35275.63,-11.82947,71.7748
10000.0,34539.67,-18.41969,71.7657
