Frequency,Impedance,Phase Angle,Temperature (Dry Bath)
10.0,76492.15,-16.09341,71.4525
21.544346900318832,67435.33,-14.58518,71.4532
46.41588833612777,60308.48,-12.96161,71.4459
100.0,61051.79,-22.19036,71.4599
215.44346900318823,48689.83,-12.88972,71.4474
464.15888336127773,45155.16,-10.43691,71.4675
1000.0,52285.26,-17.51243,71.4741
2154.4346900318824,39368.31,-12.41177,71.4619
4641.588833612777,36155.71,-26.8467,71.4645
10000.0,28240.12,-35.9546,71.4667
