Frequency,Impedance,Phase Angle,Temperature (Dry Bath)
10.0,8967414.0,-21.78443,29.0226
21.544346900318832,4011587.0,-15.6212,29.0617
46.41588833612777,5186240.0,-4.007599,29.0559
100.0,1993089.0,-39.04437,28.995
215.44346900318823,1146270.0,48.185,29.0816
464.15888336127773,1039573.0,-51.32738,29.0233
1000.0,555730.7,28.13187,29.0951
2154.4346900318824,468905.3,-85.70159,28.322
4641.588833612777,322483.1,-59.62898,28.6181
10000.0,142305.0,-84.50094,28.2732
