Frequency,Impedance,Phase Angle,Temperature (Dry Bath)
10.0,21080290.0,-20.52982,67.448
21.5,24732640.0,-33.17594,67.439
46.4,19943040.0,-54.52328,67.4409
100.0,3082482.0,-38.70506,67.4595
215.4,1855326.0,-134.2379,67.4472
464.2,1962376.0,-91.59596,67.4474
1000.0,1534333.0,-89.11887,67.4459
2154.4,529703.0,-82.38695,67.4466
4641.6,274867.7,-84.45213,67.4368
10000.0,126288.0,-86.3093,67.4567
