Frequency,Impedance,Phase Angle,Temperature (Dry Bath)
10.0,101967.2,-4.020675,67.0782
21.5,100135.4,-3.465457,67.0801
46.4,98786.8,-3.673704,67.0919
100.0,98278.84,-3.831044,67.0808
215.4,93141.07,-31.27941,67.0764
464.2,93433.65,-7.035543,67.0738
1000.0,90819.79,-8.156451,67.0666
2154.4,87106.18,-13.01501,67.0803
4641.6,80258.28,-22.3732,67.0969
10000.0,65485.52,-37.52288,67.0636
