Frequency,Impedance,Phase Angle,Temperature (Dry Bath)
10.0,5699124.0,10.52376,71.5917
21.544346900318832,5291145.0,-21.82858,71.5914
46.41588833612777,6056380.0,-6.78328,71.5958
100.0,892135.6,56.387,71.5981
215.44346900318823,888873.4,-35.96923,71.6139
464.15888336127773,762924.0,-170.558,71.6029
1000.0,711044.6,-84.02419,71.5994
2154.4346900318824,894144.9,-18.7991,71.5982
4641.588833612777,275066.9,-78.54854,71.6058
10000.0,119739.6,-73.90493,71.6073
