Frequency,Impedance,Phase Angle,Temperature (Dry Bath)
10.0,7509274.0,-54.068,71.4465
21.544346900318832,5499747.0,-32.26656,71.4547
46.41588833612777,5541306.0,-26.4054,71.4658
100.0,530828.9,-78.87618,71.4622
215.44346900318823,572046.9,-97.20009,71.4563
464.15888336127773,2336561.0,-76.16969,71.457
1000.0,379450.5,-46.4223,71.4509
2154.4346900318824,259517.1,-61.74805,71.4521
4641.588833612777,174495.6,-88.53189,71.4633
10000.0,70312.65,-86.53506,71.4644
