Frequency,Impedance,Phase Angle,Temperature (Dry Bath)
10.0,24150260.0,-28.25147,67.425
21.5,22721640.0,-16.01372,67.4155
46.4,16005360.0,-56.52006,67.4072
100.0,3329476.0,-87.94691,67.4293
215.4,3178601.0,-70.4611,67.4129
464.2,1892315.0,-86.51498,67.4127
1000.0,1124852.0,-81.58223,67.4086
2154.4,554954.2,-88.22163,67.4208
4641.6,264392.5,-84.91972,67.4128
10000.0,122744.1,-84.77698,67.3985
