Frequency,Impedance,Phase Angle,Temperature (Dry Bath)
10.0,46741770.0,-8.957866,67.87
21.5,24927920.0,-38.07949,67.8787
46.4,17834250.0,-62.09914,67.9006
100.0,2886069.0,-43.06029,67.8658
215.4,3855213.0,-57.53136,67.8864
464.2,2080852.0,-73.0364,67.895
1000.0,965028.2,-84.16574,67.8793
2154.4,473619.8,-81.54478,67.8859
4641.6,261004.9,-81.29251,67.8809
10000.0,134678.6,-89.09084,67.876
