Frequency,Impedance,Phase Angle,Temperature (Dry Bath)
10.0,58414.31,-32.4754,67.2682
21.5,45687.19,-28.50699,67.2908
46.4,37593.38,-24.47197,67.2877
100.0,31954.75,-20.65636,67.2772
215.4,27987.08,-17.53382,67.2672
464.2,25168.85,-14.40578,67.2557
1000.0,22728.44,-12.55507,67.2733
2154.4,21001.55,-11.56459,67.28
4641.6,19423.48,-11.88844,67.2794
10000.0,18144.57,-14.88591,67.264
