Frequency,Impedance,Phase Angle,Temperature (Dry Bath)
10.0,23419560.0,-10.43069,68.0965
21.5,23208460.0,-32.3868,68.0822
46.4,28494030.0,-55.40991,68.082
100.0,6481771.0,-18.88519,68.0783
215.4,5394820.0,-80.08411,68.0888
464.2,2317360.0,-85.52224,68.1174
1000.0,1437910.0,-92.39745,68.1044
2154.4,647904.4,-87.85679,68.0986
4641.6,309813.8,-89.40656,68.0976
10000.0,132091.2,-92.35634,68.0978
