Frequency,Impedance,Phase Angle,Temperature (Dry Bath)
10.0,40822.77,-14.2038,70.6375
21.544346900318832,36910.55,-12.15308,70.6543
46.41588833612777,34059.6,-11.2747,70.6402
100.0,30169.07,-11.55461,70.6444
215.44346900318823,30560.14,-9.79403,70.6513
464.15888336127773,27920.9,-9.833444,70.6413
1000.0,27615.06,-12.66891,70.6455
2154.4346900318824,23847.23,-15.04093,70.6444
4641.588833612777,21892.8,-17.49499,70.6271
10000.0,19071.91,-26.38146,70.6374
