Frequency,Impedance,Phase Angle,Temperature (Dry Bath)
10.0,2102643.0,-9.409414,70.9722
21.544346900318832,2610407.0,-8.414553,70.9673
46.41588833612777,2508203.0,-30.25637,70.9602
100.0,516997.0,36.85436,70.9697
215.44346900318823,714965.9,-104.7366,70.9694
464.15888336127773,609936.4,6.395749,70.975
1000.0,631639.6,-86.53047,70.9663
2154.4346900318824,415044.2,-78.64089,70.9673
4641.588833612777,124327.4,-84.79963,70.9717
10000.0,58125.03,-85.85439,70.9705
