Frequency,Impedance,Phase Angle,Temperature (Dry Bath)
10.0,51471070.0,-30.35645,67.3438
21.5,23956830.0,-34.35236,67.3428
46.4,16783860.0,-54.02715,67.3359
100.0,3538848.0,-13.93471,67.3415
215.4,2112829.0,-121.7294,67.3535
464.2,2454230.0,-75.60134,67.3478
1000.0,1441136.0,-77.86479,67.3421
2154.4,544311.3,-85.53158,67.3579
4641.6,270557.8,-84.23127,67.3447
10000.0,132838.6,-85.7444,67.3459
