Frequency,Impedance,Phase Angle,Temperature (Dry Bath)
10.0,25742690.0,-14.35912,68.2568
21.5,23413850.0,-31.18442,68.2568
46.4,15337510.0,-48.05214,68.2568
100.0,6245594.0,-48.39236,68.2568
215.4,5712204.0,-87.82779,68.2568
464.2,3526515.0,-62.39881,68.2568
1000.0,1360470.0,-85.39251,68.2568
2154.4,720735.0,-84.45561,68.2568
4641.6,320697.6,-85.84036,68.2568
10000.0,148726.5,-97.69933,68.2568
