Frequency,Impedance,Phase Angle,Temperature (Dry Bath)
10.0,21918100.0,-1.588169,67.8921
21.5,21239890.0,-13.91219,67.8888
46.4,16996020.0,-45.59495,67.8791
100.0,7767297.0,-35.88784,67.8902
215.4,24711640.0,-121.3631,67.8828
464.2,3462835.0,-118.8471,67.8822
1000.0,1417810.0,-83.00763,67.8931
2154.4,741599.5,-92.61995,67.8868
4641.6,330067.1,-88.93609,67.8861
10000.0,140915.7,-95.15082,67.8973
