Frequency,Impedance,Phase Angle,Temperature (Dry Bath)
10.0,33201870.0,-21.00133,67.3089
21.5,19989660.0,-33.65216,67.3047
46.4,12978330.0,-59.58314,67.2952
100.0,4276958.0,-26.39026,67.2896
215.4,3603879.0,-95.46497,67.2905
464.2,1479836.0,-68.61494,67.291
1000.0,874185.9,-74.62097,67.2974
2154.4,413437.8,-86.57381,67.289
4641.6,198183.4,-84.60022,67.3049
10000.0,100174.7,-79.99807,67.2982
