Frequency,Impedance,Phase Angle,Temperature (Dry Bath)
10.0,746901.9,-9.627144,67.7278
21.5,687518.6,-10.40245,67.7321
46.4,648853.4,-10.98293,67.7414
100.0,561419.3,-11.20144,67.7475
215.4,559491.0,-16.34482,67.729
464.2,477742.3,-16.8068,67.7446
1000.0,426494.2,-31.38141,67.7396
2154.4,334046.3,-40.50158,67.7586
4641.6,217214.4,-59.62773,67.744
10000.0,124651.0,-75.32302,67.7471
