Frequency,Impedance,Phase Angle,Temperature (Dry Bath)
10.0,8187677.0,3.470174,71.3077
21.544346900318832,4448742.0,-9.954954,71.3256
46.41588833612777,5300689.0,-22.23915,71.3167
100.0,464452.9,23.7096,71.3139
215.44346900318823,421680.9,-79.58769,71.3086
464.15888336127773,632848.4,-19.36935,71.3333
1000.0,427881.5,176.456,71.3098
2154.4346900318824,237985.4,-78.37792,71.3272
4641.588833612777,119667.4,-87.05699,71.322
10000.0,62181.25,-85.53462,71.3441
