Frequency,Impedance,Phase Angle,Temperature (Dry Bath)
10.0,1113895.0,-11.37108,68.0107
21.5,1005711.0,-10.99725,68.0049
46.4,929983.1,-10.75396,68.0246
100.0,808806.4,-13.45128,68.015
215.4,768882.4,-18.91236,67.9914
464.2,648242.7,-17.59895,67.9932
1000.0,594269.6,-33.31946,67.9973
2154.4,408528.8,-48.85995,68.0025
4641.6,239886.9,-68.25926,67.9937
10000.0,130722.1,-85.01671,67.9905
