Frequency,Impedance,Phase Angle,Temperature (Dry Bath)
10.0,5493825.0,-12.54076,70.8373
21.544346900318832,4821525.0,-15.95745,70.8398
46.41588833612777,4143874.0,-18.70379,70.8348
100.0,750121.8,-31.77824,70.8197
215.44346900318823,521144.4,35.46389,70.8314
464.15888336127773,433289.7,-94.38107,70.8275
1000.0,394610.0,-39.9497,70.8097
2154.4346900318824,215446.5,-86.44517,70.8279
4641.588833612777,99908.39,-74.93834,70.8103
10000.0,61744.18,-89.54037,70.8281
