Frequency,Impedance,Phase Angle,Temperature (Dry Bath)
10.0,225489.4,-23.16936,67.3754
21.5,189734.9,-20.43981,67.3793
46.4,164317.7,-17.75606,67.3913
100.0,145626.5,-17.33964,67.3981
215.4,135436.0,-16.52033,67.3932
464.2,121299.5,-14.06735,67.385
1000.0,108879.6,-16.39546,67.3808
2154.4,95011.23,-22.07666,67.3923
4641.6,81801.34,-30.92562,67.3808
10000.0,60634.89,-42.22934,67.3609
