Frequency,Impedance,Phase Angle,Temperature (Dry Bath)
10.0,23896250.0,-0.7825925,68.1791
21.5,28903980.0,-34.65848,68.1773
46.4,27690530.0,-46.81966,68.1889
100.0,7336678.0,-11.30599,68.1939
215.4,7069172.0,-86.99297,68.1992
464.2,2688692.0,-64.6512,68.1888
1000.0,1306930.0,-88.60471,68.1912
2154.4,627778.1,-81.76864,68.1842
4641.6,308309.8,-90.44483,68.2005
10000.0,154923.2,-96.68551,68.2003
