Frequency,Impedance,Phase Angle,Temperature (Dry Bath)
10.0,126478.7,-3.771515,67.4366
21.5,123407.4,-3.401254,67.4323
46.4,120401.1,-2.975751,67.427
100.0,116736.5,-2.228734,67.4384
215.4,120783.9,-6.53558,67.4436
464.2,113272.6,-6.607438,67.4467
1000.0,108361.6,-9.763169,67.4511
2154.4,100578.7,-14.83757,67.4423
4641.6,91262.58,-26.60311,67.4498
10000.0,68524.23,-41.47362,67.4611
