Frequency,Impedance,Phase Angle,Temperature (Dry Bath)
10.0,23455150.0,-32.84817,67.9467
21.5,23710280.0,-16.61044,67.9513
46.4,35683540.0,-48.82395,67.9505
100.0,7232569.0,-1.133618,67.9384
215.4,6845117.0,-56.88995,67.9527
464.2,2430129.0,-87.21956,67.9568
1000.0,1432786.0,-85.00019,67.9324
2154.4,639857.6,-87.31934,67.9469
4641.6,337235.7,-93.32523,67.9393
10000.0,148374.2,-100.5973,67.9512
