Frequency,Impedance,Phase Angle,Temperature (Dry Bath)
10.0,135907.3,-3.733561,67.1806
21.5,133253.4,-3.394496,67.1552
46.4,129715.5,-3.067455,67.164
100.0,127909.5,-3.844669,67.1475
215.4,125353.8,-3.47184,67.1476
464.2,125178.3,-6.557062,67.1245
1000.0,117250.9,-8.817972,67.1529
2154.4,113304.6,-16.67901,67.1393
4641.6,97772.83,-27.90409,67.138
10000.0,73104.99,-44.05915,67.1469
