Frequency,Impedance,Phase Angle,Temperature (Dry Bath)
10.0,24717000.0,-30.3422,68.0846
21.5,16476480.0,-45.58361,68.1196
46.4,9925033.0,-53.51169,68.1071
100.0,6712226.0,-41.61259,68.1165
215.4,3705746.0,-61.93936,68.1171
464.2,2736266.0,-78.21286,68.0981
1000.0,1156461.0,-82.66685,68.1155
2154.4,612644.9,-84.97385,68.1172
4641.6,281215.4,-87.24948,68.1161
10000.0,124426.9,-94.99999,68.1008
