Frequency,Impedance,Phase Angle,Temperature (Dry Bath)
10.0,33408.74,-19.22852,71.5476
21.544346900318832,28680.55,-18.29375,71.5382
46.41588833612777,24739.65,-17.84884,71.5497
100.0,20720.01,-16.84159,71.5554
215.44346900318823,18340.97,-15.40446,71.5447
464.15888336127773,16711.04,-13.65739,71.5395
1000.0,14450.42,-13.36589,71.5425
2154.4346900318824,13138.75,-12.47065,71.5444
4641.588833612777,11951.34,-12.05586,71.5661
10000.0,11111.12,-11.96273,71.5643
