Frequency,Impedance,Phase Angle,Temperature (Dry Bath)
10.0,1602108.0,-19.30452,67.1472
21.5,1393460.0,-17.19815,67.1431
46.4,1272645.0,-15.65001,67.138
100.0,1777853.0,45.92876,67.1542
215.4,834291.3,-4.054906,67.1459
464.2,848475.6,-21.41202,67.1531
1000.0,643650.8,-49.02913,67.1515
2154.4,405832.8,-63.11321,67.15
4641.6,221323.0,-73.93078,67.1569
10000.0,113071.8,-80.15945,67.1524
