Frequency,Impedance,Phase Angle,Temperature (Dry Bath)
10.0,221254.0,-23.31139,67.0741
21.5,185936.0,-20.38629,67.0893
46.4,160695.6,-17.68484,67.0793
100.0,146707.6,-14.30772,67.0527
215.4,127278.4,-11.42657,67.0923
464.2,118135.0,-13.2698,67.0876
1000.0,106380.7,-17.13905,67.0642
2154.4,95367.54,-21.96241,67.0887
4641.6,80909.76,-29.41132,67.0843
10000.0,60737.31,-41.1298,67.09
