Frequency,Impedance,Phase Angle,Temperature (Dry Bath)
10.0,227417.3,-23.13811,67.2665
21.5,191281.4,-20.31819,67.2658
46.4,165849.0,-17.63057,67.2557
100.0,145678.5,-15.91424,67.2739
215.4,138829.1,12.03666,67.2728
464.2,120596.0,-14.5979,67.2709
1000.0,110847.3,-16.8751,67.2776
2154.4,97144.71,-21.72377,67.2917
4641.6,80803.66,-30.14563,67.2761
10000.0,61272.93,-41.89133,67.2996
