Frequency,Impedance,Phase Angle,Temperature (Dry Bath)
10.0,221434.5,-23.21585,67.2403
21.5,186468.8,-20.30636,67.2496
46.4,161161.7,-17.58529,67.229
100.0,145592.8,-15.59411,67.2406
215.4,211830.7,-90.66795,67.2263
464.2,118611.3,-13.0415,67.2351
1000.0,106249.7,-16.51056,67.2367
2154.4,95433.16,-20.72257,67.2312
4641.6,79256.62,-29.4264,67.2254
10000.0,60946.23,-40.92611,67.2276
