Frequency,Impedance,Phase Angle,Temperature (Dry Bath)
10.0,24871770.0,-19.99334,68.2042
21.5,33205920.0,-38.57103,68.2042
46.4,33270790.0,-49.27431,68.2042
100.0,5767650.0,-26.60165,68.2042
215.4,6313935.0,-75.18768,68.2042
464.2,2466265.0,-82.12489,68.2042
1000.0,1243514.0,-84.59819,68.2042
2154.4,604024.7,-87.50445,68.2042
4641.6,307100.5,-90.02955,68.2042
10000.0,136198.0,-99.13202,68.2042
