Frequency,Impedance,Phase Angle,Temperature (Dry Bath)
10.0,5076188.0,-20.29208,65.7044
21.544346900318832,5133201.0,-4.19543,65.6949
46.41588833612777,3723578.0,-6.876048,65.7003
100.0,445507.2,19.2547,65.7088
215.44346900318823,22444.96,114.0845,65.6921
464.15888336127773,1173098.0,-116.4636,65.703
1000.0,1453453.0,19.06046,65.6956
2154.4346900318824,277331.5,-77.57887,65.7099
4641.588833612777,187387.9,-71.5306,65.7058
10000.0,76174.13,-82.1153,65.711
