Frequency,Impedance,Phase Angle,Temperature (Dry Bath)
10.0,135307.3,-3.701932,67.2494
21.5,133057.5,-3.426995,67.2388
46.4,129670.5,-3.030805,67.2431
100.0,125420.7,-3.898001,67.2503
215.4,115612.1,18.73713,67.2511
464.2,125197.9,-7.600032,67.2422
1000.0,117477.8,-10.04821,67.241
2154.4,112129.1,-16.662,67.2552
4641.6,96650.19,-27.45566,67.2418
10000.0,74882.14,-43.3654,67.2376
