Frequency,Impedance,Phase Angle,Temperature (Dry Bath)
10.0,67195710.0,-21.52168,67.9439
21.5,43778710.0,-38.26112,67.9646
46.4,17682710.0,-47.92293,67.9608
100.0,4950660.0,-27.71474,67.9552
215.4,6324153.0,-48.48033,67.9668
464.2,3726870.0,-86.32583,67.9602
1000.0,1481534.0,-87.67439,67.9537
2154.4,709447.6,-91.61924,67.9625
4641.6,302096.1,-93.10852,67.9507
10000.0,157851.0,-96.17386,67.9532
