Frequency,Impedance,Phase Angle,Temperature (Dry Bath)
10.0,17643790.0,-6.467751,68.0768
21.5,15216360.0,-30.82066,68.0738
46.4,21954710.0,-40.35695,68.0835
100.0,5000667.0,-44.7607,68.0581
215.4,8198913.0,-91.98466,68.0729
464.2,3300950.0,-90.07323,68.0583
1000.0,1468840.0,-78.84426,68.0643
2154.4,654809.1,-87.59794,68.0751
4641.6,289610.0,-91.87066,68.0723
10000.0,148519.7,-93.88327,68.0675
