Frequency,Impedance,Phase Angle,Temperature (Dry Bath)
10.0,56353.65,-15.57814,70.5125
21.544346900318832,50051.93,-14.55794,70.4929
46.41588833612777,44592.53,-13.22405,70.5253
100.0,38703.45,-4.315278,70.5155
215.44346900318823,34432.25,-9.52767,70.5152
464.15888336127773,34622.1,-9.201577,70.5004
1000.0,35919.09,-14.00325,70.5301
2154.4346900318824,29772.89,-14.57329,70.5116
4641.588833612777,26779.65,-18.94581,70.5202
10000.0,23037.54,-26.09072,70.5139
