Frequency,Impedance,Phase Angle,Temperature (Dry Bath)
10.0,22001090.0,-30.64723,68.1533
21.5,24253820.0,-42.0766,68.1443
46.4,21960560.0,-54.56909,68.1387
100.0,5122199.0,-54.63129,68.141
215.4,8059444.0,-46.24204,68.148
464.2,2850616.0,-69.96832,68.1507
1000.0,1202293.0,-79.01901,68.1337
2154.4,562704.4,-88.76565,68.1366
4641.6,281853.6,-88.20365,68.1482
10000.0,123638.1,-92.86312,68.1331
