Frequency,Impedance,Phase Angle,Temperature (Dry Bath)
10.0,6373556.0,-10.18567,65.7927
21.544346900318832,5323711.0,25.5263,65.7877
46.41588833612777,4316706.0,-23.44801,65.7886
100.0,1679040.0,-133.0361,65.7824
215.44346900318823,10630.54,-54.4908,65.7891
464.15888336127773,2046950.0,40.52478,65.7966
1000.0,357414.4,-149.0855,65.7952
2154.4346900318824,408003.5,-37.04493,65.7965
4641.588833612777,136983.6,-92.04786,65.7912
10000.0,82343.88,-87.52249,65.7811
