Frequency,Impedance,Phase Angle,Temperature (Dry Bath)
10.0,161430.8,-13.17799,71.0359
21.544346900318832,146484.6,-13.27276,71.0375
46.41588833612777,133625.8,-11.7105,71.0352
100.0,104292.4,-15.16626,71.0338
215.44346900318823,119272.7,-7.475226,71.0397
464.15888336127773,99101.31,-12.62961,71.0594
1000.0,87320.48,-16.37341,71.0465
2154.4346900318824,80505.12,-29.87483,71.0615
4641.588833612777,65266.58,-36.93465,71.0474
10000.0,49422.84,-50.96282,71.0521
