Frequency,Impedance,Phase Angle,Temperature (Dry Bath)
10.0,176977.1,-22.33265,67.7364
21.5,150726.5,-19.3599,67.7233
46.4,132734.7,-16.74906,67.7317
100.0,116490.1,-14.17172,67.7286
215.4,105065.4,-13.55717,67.7303
464.2,94627.73,-14.15299,67.722
1000.0,88085.16,-14.20216,67.7244
2154.4,81660.86,-17.08575,67.7335
4641.6,71661.82,-26.40119,67.7152
10000.0,60627.75,-41.40381,67.718
