Frequency,Impedance,Phase Angle,Temperature (Dry Bath)
10.0,4900501.0,2.075539,70.9879
21.544346900318832,7055616.0,-11.73641,70.9797
46.41588833612777,4457488.0,-26.9728,70.9678
100.0,1546267.0,-104.6745,70.9897
215.44346900318823,1145948.0,179.4509,70.9664
464.15888336127773,794259.8,-60.56893,70.9802
1000.0,389017.9,-91.83759,70.9717
2154.4346900318824,215713.1,-92.06983,70.9881
4641.588833612777,131968.9,-81.70624,70.9715
10000.0,63236.98,-88.71367,70.9823
