Frequency,Impedance,Phase Angle,Temperature (Dry Bath)
10.0,2789767.0,-6.175527,71.0162
21.544346900318832,2152191.0,-18.77787,71.0069
46.41588833612777,2653243.0,-20.73389,71.0146
100.0,639140.5,-74.13552,71.0299
215.44346900318823,1492158.0,-43.13188,71.0248
464.15888336127773,1017182.0,-115.3721,71.0134
1000.0,527340.9,-76.0976,71.0142
2154.4346900318824,284716.7,-72.84099,71.0146
4641.588833612777,129663.9,-75.68904,71.0028
10000.0,63164.69,-83.59707,71.0236
