Frequency,Impedance,Phase Angle,Temperature (Dry Bath)
10.0,33315610.0,-21.93391,68.0084
21.5,29651870.0,-33.39301,68.0021
46.4,32306770.0,-56.39125,67.9902
100.0,9780575.0,-0.9077775,68.0098
215.4,4874050.0,-79.4471,68.0045
464.2,2886820.0,-70.74106,67.9946
1000.0,1174829.0,-88.25074,68.008
2154.4,688429.4,-92.20823,68.0066
4641.6,285466.6,-81.4361,68.0122
10000.0,125648.6,-95.07723,67.9958
