Frequency,Impedance,Phase Angle,Temperature (Dry Bath)
10.0,17998070.0,-21.36813,68.1103
21.5,16855480.0,-15.38233,68.0998
46.4,17142220.0,-47.59004,68.1051
100.0,6680720.0,-57.69151,68.0817
215.4,4764253.0,-69.67929,68.1165
464.2,2083563.0,-82.00019,68.1064
1000.0,1270869.0,-85.68848,68.1062
2154.4,621934.3,-84.18753,68.1108
4641.6,259839.9,-87.38598,68.1012
10000.0,131873.9,-97.91815,68.0984
