Frequency,Impedance,Phase Angle,Temperature (Dry Bath)
10.0,115965.8,-3.086449,67.1055
21.5,113913.4,-2.520233,67.1106
46.4,111996.5,-2.512523,67.1039
100.0,108811.0,-3.955286,67.107
215.4,74745.96,51.14715,67.0861
464.2,108297.5,-5.381529,67.1007
1000.0,102471.3,-9.283237,67.0944
2154.4,99193.82,-14.3005,67.1029
4641.6,92438.16,-24.08567,67.0967
10000.0,70082.56,-40.27317,67.1152
