Frequency,Impedance,Phase Angle,Temperature (Dry Bath)
10.0,177791.4,-13.79874,71.1783
21.544346900318832,160555.8,-11.59177,71.1851
46.41588833612777,147942.6,-11.15018,71.1727
100.0,161682.2,-21.34137,71.1834
215.44346900318823,138260.8,-15.67721,71.1881
464.15888336127773,116035.3,-17.59322,71.1974
1000.0,105350.0,-14.5282,71.1742
2154.4346900318824,97404.4,-24.21594,71.1813
4641.588833612777,73593.67,-44.20127,71.1655
10000.0,53460.88,-59.80772,71.1747
