Frequency,Impedance,Phase Angle,Temperature (Dry Bath)
10.0,42189260.0,-28.22355,67.3174
21.5,25830330.0,-27.82678,67.2978
46.4,18263400.0,-56.50681,67.3056
100.0,6202282.0,-16.33989,67.3101
215.4,8289280.0,-97.38892,67.2987
464.2,2434797.0,-84.18701,67.3071
1000.0,1001157.0,-78.80421,67.301
2154.4,545958.1,-84.3998,67.304
4641.6,242019.2,-85.76031,67.2953
10000.0,121874.0,-84.55288,67.3046
