Frequency,Impedance,Phase Angle,Temperature (Dry Bath)
10.0,1445154.0,-9.941859,67.8413
21.5,1294340.0,-9.946685,67.8409
46.4,1216801.0,-10.86219,67.8366
100.0,1095684.0,-13.03907,67.8437
215.4,1086152.0,-18.48241,67.8472
464.2,915319.6,-25.35633,67.8342
1000.0,716370.4,-43.86761,67.8496
2154.4,483643.3,-57.65677,67.8398
4641.6,260263.6,-73.23627,67.8334
10000.0,131512.8,-84.80472,67.8322
