Frequency,Impedance,Phase Angle,Temperature (Dry Bath)
10.0,13824200.0,-14.6594,65.7834
21.544346900318832,4736033.0,-8.888522,65.8089
46.41588833612777,3577555.0,15.21359,65.7996
100.0,993532.3,-157.8835,65.8024
215.44346900318823,17681.72,96.9067,65.8146
464.15888336127773,634998.0,-42.68188,65.812
1000.0,591900.3,-70.90943,65.8115
2154.4346900318824,228854.1,-88.19341,65.8031
4641.588833612777,129621.6,-99.13245,65.8121
10000.0,67915.95,-84.89284,65.7927
