Frequency,Impedance,Phase Angle,Temperature (Dry Bath)
10.0,29233360.0,-14.97351,67.043
21.5,29150140.0,-47.78624,67.0291
46.4,12575200.0,-66.38808,67.0453
100.0,6220057.0,-65.85121,67.0335
215.4,1919576.0,-85.25518,67.0467
464.2,1589607.0,-65.43209,67.0382
1000.0,915917.6,-74.04386,67.0459
2154.4,395588.8,-83.49611,67.0235
4641.6,210382.9,-82.11651,67.0216
10000.0,101998.4,-80.94089,67.0389
