Frequency,Impedance,Phase Angle,Temperature (Dry Bath)
10.0,7084068.0,8.30498,70.6878
21.544346900318832,5318338.0,-23.50893,70.6997
46.41588833612777,6179288.0,-14.99013,70.6952
100.0,572038.7,35.20041,70.6813
215.44346900318823,863837.8,74.66443,70.6995
464.15888336127773,606106.3,-42.59376,70.6979
1000.0,423698.7,-67.01155,70.6848
2154.4346900318824,181960.6,-104.5846,70.6947
4641.588833612777,167880.3,-75.40912,70.6907
10000.0,57529.56,-78.8726,70.7022
