Frequency,Impedance,Phase Angle,Temperature (Dry Bath)
10.0,29446680.0,3.162593,67.347
21.5,19716450.0,-44.7472,67.3344
46.4,16586820.0,-50.64823,67.3427
100.0,4718702.0,-61.54513,67.3453
215.4,3163406.0,-116.6981,67.3523
464.2,2649765.0,-65.11648,67.3542
1000.0,1058418.0,-89.10079,67.3452
2154.4,475139.9,-86.40893,67.3638
4641.6,218843.0,-82.10373,67.3653
10000.0,107624.8,-82.03637,67.3636
