Frequency,Impedance,Phase Angle,Temperature (Dry Bath)
10.0,167256.9,-14.35657,71.1381
21.544346900318832,150656.2,-12.84679,71.1314
46.41588833612777,134903.6,-12.34367,71.1327
100.0,99511.94,0.5469349,71.1387
215.44346900318823,121383.2,-15.65277,71.1499
464.15888336127773,93299.91,-17.52061,71.1492
1000.0,92135.12,-13.39066,71.1329
2154.4346900318824,79173.02,-25.3738,71.1406
4641.588833612777,65284.2,-27.57712,71.151
10000.0,42667.33,-51.27363,71.1395
