Frequency,Impedance,Phase Angle,Temperature (Dry Bath)
10.0,3653553.0,8.323914,70.9537
21.544346900318832,13167860.0,-43.8608,70.9707
46.41588833612777,4044661.0,-19.72499,70.937
100.0,879172.1,-117.8057,70.9382
215.44346900318823,963182.9,-165.0374,70.9522
464.15888336127773,865482.9,-10.42135,70.9603
1000.0,372850.3,-56.06143,70.9479
2154.4346900318824,317504.0,-73.48234,70.9468
4641.588833612777,125650.3,-96.82706,70.9482
10000.0,62271.68,-81.19866,70.9352
