Frequency,Impedance,Phase Angle,Temperature (Dry Bath)
10.0,263086.4,-23.5584,67.2645
21.5,219492.4,-21.65118,67.2375
46.4,187287.8,-19.3055,67.2645
100.0,160351.3,-16.47561,67.2445
215.4,144686.1,-14.223,67.2505
464.2,132914.5,-15.5603,67.2467
1000.0,117477.8,-18.50978,67.2505
2154.4,99608.59,-23.38988,67.2535
4641.6,83400.42,-31.61235,67.2528
10000.0,57760.39,-40.4578,67.2521
