Frequency,Impedance,Phase Angle,Temperature (Dry Bath)
10.0,1425022.0,-15.82341,67.8023
21.5,1324985.0,-14.65385,67.8216
46.4,1123873.0,-13.82759,67.8059
100.0,932104.5,-15.26441,67.8202
215.4,991370.3,-18.5209,67.8165
464.2,923409.9,-21.61153,67.8032
1000.0,730286.6,-36.35285,67.8109
2154.4,447440.1,-58.69082,67.82
4641.6,259821.5,-73.2288,67.8169
10000.0,136140.2,-82.92398,67.8169
