Frequency,Impedance,Phase Angle,Temperature (Dry Bath)
10.0,28526340.0,-26.34102,67.3681
21.5,26401330.0,-31.88375,67.3683
46.4,21443780.0,-50.00021,67.3654
100.0,5582161.0,-72.02825,67.3812
215.4,7347938.0,-31.91873,67.3608
464.2,1947697.0,-82.93825,67.3712
1000.0,1016560.0,-85.00785,67.3655
2154.4,567200.9,-90.23317,67.3656
4641.6,245139.0,-85.55161,67.3671
10000.0,124988.5,-83.72273,67.3712
