Frequency,Impedance,Phase Angle,Temperature (Dry Bath)
10.0,114689.7,-4.066892,66.9808
21.5,111358.7,-3.089127,66.9999
46.4,110084.5,-3.16793,66.9986
100.0,111183.6,-4.947996,66.9954
215.4,67807.17,24.28064,66.9923
464.2,106555.8,-6.136631,66.9828
1000.0,100623.3,-8.679764,66.9788
2154.4,96508.46,-14.93119,66.9768
4641.6,87384.24,-24.10737,66.9752
10000.0,69437.73,-40.01924,66.9734
