Frequency,Impedance,Phase Angle,Temperature (Dry Bath)
10.0,170302.7,-12.89251,71.2607
21.544346900318832,158097.1,-12.89999,71.2567
46.41588833612777,142873.9,-11.92898,71.262
100.0,112752.2,-7.544231,71.255
215.44346900318823,127224.0,-14.55925,71.264
464.15888336127773,97988.93,-11.2996,71.2581
1000.0,119486.9,-9.087573,71.2634
2154.4346900318824,88887.12,-21.39189,71.2582
4641.588833612777,68366.85,-42.46858,71.2599
10000.0,52420.35,-53.31591,71.2547
