Frequency,Impedance,Phase Angle,Temperature (Dry Bath)
10.0,5260904.0,-44.25561,65.6928
21.544346900318832,4787176.0,-15.54205,65.7225
46.41588833612777,16969830.0,-25.63618,65.7138
100.0,286153.4,-40.82288,65.713
215.44346900318823,23767.71,108.9265,65.7039
464.15888336127773,1391428.0,10.61126,65.7261
1000.0,504063.3,-122.4171,65.7196
2154.4346900318824,214671.9,-102.7218,65.7065
4641.588833612777,137449.9,-78.00187,65.7038
10000.0,70776.28,-84.70179,65.7027
