Frequency,Impedance,Phase Angle,Temperature (Dry Bath)
10.0,208491.0,-23.54812,67.2394
21.5,174559.6,-20.63977,67.2287
46.4,151137.7,-18.07349,67.2551
100.0,131510.3,-15.29185,67.241
215.4,125998.0,41.94744,67.2436
464.2,110069.3,-12.72341,67.2442
1000.0,100134.9,-15.64704,67.2475
2154.4,91132.95,-19.627,67.2298
4641.6,78162.76,-28.01581,67.2436
10000.0,59411.19,-39.53515,67.2397
