Frequency,Impedance,Phase Angle,Temperature (Dry Bath)
10.0,22267260.0,-12.91309,68.1863
21.5,34134410.0,-48.19485,68.1878
46.4,32998190.0,-50.28203,68.2011
100.0,8685554.0,-31.93846,68.1859
215.4,9578961.0,-63.64113,68.1767
464.2,2374217.0,-81.71149,68.1777
1000.0,1286739.0,-82.48308,68.1837
2154.4,643767.7,-89.3839,68.2001
4641.6,284105.0,-93.38017,68.1994
10000.0,148385.6,-102.0237,68.2099
