Frequency,Impedance,Phase Angle,Temperature (Dry Bath)
10.0,23722300.0,-17.12838,67.5661
21.5,23329440.0,-15.43891,67.5702
46.4,16397050.0,-59.79155,67.572
100.0,6020930.0,-4.166521,67.5637
215.4,132628.6,-122.3676,67.548
464.2,1512801.0,-84.63407,67.5566
1000.0,1233140.0,-84.20859,67.5675
2154.4,532560.8,-87.34267,67.5602
4641.6,257157.9,-82.08536,67.5703
10000.0,124821.3,-82.53155,67.5555
