Frequency,Impedance,Phase Angle,Temperature (Dry Bath)
10.0,7831821.0,22.02773,71.4267
21.544346900318832,4408311.0,-42.96242,71.4153
46.41588833612777,4464449.0,-18.70273,71.4074
100.0,496542.7,132.7754,71.4008
215.44346900318823,1485645.0,-1.101887,71.429
464.15888336127773,1397496.0,163.0636,71.4137
1000.0,609212.5,-7.926489,71.4251
2154.4346900318824,308279.2,-97.06702,71.4184
4641.588833612777,221709.0,-94.33583,71.4294
10000.0,109149.6,-82.35487,71.4207
