Frequency,Impedance,Phase Angle,Temperature (Dry Bath)
10.0,134836.4,-3.652057,67.3113
21.5,132488.7,-3.379061,67.308
46.4,129959.8,-3.401332,67.3204
100.0,127327.7,-4.121515,67.3132
215.4,80694.34,-11.71203,67.3067
464.2,119171.1,-7.849976,67.3027
1000.0,115630.5,-9.728552,67.3171
2154.4,111202.5,-16.01312,67.2943
4641.6,96204.57,-27.71984,67.3042
10000.0,74234.05,-44.18688,67.3118
