Frequency,Impedance,Phase Angle,Temperature (Dry Bath)
10.0,149832.2,-4.939105,67.9549
21.5,145209.2,-4.231825,67.9679
46.4,141921.1,-3.832415,67.9621
100.0,137136.8,-3.720118,67.9854
215.4,135023.3,-5.626733,67.9745
464.2,134038.9,-3.518063,67.9683
1000.0,127366.0,-10.58455,67.9543
2154.4,121948.7,-16.16773,67.973
4641.6,110951.5,-30.02387,67.9691
10000.0,83420.82,-50.58844,67.9736
