Frequency,Impedance,Phase Angle,Temperature (Dry Bath)
10.0,1501771.0,-17.80388,67.2386
21.5,1345657.0,-16.14243,67.2484
46.4,1213423.0,-13.86785,67.2335
100.0,1049360.0,-10.00924,67.2379
215.4,249962.4,-66.75843,67.2302
464.2,868045.9,-15.40568,67.2363
1000.0,667808.9,-45.37634,67.236
2154.4,436259.5,-61.26798,67.2393
4641.6,235394.0,-71.9379,67.2431
10000.0,110041.8,-79.28325,67.24
