Frequency,Impedance,Phase Angle,Temperature (Dry Bath)
10.0,1437223.0,-15.93061,68.1066
21.5,1203042.0,-14.35572,68.0883
46.4,1108311.0,-13.30996,68.0949
100.0,1005286.0,-6.065898,68.0843
215.4,857058.4,-13.63856,68.0811
464.2,756712.5,-19.11432,68.0938
1000.0,693971.3,-35.05499,68.1033
2154.4,444898.3,-58.67123,68.0852
4641.6,254885.7,-74.96133,68.1
10000.0,127976.9,-84.60957,68.0735
