Frequency,Impedance,Phase Angle,Temperature (Dry Bath)
10.0,6916402.0,2.729318,71.4034
21.544346900318832,4149175.0,-21.72187,71.4072
46.41588833612777,3321870.0,-34.45588,71.4038
100.0,900852.4,152.8215,71.4105
215.44346900318823,18156.46,116.2548,71.3994
464.15888336127773,634852.1,-46.38984,71.4122
1000.0,403051.9,-102.8871,71.4102
2154.4346900318824,176083.1,-77.4064,71.4208
4641.588833612777,145028.0,-85.63963,71.4187
10000.0,60776.84,-78.26405,71.4123
