Frequency,Impedance,Phase Angle,Temperature (Dry Bath)
10.0,26848940.0,-14.21728,67.1151
21.5,22441750.0,-25.0286,67.093
46.4,15423690.0,-52.68457,67.1028
100.0,11106070.0,-56.97676,67.1164
215.4,8327776.0,-87.13229,67.0966
464.2,3440906.0,-115.2672,67.1027
1000.0,1045845.0,-81.27996,67.1029
2154.4,514958.6,-92.34604,67.1169
4641.6,236717.5,-81.50511,67.1135
10000.0,120745.3,-85.19463,67.102
