Frequency,Impedance,Phase Angle,Temperature (Dry Bath)
10.0,5336943.0,35.47568,72.1867
21.544346900318832,4002471.0,-31.42844,72.1907
46.41588833612777,6618853.0,-32.61071,72.1815
100.0,371384.4,58.38361,72.1929
215.44346900318823,551493.5,-44.7124,72.1802
464.15888336127773,795341.3,-19.59842,72.1825
1000.0,611404.6,100.9003,72.1738
2154.4346900318824,1457051.0,-21.46069,72.1597
4641.588833612777,272664.0,-62.75005,72.1692
10000.0,162142.4,-82.94736,72.1677
