Frequency,Impedance,Phase Angle,Temperature (Dry Bath)
10.0,1442454.0,11.9418,67.358
21.5,3018999.0,7.365844,67.3651
46.4,4097507.0,-1.672761,67.36
100.0,2911506.0,-55.45286,67.3488
215.4,323314.1,-151.365,67.3638
464.2,2317215.0,-57.24096,67.3725
1000.0,1032595.0,-85.41671,67.368
2154.4,569562.5,-79.92734,67.3671
4641.6,258603.6,-84.59139,67.3825
10000.0,123274.6,-85.29244,67.3761
