Frequency,Impedance,Phase Angle,Temperature (Dry Bath)
10.0,39094300.0,-4.312134,67.1348
21.5,28884980.0,-16.37274,67.122
46.4,18671950.0,-48.60984,67.1329
100.0,11136970.0,-51.14979,67.1089
215.4,3559994.0,-79.63587,67.1323
464.2,2255272.0,-82.99291,67.1263
1000.0,1038746.0,-81.01274,67.1216
2154.4,502247.1,-82.23205,67.1241
4641.6,250357.0,-88.28324,67.1168
10000.0,120645.8,-87.96173,67.1055
