Frequency,Impedance,Phase Angle,Temperature (Dry Bath)
10.0,8340415.0,-38.80778,65.7384
21.544346900318832,5535117.0,-28.55684,65.7288
46.41588833612777,5414474.0,-13.64558,65.7324
100.0,1210114.0,83.09841,65.7592
215.44346900318823,670672.4,-123.3386,65.7637
464.15888336127773,846899.6,-127.6438,65.7387
1000.0,354324.6,7.322724,65.771
2154.4346900318824,330195.3,-92.12217,65.7571
4641.588833612777,168991.9,-75.9051,65.7565
10000.0,64728.5,-81.99615,65.7526
