Frequency,Impedance,Phase Angle,Temperature (Dry Bath)
10.0,43603810.0,-34.54168,67.1659
21.5,17736200.0,-44.79766,67.1735
46.4,12268090.0,-63.65328,67.1727
100.0,2575625.0,-33.0811,67.1774
215.4,2197007.0,-100.2185,67.1531
464.2,1492466.0,-84.1502,67.1558
1000.0,776612.9,-78.5338,67.1624
2154.4,429493.2,-85.92107,67.1736
4641.6,197912.6,-80.88713,67.171
10000.0,101745.6,-80.87431,67.164
