Frequency,Impedance,Phase Angle,Temperature (Dry Bath)
10.0,36035250.0,-21.16419,67.386
21.5,31501920.0,-20.11682,67.3779
46.4,19150320.0,-52.88891,67.3653
100.0,5244090.0,-34.66859,67.3795
215.4,4702409.0,-54.27354,67.3753
464.2,1997851.0,-87.14542,67.3879
1000.0,1370043.0,-80.7205,67.3858
2154.4,624817.4,-91.64335,67.3936
4641.6,276857.5,-88.90759,67.3779
10000.0,134757.6,-88.88626,67.3961
