Frequency,Impedance,Phase Angle,Temperature (Dry Bath)
10.0,1471579.0,-17.55975,67.384
21.5,1314938.0,-15.86491,67.3844
46.4,1184537.0,-14.96841,67.3762
100.0,864658.9,-18.18812,67.3974
215.4,923393.5,-27.9244,67.3783
464.2,805084.7,-32.72538,67.3878
1000.0,621776.2,-44.5688,67.3949
2154.4,474514.2,-60.81364,67.384
4641.6,233132.8,-73.09696,67.3781
10000.0,111555.9,-79.49932,67.3834
