Frequency,Impedance,Phase Angle,Temperature (Dry Bath)
10.0,42788530.0,-12.99098,67.8754
21.5,26064570.0,-31.92544,67.8835
46.4,11958160.0,-58.0367,67.8961
100.0,5899745.0,-48.64709,67.8862
215.4,3480555.0,-76.77502,67.8791
464.2,2569101.0,-74.75692,67.8841
1000.0,1175406.0,-83.69412,67.8858
2154.4,554334.1,-92.64621,67.8916
4641.6,268810.1,-85.57152,67.8847
10000.0,133166.6,-96.65901,67.884
