Frequency,Impedance,Phase Angle,Temperature (Dry Bath)
10.0,24739950.0,-18.3556,67.1187
21.5,31202710.0,-39.90855,67.128
46.4,16782380.0,-49.78449,67.1086
100.0,6880512.0,-61.09974,67.1333
215.4,2324058.0,-75.21421,67.1211
464.2,2514787.0,-73.37801,67.1293
1000.0,1238069.0,-82.43801,67.1448
2154.4,524991.6,-92.26336,67.1446
4641.6,264018.7,-87.56764,67.1308
10000.0,122743.6,-86.43977,67.1314
