Frequency,Impedance,Phase Angle,Temperature (Dry Bath)
10.0,734532.8,-10.1827,67.6513
21.5,706579.9,-10.19052,67.6734
46.4,654253.6,-10.98714,67.6649
100.0,585356.9,-9.199838,67.6514
215.4,556985.7,-12.07997,67.6723
464.2,483557.5,-17.55273,67.6441
1000.0,399801.8,-27.78472,67.6885
2154.4,327125.4,-42.17974,67.6675
4641.6,222819.9,-61.75417,67.6649
10000.0,123050.6,-77.17392,67.6568
