Frequency,Impedance,Phase Angle,Temperature (Dry Bath)
10.0,112219.1,-15.5316,68.0374
21.5,100512.0,-13.39153,68.0541
46.4,91857.62,-11.80792,68.0403
100.0,83930.74,-10.88565,68.0541
215.4,78122.02,-10.62595,68.049
464.2,72542.42,-10.37158,68.0729
1000.0,68584.93,-12.03687,68.051
2154.4,66229.18,-15.74201,68.0589
4641.6,59266.56,-20.92148,68.0514
10000.0,48130.85,-34.22816,68.0523
