Frequency,Impedance,Phase Angle,Temperature (Dry Bath)
10.0,19506070.0,-10.32341,68.0547
21.5,16163160.0,-21.86508,68.0499
46.4,18457000.0,-42.93742,68.0545
100.0,20671930.0,72.23234,68.0457
215.4,6700938.0,-137.8925,68.0538
464.2,2100975.0,-72.87741,68.0468
1000.0,1389745.0,-87.28577,68.0412
2154.4,614738.7,-89.09411,68.0532
4641.6,328150.2,-88.27429,68.0446
10000.0,128206.2,-93.69446,68.0569
