Frequency,Impedance,Phase Angle,Temperature (Dry Bath)
10.0,24730360.0,-15.67517,68.2024
21.5,28907130.0,-18.78792,68.2057
46.4,22869670.0,-47.68233,68.1823
100.0,11713910.0,33.10679,68.1841
215.4,5722116.0,-57.06623,68.2023
464.2,3120949.0,-103.8191,68.1991
1000.0,1173928.0,-83.32206,68.195
2154.4,578479.3,-89.11061,68.1829
4641.6,297809.9,-92.74398,68.1888
10000.0,139686.6,-92.60006,68.1949
