Frequency,Impedance,Phase Angle,Temperature (Dry Bath)
10.0,32708210.0,-12.35245,67.5602
21.5,24488150.0,-35.87859,67.5495
46.4,18121070.0,-50.2056,67.5625
100.0,10956820.0,-5.357032,67.5533
215.4,101789.0,165.7096,67.5396
464.2,2566132.0,-100.5781,67.5538
1000.0,1207607.0,-94.06161,67.5539
2154.4,546700.5,-83.24475,67.5675
4641.6,261020.0,-85.99141,67.5643
10000.0,126758.8,-86.10113,67.5674
