Frequency,Impedance,Phase Angle,Temperature (Dry Bath)
10.0,1482418.0,-18.09252,67.3661
21.5,1306868.0,-16.46612,67.3738
46.4,1191636.0,-14.58159,67.3683
100.0,911705.0,-13.02956,67.3844
215.4,904262.8,-13.48311,67.3674
464.2,875262.7,-27.09998,67.363
1000.0,717026.2,-50.89075,67.3578
2154.4,435121.0,-61.38823,67.3466
4641.6,225299.9,-72.70818,67.3639
10000.0,110404.8,-78.76186,67.3689
