Frequency,Impedance,Phase Angle,Temperature (Dry Bath)
10.0,1546169.0,-17.75397,67.0448
21.5,1394824.0,-16.64384,67.0734
46.4,1257884.0,-15.35718,67.0679
100.0,1268650.0,-10.08691,67.0538
215.4,1201161.0,-31.32223,67.0619
464.2,1002947.0,-22.9348,67.0755
1000.0,679733.3,-45.34231,67.0732
2154.4,426737.6,-63.72982,67.0668
4641.6,213801.3,-72.78625,67.0521
10000.0,111723.9,-80.73698,67.0623
