Frequency,Impedance,Phase Angle,Temperature (Dry Bath)
10.0,109425.5,-18.10235,71.1792
21.544346900318832,96201.99,-16.30041,71.1835
46.41588833612777,84107.79,-15.93613,71.1811
100.0,74110.87,-13.78883,71.1836
215.44346900318823,65276.8,-16.65131,71.1905
464.15888336127773,59357.97,-15.27334,71.189
1000.0,51747.28,-13.78687,71.1979
2154.4346900318824,48629.65,-15.3855,71.1875
4641.588833612777,42185.17,-18.35252,71.1876
10000.0,36720.57,-24.88616,71.1729
