Frequency,Impedance,Phase Angle,Temperature (Dry Bath)
10.0,4197337.0,-3.392223,71.8648
21.544346900318832,5927122.0,-0.8210103,71.8682
46.41588833612777,5306582.0,-5.268467,71.8748
100.0,826794.8,-168.0373,71.8735
215.44346900318823,395748.7,107.327,71.8689
464.15888336127773,1228940.0,98.51127,71.8696
1000.0,612783.2,-150.8689,71.8579
2154.4346900318824,744757.3,31.81073,71.8702
4641.588833612777,188384.0,-74.97466,71.8605
10000.0,224528.8,-57.13958,71.8717
