Frequency,Impedance,Phase Angle,Temperature (Dry Bath)
10.0,4579540.0,-6.502729,71.3198
21.544346900318832,4394719.0,-1.431364,71.3319
46.41588833612777,8640641.0,-48.22744,71.3261
100.0,2408822.0,101.9028,71.3249
215.44346900318823,28362.16,-104.7222,71.3313
464.15888336127773,518680.6,-11.57621,71.3328
1000.0,212444.6,-121.4402,71.3288
2154.4346900318824,320037.4,-79.91293,71.3265
4641.588833612777,154946.5,-95.11395,71.3078
10000.0,63990.31,-92.86978,71.3315
