Frequency,Impedance,Phase Angle,Temperature (Dry Bath)
10.0,2639287.0,-5.116627,70.9565
21.544346900318832,2166465.0,-14.89772,70.9633
46.41588833612777,2312095.0,-21.3281,70.9538
100.0,387647.7,-144.8275,70.9713
215.44346900318823,2331298.0,-76.32399,70.9739
464.15888336127773,410381.0,-30.20181,70.9744
1000.0,474566.5,-51.27062,70.9503
2154.4346900318824,191442.6,-84.67785,70.9608
4641.588833612777,155031.3,-83.63516,70.9552
10000.0,60537.73,-86.37972,70.9542
