Frequency,Impedance,Phase Angle,Temperature (Dry Bath)
10.0,5915238.0,-2.601497,70.9242
21.544346900318832,4364907.0,-11.0155,70.919
46.41588833612777,4594342.0,-24.69515,70.9234
100.0,332337.5,88.26343,70.9288
215.44346900318823,928237.0,-6.756943,70.9212
464.15888336127773,434057.8,-89.48806,70.9151
1000.0,821807.1,-89.89568,70.9338
2154.4346900318824,188023.6,-74.19469,70.9301
4641.588833612777,113719.6,-83.88685,70.917
10000.0,59672.37,-76.38991,70.9259
