Frequency,Impedance,Phase Angle,Temperature (Dry Bath)
10.0,239716.5,-22.93121,67.29
21.5,201514.4,-20.30811,67.2679
46.4,174713.0,-17.80883,67.2893
100.0,151491.6,-15.68655,67.2969
215.4,140593.3,-11.84472,67.2807
464.2,127037.4,-14.55206,67.2981
1000.0,116395.2,-18.17489,67.2849
2154.4,102608.8,-22.84917,67.2891
4641.6,85477.77,-31.02293,67.2858
10000.0,61949.61,-43.54093,67.2993
