Frequency,Impedance,Phase Angle,Temperature (Dry Bath)
10.0,23734440.0,-22.90852,67.2196
21.5,18811910.0,-34.91633,67.2351
46.4,13435450.0,-65.67796,67.2361
100.0,7017652.0,-64.72852,67.2272
215.4,260380.2,-123.3292,67.2341
464.2,1729901.0,-72.65985,67.2442
1000.0,850977.6,-81.94764,67.2211
2154.4,403778.5,-84.60211,67.2301
4641.6,199320.3,-83.39565,67.2295
10000.0,99455.23,-80.9516,67.2339
