Frequency,Impedance,Phase Angle,Temperature (Dry Bath)
10.0,24661840.0,-25.48689,68.2338
21.5,22036660.0,-23.86354,68.2338
46.4,21369000.0,-58.73614,68.2338
100.0,6186245.0,-26.21748,68.2338
215.4,6046278.0,-73.34935,68.2338
464.2,2829566.0,-84.5568,68.2338
1000.0,1420491.0,-88.72513,68.2338
2154.4,684416.7,-90.67547,68.2338
4641.6,300360.7,-93.52719,68.2338
10000.0,156559.5,-98.3136,68.2338
