Frequency,Impedance,Phase Angle,Temperature (Dry Bath)
10.0,9774648.0,-58.8993,71.2484
21.544346900318832,6620257.0,-26.26068,71.2595
46.41588833612777,4647077.0,-5.893065,71.2504
100.0,955204.2,13.5735,71.2622
215.44346900318823,1135376.0,26.89957,71.2544
464.15888336127773,7027672.0,-178.3445,71.264
1000.0,1349653.0,-84.79178,71.2637
2154.4346900318824,288667.5,-85.63675,71.2799
4641.588833612777,134252.7,-102.0838,71.2435
10000.0,60276.64,-93.4481,71.2699
