Frequency,Impedance,Phase Angle,Temperature (Dry Bath)
10.0,4497457.0,-16.96731,71.0664
21.544346900318832,4730111.0,-17.61174,71.0755
46.41588833612777,6178403.0,-21.60984,71.0617
100.0,488110.9,-104.8266,71.0675
215.44346900318823,2482406.0,-155.7771,71.0659
464.15888336127773,383573.0,-56.62847,71.0816
1000.0,617362.3,-61.31135,71.0799
2154.4346900318824,317287.4,-75.74359,71.0723
4641.588833612777,128119.5,-74.82198,71.0888
10000.0,61081.83,-84.44688,71.0636
