Frequency,Impedance,Phase Angle,Temperature (Dry Bath)
10.0,29477050.0,-26.66435,67.1105
21.5,24481750.0,-28.57945,67.0823
46.4,19932260.0,-49.92584,67.0805
100.0,2967887.0,-16.6546,67.0878
215.4,1887000.0,-104.1843,67.0867
464.2,2528472.0,-96.71795,67.1019
1000.0,1163989.0,-90.40383,67.0864
2154.4,561800.0,-93.14632,67.0929
4641.6,258046.5,-85.34489,67.0873
10000.0,121891.4,-86.13354,67.0844
