Frequency,Impedance,Phase Angle,Temperature (Dry Bath)
10.0,39373290.0,-37.25042,67.2423
21.5,27654960.0,-23.24443,67.2506
46.4,17105320.0,-52.30734,67.2308
100.0,2906615.0,-156.2061,67.2249
215.4,7996181.0,-153.0941,67.2275
464.2,2262604.0,-81.58033,67.2302
1000.0,1267876.0,-91.53518,67.2439
2154.4,531369.1,-90.79579,67.2424
4641.6,273832.4,-86.16983,67.2296
10000.0,124478.4,-85.81324,67.2476
