Frequency,Impedance,Phase Angle,Temperature (Dry Bath)
10.0,6447868.0,-2.112655,71.0088
21.544346900318832,6867900.0,-4.07086,71.0021
46.41588833612777,5916841.0,-21.0159,70.9985
100.0,907852.4,-55.51706,71.0048
215.44346900318823,811565.0,-45.10088,70.9998
464.15888336127773,1071813.0,162.5585,71.0176
1000.0,734970.4,-134.235,71.005
2154.4346900318824,591241.9,-69.84958,71.0047
4641.588833612777,260459.9,-125.923,71.0182
10000.0,132912.8,-88.55256,71.0178
