Frequency,Impedance,Phase Angle,Temperature (Dry Bath)
10.0,50710.38,-34.64101,67.2118
21.5,38436.46,-30.47589,67.2017
46.4,30853.4,-26.61511,67.1954
100.0,25701.11,-22.93814,67.2025
215.4,22081.94,-25.89763,67.1963
464.2,19880.24,-16.21905,67.2139
1000.0,17704.81,-14.04068,67.2081
2154.4,16220.16,-12.69404,67.2216
4641.6,14905.72,-12.52154,67.2121
10000.0,13837.29,-13.95054,67.2032
