Frequency,Impedance,Phase Angle,Temperature (Dry Bath)
10.0,4151982.0,-27.28053,71.0564
21.544346900318832,3971522.0,-4.255436,71.0755
46.41588833612777,5907273.0,-30.44473,71.0829
100.0,1179103.0,70.44319,71.0654
215.44346900318823,619699.3,-38.21967,71.0548
464.15888336127773,316748.1,-139.419,71.0683
1000.0,435614.6,-65.90087,71.066
2154.4346900318824,252050.9,-97.02091,71.0507
4641.588833612777,120077.7,-82.71436,71.0588
10000.0,59022.64,-84.79296,71.0437
