Frequency,Impedance,Phase Angle,Temperature (Dry Bath)
10.0,171567.0,-21.96338,67.6656
21.5,146202.9,-18.64572,67.6597
46.4,128141.4,-16.48609,67.6723
100.0,113093.7,-15.0521,67.6679
215.4,103136.6,-14.0156,67.651
464.2,97074.63,-13.34283,67.6634
1000.0,88651.48,-14.00782,67.6858
2154.4,79340.05,-20.14291,67.6632
4641.6,69959.97,-25.41447,67.6482
10000.0,57208.65,-38.94344,67.6585
