Frequency,Impedance,Phase Angle,Temperature (Dry Bath)
10.0,20768180.0,-18.86229,68.0397
21.5,21469960.0,-37.58641,68.0432
46.4,20174360.0,-48.39827,68.0649
100.0,4149788.0,-35.91666,68.0458
215.4,5205278.0,-78.34768,68.0568
464.2,3213612.0,-93.22676,68.0488
1000.0,1361580.0,-77.87085,68.0678
2154.4,723293.0,-92.45545,68.0559
4641.6,324055.2,-92.69242,68.032
10000.0,150073.7,-95.95244,68.0501
