Frequency,Impedance,Phase Angle,Temperature (Dry Bath)
10.0,119334.8,-16.68319,68.0053
21.5,106176.3,-14.50298,67.983
46.4,97002.91,-12.69515,68.0075
100.0,88560.33,-11.93562,68.0124
215.4,81874.47,-10.49226,68.0112
464.2,78015.59,-10.7196,68.0065
1000.0,71165.45,-11.74393,68.0086
2154.4,65959.81,-15.17689,68.002
4641.6,59965.04,-22.79938,67.9845
10000.0,54971.22,-33.81523,67.9911
