Frequency,Impedance,Phase Angle,Temperature (Dry Bath)
10.0,25393120.0,-9.620649,67.066
21.5,21533770.0,-33.12524,67.0738
46.4,20170320.0,-55.29717,67.0759
100.0,8738699.0,-33.84516,67.0654
215.4,6578812.0,90.50635,67.0763
464.2,1748279.0,-83.42794,67.072
1000.0,1122818.0,-72.27643,67.0611
2154.4,550824.3,-85.2985,67.0699
4641.6,266776.1,-84.61221,67.0637
10000.0,129603.6,-85.61489,67.0666
