Frequency,Impedance,Phase Angle,Temperature (Dry Bath)
10.0,18044270.0,1.67729,68.3094
21.5,18170770.0,-22.23259,68.3094
46.4,22919710.0,-48.03502,68.3094
100.0,7051308.0,-48.50249,68.3094
215.4,4502950.0,-51.67879,68.3094
464.2,2998438.0,-71.89657,68.3094
1000.0,1414167.0,-88.17179,68.3094
2154.4,692632.6,-93.0776,68.3094
4641.6,315873.5,-93.09753,68.3094
10000.0,156494.0,-97.50321,68.3094
