Frequency,Impedance,Phase Angle,Temperature (Dry Bath)
10.0,117388.7,-3.066002,67.1252
21.5,114956.2,-2.6721,67.1315
46.4,112891.8,-2.697824,67.1117
100.0,109373.7,-3.084143,67.1389
215.4,127030.9,-34.55751,67.154
464.2,109008.7,-4.633701,67.1206
1000.0,105353.4,-8.607223,67.1358
2154.4,100812.7,-14.17347,67.1376
4641.6,89272.88,-25.37772,67.14
10000.0,71252.6,-41.24594,67.1249
