Frequency,Impedance,Phase Angle,Temperature (Dry Bath)
10.0,225083.1,-23.03269,67.1255
21.5,189536.9,-20.32991,67.1212
46.4,164344.4,-17.68312,67.1146
100.0,146659.7,-16.42316,67.1269
215.4,130330.7,-16.54731,67.1054
464.2,120419.7,-13.35232,67.0947
1000.0,109271.5,-17.49759,67.1006
2154.4,95569.82,-21.40067,67.1298
4641.6,81576.48,-30.97749,67.1293
10000.0,60829.64,-41.94463,67.1105
