Frequency,Impedance,Phase Angle,Temperature (Dry Bath)
10.0,17876950.0,-35.573,67.9687
21.5,16356000.0,-40.30151,67.9687
46.4,17165400.0,-62.39333,67.9687
100.0,5425955.0,-44.62455,67.9687
215.4,3381598.0,-68.79389,67.9687
464.2,1798655.0,-82.99382,67.9687
1000.0,1114268.0,-78.81505,67.9687
2154.4,577464.5,-83.48607,67.9687
4641.6,269591.6,-89.48649,67.9687
10000.0,125298.8,-96.36718,67.9687
