Frequency,Impedance,Phase Angle,Temperature (Dry Bath)
10.0,18421660.0,-15.33926,68.0523
21.5,18144410.0,-34.76512,68.0523
46.4,13270710.0,-48.20543,68.0523
100.0,5402693.0,-38.3192,68.0523
215.4,4521083.0,-47.24344,68.0523
464.2,3103606.0,-88.53627,68.0523
1000.0,1213282.0,-91.40146,68.0523
2154.4,630947.2,-91.60515,68.0523
4641.6,284163.0,-93.01816,68.0523
10000.0,142119.6,-98.42642,68.0523
