Frequency,Impedance,Phase Angle,Temperature (Dry Bath)
10.0,40943140.0,-26.73623,67.1475
21.5,26130800.0,-36.40801,67.1618
46.4,18578800.0,-50.07213,67.1419
100.0,3929084.0,-61.91336,67.1465
215.4,861369.8,142.1445,67.1305
464.2,1567948.0,-75.22687,67.1368
1000.0,1317005.0,-77.89583,67.1431
2154.4,535040.6,-86.3837,67.1499
4641.6,240718.7,-85.5786,67.1591
10000.0,124960.0,-85.31451,67.1531
