Frequency,Impedance,Phase Angle,Temperature (Dry Bath)
10.0,34552250.0,-18.2382,66.9946
21.5,26902570.0,-24.75379,66.9676
46.4,17414450.0,-48.86101,66.9738
100.0,4231238.0,-107.9566,66.9652
215.4,95598.16,51.72765,66.9676
464.2,1966692.0,-80.139,66.9708
1000.0,1605424.0,-64.53884,66.9909
2154.4,683493.6,-89.09784,66.9704
4641.6,281319.2,-88.81541,66.9728
10000.0,123140.7,-84.75638,66.9607
