Frequency,Impedance,Phase Angle,Temperature (Dry Bath)
10.0,98324.95,-3.010741,67.1363
21.5,96408.45,-2.668793,67.1391
46.4,94930.98,-2.491679,67.1468
100.0,93099.64,-4.920398,67.1472
215.4,94010.45,-2.471689,67.1471
464.2,90960.86,-3.916852,67.1518
1000.0,88176.23,-8.702756,67.1596
2154.4,85145.3,-12.59837,67.1451
4641.6,78574.08,-22.47808,67.1505
10000.0,62785.68,-37.78812,67.1389
