Frequency,Impedance,Phase Angle,Temperature (Dry Bath)
10.0,9591107.0,11.1102,65.8071
21.544346900318832,3437346.0,-12.28713,65.8105
46.41588833612777,4846425.0,-23.79603,65.8241
100.0,596293.1,-64.00545,65.8226
215.44346900318823,317012.3,-130.0937,65.8411
464.15888336127773,706139.9,-34.66577,65.8252
1000.0,1049629.0,3.295778,65.831
2154.4346900318824,288641.0,-85.77925,65.8396
4641.588833612777,141542.9,-93.12792,65.8291
10000.0,60015.34,-76.32509,65.8408
