Frequency,Impedance,Phase Angle,Temperature (Dry Bath)
10.0,44599290.0,-22.15807,67.1533
21.5,20307420.0,-50.19484,67.1518
46.4,12732740.0,-59.68056,67.1585
100.0,8172798.0,-82.19924,67.148
215.4,2250237.0,-91.11578,67.1578
464.2,1422728.0,-74.87143,67.1586
1000.0,845685.7,-70.7859,67.159
2154.4,434896.6,-82.5118,67.1619
4641.6,192465.4,-84.12332,67.1428
10000.0,98966.26,-81.23041,67.145
