Frequency,Impedance,Phase Angle,Temperature (Dry Bath)
10.0,22324310.0,-2.005851,67.9676
21.5,20870230.0,-18.76796,67.9757
46.4,14945950.0,-43.31997,67.9676
100.0,5714506.0,-20.54285,67.9755
215.4,5499304.0,-116.9636,67.9739
464.2,3694328.0,-81.74201,67.9662
1000.0,1289669.0,-82.57032,67.9746
2154.4,705323.2,-87.18753,67.9617
4641.6,289479.0,-85.39754,67.9807
10000.0,127404.2,-96.99619,67.9739
