Frequency,Impedance,Phase Angle,Temperature (Dry Bath)
10.0,107348.2,-3.159869,67.089
21.5,105350.3,-2.657577,67.0739
46.4,103352.1,-2.48785,67.0772
100.0,99572.56,-3.217482,67.064
215.4,101051.4,-2.844935,67.0837
464.2,99327.08,-4.624104,67.0654
1000.0,95307.15,-7.885872,67.0563
2154.4,90533.92,-13.70326,67.0663
4641.6,83950.37,-24.06664,67.0661
10000.0,66579.14,-40.34445,67.0541
