Frequency,Impedance,Phase Angle,Temperature (Dry Bath)
10.0,1994717.0,-11.40388,68.0299
21.5,1950052.0,-11.57273,67.9845
46.4,1858639.0,-14.42603,67.9927
100.0,1435242.0,-16.42358,67.9994
215.4,1546238.0,-17.27698,68.0021
464.2,1263524.0,-26.50974,67.9918
1000.0,879032.2,-47.04286,67.9913
2154.4,529018.1,-58.18519,68.0047
4641.6,292208.9,-74.16159,68.0166
10000.0,144034.7,-87.79282,67.9982
