Frequency,Impedance,Phase Angle,Temperature (Dry Bath)
10.0,22515680.0,-6.99478,68.1141
21.5,27960060.0,-26.13209,68.1141
46.4,32024480.0,-44.23361,68.1141
100.0,8309025.0,-73.75056,68.1141
215.4,4118486.0,-77.87797,68.1141
464.2,3027248.0,-84.84489,68.1141
1000.0,1347046.0,-90.89445,68.1141
2154.4,698010.2,-84.05718,68.1141
4641.6,306517.8,-92.05121,68.1141
10000.0,146016.1,-96.14766,68.1141
