Frequency,Impedance,Phase Angle,Temperature (Dry Bath)
10.0,15106720.0,-38.95626,65.8224
21.544346900318832,7619810.0,-2.633448,65.8263
46.41588833612777,5026611.0,-15.78508,65.8249
100.0,355109.7,-16.88557,65.8233
215.44346900318823,595918.1,13.97769,65.8127
464.15888336127773,1444523.0,172.1004,65.8261
1000.0,508941.3,-82.64597,65.8213
2154.4346900318824,267079.9,-82.18223,65.8191
4641.588833612777,144402.7,-78.20531,65.8272
10000.0,72731.12,-81.1068,65.8209
