Frequency,Impedance,Phase Angle,Temperature (Dry Bath)
10.0,23122730.0,-20.26314,67.2367
21.5,30135060.0,-42.41601,67.2286
46.4,10902350.0,-59.92217,67.2319
100.0,3948916.0,-82.80828,67.2294
215.4,245976.2,-144.7366,67.233
464.2,1659534.0,-91.55854,67.2517
1000.0,761126.1,-80.20867,67.225
2154.4,405965.0,-82.0266,67.2261
4641.6,193508.3,-84.06917,67.2287
10000.0,100737.2,-80.73622,67.2434
