Frequency,Impedance,Phase Angle,Temperature (Dry Bath)
10.0,3885254.0,21.29269,71.2582
21.544346900318832,6034531.0,-3.327575,71.2535
46.41588833612777,6526025.0,-2.680995,71.2424
100.0,745279.2,30.03988,71.2575
215.44346900318823,1618531.0,-136.3405,71.2521
464.15888336127773,659784.5,-71.38309,71.2587
1000.0,225544.5,-76.65146,71.2471
2154.4346900318824,296010.2,-92.16075,71.2606
4641.588833612777,122731.7,-83.22217,71.2601
10000.0,74623.81,-78.3102,71.2482
