Frequency,Impedance,Phase Angle,Temperature (Dry Bath)
10.0,6265767.0,-2.873426,70.6026
21.544346900318832,7628016.0,11.50934,70.6143
46.41588833612777,5482415.0,-39.61811,70.6036
100.0,273859.7,-99.01084,70.6022
215.44346900318823,1058832.0,-105.7208,70.601
464.15888336127773,467380.3,-86.09939,70.5969
1000.0,423618.8,-129.0184,70.6086
2154.4346900318824,295325.3,-94.57095,70.5946
4641.588833612777,111728.4,-91.47467,70.6135
10000.0,60138.09,-86.61579,70.6103
