Frequency,Impedance,Phase Angle,Temperature (Dry Bath)
10.0,146865.1,-4.862099,68.0981
21.5,142152.4,-4.202269,68.0734
46.4,138138.7,-3.888744,68.0807
100.0,130254.6,-5.573482,68.068
215.4,137814.7,-4.167073,68.089
464.2,129448.1,-5.877794,68.0781
1000.0,123560.9,-9.091991,68.0788
2154.4,116304.0,-16.52545,68.0704
4641.6,105861.9,-28.88487,68.0839
10000.0,85725.44,-48.63602,68.0818
