Frequency,Impedance,Phase Angle,Temperature (Dry Bath)
10.0,3968739.0,8.067943,71.2748
21.544346900318832,4001309.0,-12.37722,71.2735
46.41588833612777,4554694.0,-32.30016,71.2857
100.0,511839.9,3.862831,71.2588
215.44346900318823,348417.2,136.0952,71.2821
464.15888336127773,1401487.0,15.6426,71.2686
1000.0,333119.7,-154.2763,71.2746
2154.4346900318824,285807.2,-99.43071,71.274
4641.588833612777,135022.9,-87.32133,71.2892
10000.0,63540.73,-88.92678,71.285
