Frequency,Impedance,Phase Angle,Temperature (Dry Bath)
10.0,150437.4,-5.09047,67.98
21.5,145288.7,-4.169574,67.9721
46.4,142075.1,-3.832786,67.9709
100.0,137535.9,-4.671867,67.9812
215.4,137486.0,-5.768793,67.9768
464.2,129705.1,-7.102161,67.9745
1000.0,125717.7,-8.458834,67.9566
2154.4,120981.0,-14.25436,67.986
4641.6,113997.2,-27.51951,67.9806
10000.0,85585.22,-49.49698,67.9881
