Frequency,Impedance,Phase Angle,Temperature (Dry Bath)
10.0,29304790.0,-41.72697,68.0514
21.5,17014620.0,-22.94961,68.0693
46.4,22782460.0,-52.53785,68.0679
100.0,7006832.0,-49.78238,68.052
215.4,5067159.0,-91.52478,68.0664
464.2,4396898.0,-76.9864,68.0813
1000.0,1633640.0,-90.36054,68.0513
2154.4,689996.8,-90.41714,68.0711
4641.6,315323.4,-93.09274,68.0624
10000.0,150480.0,-93.01798,68.0727
