Frequency,Impedance,Phase Angle,Temperature (Dry Bath)
10.0,43930830.0,-10.31212,68.2754
21.5,44165240.0,-37.19461,68.2754
46.4,13713360.0,-39.57369,68.2754
100.0,9317186.0,-75.3717,68.2754
215.4,8052178.0,-81.1004,68.2754
464.2,2189029.0,-79.50427,68.2754
1000.0,1305210.0,-78.50226,68.2754
2154.4,629025.1,-83.53395,68.2754
4641.6,323230.6,-90.71331,68.2754
10000.0,148426.2,-95.98553,68.2754
