Frequency,Impedance,Phase Angle,Temperature (Dry Bath)
10.0,1535724.0,-14.76856,68.031
21.5,1435866.0,-13.71615,68.031
46.4,1379066.0,-13.56159,68.031
100.0,1139522.0,-16.06086,68.031
215.4,1189032.0,-19.35023,68.031
464.2,945155.2,-22.01002,68.031
1000.0,691190.7,-37.7921,68.031
2154.4,529425.2,-58.19964,68.031
4641.6,297759.2,-74.24688,68.031
10000.0,135624.4,-86.30937,68.031
