Frequency,Impedance,Phase Angle,Temperature (Dry Bath)
10.0,31514130.0,-24.16129,67.1799
21.5,28271440.0,-33.64802,67.1675
46.4,13478200.0,-45.81577,67.1697
100.0,6607278.0,-27.11259,67.1777
215.4,139584.4,-147.3776,67.1792
464.2,2077001.0,-79.98555,67.1629
1000.0,1108532.0,-89.15713,67.1744
2154.4,539650.7,-89.00764,67.1677
4641.6,259090.8,-88.40117,67.1728
10000.0,125512.6,-87.32734,67.1557
