Frequency,Impedance,Phase Angle,Temperature (Dry Bath)
10.0,115967.2,-3.144604,67.3821
21.5,113769.9,-2.659655,67.3757
46.4,111946.0,-2.536048,67.3806
100.0,111618.8,-1.837067,67.3883
215.4,109503.1,-3.479265,67.3744
464.2,108364.5,-5.179225,67.3881
1000.0,103104.8,-8.330391,67.3831
2154.4,99619.18,-14.31406,67.3802
4641.6,88667.32,-24.68091,67.3745
10000.0,69481.11,-41.31947,67.377
