Frequency,Impedance,Phase Angle,Temperature (Dry Bath)
10.0,30943090.0,-18.17284,67.7579
21.5,40125500.0,-15.65069,67.7615
46.4,33578000.0,-48.93865,67.7537
100.0,4712986.0,-29.93387,67.7552
215.4,4593464.0,-89.83881,67.7637
464.2,3271871.0,-86.4218,67.7697
1000.0,1538434.0,-83.18181,67.758
2154.4,700948.6,-88.34576,67.7495
4641.6,297288.8,-83.47021,67.7426
10000.0,155377.2,-92.50927,67.7489
