Frequency,Impedance,Phase Angle,Temperature (Dry Bath)
10.0,51805.18,-34.31077,67.3178
21.5,39677.27,-30.25913,67.3104
46.4,32002.77,-26.27683,67.3174
100.0,26778.95,-22.07676,67.3139
215.4,22081.88,-17.09233,67.3155
464.2,20688.8,-15.81803,67.3148
1000.0,18518.79,-13.59622,67.3073
2154.4,17005.87,-12.46421,67.3172
4641.6,15692.97,-12.25712,67.3034
10000.0,14514.31,-14.13464,67.3156
