Frequency,Impedance,Phase Angle,Temperature (Dry Bath)
10.0,151669.4,-4.668443,68.3417
21.5,146945.4,-3.828437,68.3442
46.4,143859.0,-3.714687,68.358
100.0,136452.3,-4.589233,68.3435
215.4,141357.1,-5.230833,68.3344
464.2,134667.0,-7.899073,68.338
1000.0,127467.1,-9.428256,68.3417
2154.4,120409.4,-15.56437,68.3424
4641.6,109655.3,-31.29188,68.3398
10000.0,88938.51,-49.31638,68.3312
