Frequency,Impedance,Phase Angle,Temperature (Dry Bath)
10.0,75890.26,-14.60627,72.2422
21.544346900318832,68296.22,-13.90402,72.2417
46.41588833612777,61347.43,-12.51348,72.2385
100.0,57795.57,-8.077208,72.2498
215.44346900318823,51594.23,-10.75496,72.2468
464.15888336127773,47375.97,-0.06852238,72.2468
1000.0,39648.74,-6.449781,72.2381
2154.4346900318824,40286.62,-6.844281,72.2476
4641.588833612777,39748.16,-10.82769,72.2301
10000.0,32915.24,-14.85841,72.2594
