Frequency,Impedance,Phase Angle,Temperature (Dry Bath)
10.0,1655511.0,-19.63699,67.3484
21.5,1462684.0,-16.57936,67.3511
46.4,1343427.0,-16.37584,67.3493
100.0,1154071.0,-15.84276,67.3677
215.4,964517.7,-16.45419,67.3447
464.2,918862.9,-30.14201,67.3597
1000.0,714747.9,-41.94787,67.3751
2154.4,455421.4,-60.20567,67.3653
4641.6,250715.0,-73.48102,67.3658
10000.0,125933.2,-80.69298,67.3694
