Frequency,Impedance,Phase Angle,Temperature (Dry Bath)
10.0,207869.3,-23.64055,67.2121
21.5,174830.2,-20.5681,67.1971
46.4,151367.8,-17.85832,67.2035
100.0,131951.3,-15.89478,67.1983
215.4,125971.5,1.255409,67.2125
464.2,111263.2,-13.84173,67.2012
1000.0,98851.9,-15.61154,67.2089
2154.4,91274.89,-19.11144,67.2071
4641.6,77243.39,-28.20232,67.194
10000.0,59214.83,-39.26767,67.2008
