Frequency,Impedance,Phase Angle,Temperature (Dry Bath)
10.0,2183125.0,-11.15824,68.1421
21.5,2077904.0,-12.145,68.1421
46.4,2012590.0,-13.52644,68.1421
100.0,1394064.0,-13.48495,68.1421
215.4,1848600.0,-36.06544,68.1421
464.2,1364679.0,-41.53301,68.1421
1000.0,970946.5,-44.543,68.1421
2154.4,548158.9,-65.87605,68.1421
4641.6,294859.2,-76.56295,68.1421
10000.0,145439.5,-91.86303,68.1421
