Frequency,Impedance,Phase Angle,Temperature (Dry Bath)
10.0,117375.2,-3.111261,67.1367
21.5,115014.6,-2.653308,67.133
46.4,112887.3,-2.567117,67.1243
100.0,112453.9,-3.277295,67.1145
215.4,79802.74,-19.35312,67.1214
464.2,106022.8,-5.284506,67.0925
1000.0,104215.3,-7.672599,67.1053
2154.4,100424.8,-14.08418,67.1144
4641.6,91913.9,-24.86091,67.1242
10000.0,70597.04,-42.53439,67.1318
