Frequency,Impedance,Phase Angle,Temperature (Dry Bath)
10.0,25911740.0,-18.79357,67.8947
21.5,17800300.0,-25.7283,67.8863
46.4,20826790.0,-50.34077,67.9009
100.0,6099177.0,-51.52378,67.8908
215.4,7991693.0,-91.8062,67.8582
464.2,2355238.0,-82.34213,67.8709
1000.0,1133517.0,-91.37053,67.8623
2154.4,621948.3,-87.00669,67.8709
4641.6,293173.1,-91.2401,67.8719
10000.0,140125.2,-97.42524,67.8751
