Frequency,Impedance,Phase Angle,Temperature (Dry Bath)
10.0,129678.7,-3.823997,67.2551
21.5,126751.9,-3.478016,67.27
46.4,123728.3,-3.345912,67.2819
100.0,119801.4,-3.616655,67.2774
215.4,119669.1,-5.080286,67.258
464.2,117578.3,-6.264544,67.261
1000.0,110364.6,-9.938457,67.2685
2154.4,105352.2,-15.84194,67.2493
4641.6,92186.69,-27.10788,67.2605
10000.0,71946.32,-42.38623,67.2675
