Frequency,Impedance,Phase Angle,Temperature (Dry Bath)
10.0,3916585.0,-6.038083,71.5018
21.544346900318832,8806472.0,-5.059591,71.5091
46.41588833612777,4278980.0,-31.82182,71.5029
100.0,315381.6,-93.94033,71.5002
215.44346900318823,1816361.0,-165.7462,71.5087
464.15888336127773,519436.9,-130.6287,71.4956
1000.0,178498.3,-139.7228,71.501
2154.4346900318824,181484.3,-48.3144,71.5113
4641.588833612777,124114.2,-95.07486,71.4931
10000.0,60095.9,-82.35014,71.5011
