Frequency,Impedance,Phase Angle,Temperature (Dry Bath)
10.0,4168710.0,-13.72691,66.3381
21.544346900318832,4918853.0,-6.717973,66.3274
46.41588833612777,4417918.0,-27.07104,66.3305
100.0,849356.4,145.1542,66.3248
215.44346900318823,318568.9,123.3589,66.3433
464.15888336127773,1620171.0,11.61176,66.3514
1000.0,668034.4,-129.3604,66.3326
2154.4346900318824,436080.9,-94.15781,66.3371
4641.588833612777,130306.9,-87.83348,66.3106
10000.0,81714.07,-78.04695,66.304
