Frequency,Impedance,Phase Angle,Temperature (Dry Bath)
10.0,144823.7,-13.71149,71.0721
21.544346900318832,131405.6,-13.46947,71.0665
46.41588833612777,119793.1,-12.32894,71.0754
100.0,117483.6,-7.767508,71.0682
215.44346900318823,111261.0,-5.846329,71.0776
464.15888336127773,90432.85,-18.81421,71.0745
1000.0,84091.28,-16.79944,71.0705
2154.4346900318824,73858.76,-21.80545,71.0584
4641.588833612777,62180.36,-29.85932,71.0764
10000.0,46679.81,-48.42903,71.0735
