Frequency,Impedance,Phase Angle,Temperature (Dry Bath)
10.0,1573816.0,-19.57273,67.0954
21.5,1400638.0,-17.17148,67.0772
46.4,1264949.0,-15.83393,67.1025
100.0,900667.6,-11.53574,67.0934
215.4,1035025.0,-17.20311,67.0834
464.2,937067.8,-29.96323,67.1052
1000.0,767657.9,-44.28718,67.0932
2154.4,416033.8,-63.32162,67.083
4641.6,230555.4,-73.45555,67.0831
10000.0,112039.8,-79.50238,67.1122
