Frequency,Impedance,Phase Angle,Temperature (Dry Bath)
10.0,4680309.0,-8.765691,28.3315
21.544346900318832,3326100.0,3.406954,28.2118
46.41588833612777,6873735.0,0.2050912,28.3416
100.0,1592275.0,-78.90924,28.3493
215.44346900318823,3862433.0,-81.3498,28.1853
464.15888336127773,953096.0,-5.219608,28.1398
1000.0,5210309.0,88.13358,28.4112
2154.4346900318824,406359.5,-77.51234,28.4068
4641.588833612777,255911.3,-72.93827,28.3925
10000.0,155334.4,-90.65337,28.3406
