Frequency,Impedance,Phase Angle,Temperature (Dry Bath)
10.0,387577.2,-25.14683,65.6848
21.544346900318832,321210.2,-23.98849,65.6855
46.41588833612777,258565.3,-21.72869,65.6944
100.0,266760.3,-18.96864,65.6935
215.44346900318823,14851.54,35.48578,65.6882
464.15888336127773,162653.4,-20.50605,65.6913
1000.0,153069.7,-35.933,65.6791
2154.4346900318824,92733.1,-34.33961,65.6931
4641.588833612777,77280.54,-56.99173,65.6927
10000.0,49387.78,-56.35576,65.6836
