Frequency,Impedance,Phase Angle,Temperature (Dry Bath)
10.0,5450431.0,9.223634,65.7805
21.544346900318832,4096117.0,-19.20331,65.7813
46.41588833612777,3664693.0,-0.6612843,65.782
100.0,554756.5,-162.9649,65.7711
215.44346900318823,10188.45,7.612532,65.7685
464.15888336127773,1384363.0,-32.05153,65.7792
1000.0,478610.4,-74.75184,65.7662
2154.4346900318824,299118.5,-89.48892,65.7665
4641.588833612777,165418.1,-53.60213,65.7812
10000.0,70875.81,-84.99839,65.7786
