Frequency,Impedance,Phase Angle,Temperature (Dry Bath)
10.0,27731900.0,-10.57771,67.8758
21.5,20040070.0,-27.4616,67.8951
46.4,28736000.0,-40.14667,67.8904
100.0,5504743.0,-53.52429,67.8965
215.4,10959820.0,-76.80965,67.8649
464.2,3032061.0,-86.15291,67.8734
1000.0,1448319.0,-81.59339,67.8769
2154.4,764913.1,-89.63797,67.8817
4641.6,310098.7,-90.45386,67.892
10000.0,144478.1,-97.29535,67.868
