Frequency,Impedance,Phase Angle,Temperature (Dry Bath)
10.0,114057.3,-3.192711,67.1527
21.5,112008.3,-2.629061,67.1629
46.4,110121.1,-2.539092,67.1793
100.0,107929.0,-2.685127,67.1602
215.4,314188.0,72.89307,67.1661
464.2,105095.7,-6.005436,67.1535
1000.0,102262.0,-8.155477,67.1738
2154.4,96208.23,-13.73444,67.1617
4641.6,86882.35,-24.40086,67.1756
10000.0,68396.98,-41.5941,67.1759
