Frequency,Impedance,Phase Angle,Temperature (Dry Bath)
10.0,40026520.0,-12.22282,67.465
21.5,24289160.0,-26.13659,67.4739
46.4,13234600.0,-70.0933,67.4677
100.0,2980943.0,-54.50315,67.4691
215.4,110471.8,90.0713,67.4772
464.2,1912696.0,-71.65072,67.4772
1000.0,1155171.0,-79.43911,67.4747
2154.4,522547.0,-84.80506,67.4537
4641.6,260603.2,-83.70763,67.4899
10000.0,123143.6,-84.93728,67.4778
