Frequency,Impedance,Phase Angle,Temperature (Dry Bath)
10.0,453000.3,-23.11582,70.8767
21.544346900318832,363886.7,-22.49437,70.8739
46.41588833612777,300264.9,-21.07404,70.8697
100.0,120224.5,-15.38546,70.8692
215.44346900318823,195577.3,-34.77058,70.8781
464.15888336127773,185921.8,-33.45188,70.8579
1000.0,202333.1,-27.98298,70.8709
2154.4346900318824,118348.6,-49.05199,70.8715
4641.588833612777,94833.73,-56.53892,70.8666
10000.0,59244.37,-65.45306,70.8821
