Frequency,Impedance,Phase Angle,Temperature (Dry Bath)
10.0,2137415.0,-11.25179,68.0692
21.5,2075223.0,-10.27259,68.0692
46.4,2117095.0,-12.57996,68.0692
100.0,1640162.0,-27.54999,68.0692
215.4,1552757.0,-25.85562,68.0692
464.2,1331538.0,-32.11727,68.0692
1000.0,986696.9,-48.41402,68.0692
2154.4,545778.7,-65.00449,68.0692
4641.6,307676.0,-76.44698,68.0692
10000.0,149500.8,-95.66248,68.0692
