Frequency,Impedance,Phase Angle,Temperature (Dry Bath)
10.0,45361210.0,-28.60559,67.4955
21.5,20831440.0,-32.64386,67.512
46.4,9757743.0,-59.29682,67.5056
100.0,3874008.0,-61.01499,67.5364
215.4,685425.9,20.8701,67.5366
464.2,1686504.0,-76.31266,67.5214
1000.0,1173003.0,-87.93592,67.5286
2154.4,507969.3,-91.37538,67.5315
4641.6,252445.2,-84.76933,67.5263
10000.0,125911.0,-85.08932,67.5132
