Frequency,Impedance,Phase Angle,Temperature (Dry Bath)
10.0,35607460.0,-26.91461,67.3092
21.5,26114450.0,-31.34945,67.317
46.4,19148450.0,-50.0515,67.3115
100.0,6207163.0,-14.15375,67.3207
215.4,230316.0,71.25284,67.3149
464.2,1757307.0,-87.95136,67.3142
1000.0,1234279.0,-85.54016,67.3042
2154.4,530078.6,-86.61892,67.3079
4641.6,260148.5,-85.86841,67.3247
10000.0,121773.0,-86.90851,67.3226
