Frequency,Impedance,Phase Angle,Temperature (Dry Bath)
10.0,38468670.0,-8.819487,67.3172
21.5,28665560.0,-24.21701,67.3164
46.4,18171310.0,-45.32222,67.3152
100.0,3664023.0,-14.71195,67.323
215.4,4747749.0,-126.8656,67.3125
464.2,3962625.0,-45.42852,67.3215
1000.0,1318285.0,-84.17858,67.3235
2154.4,577800.0,-83.56591,67.3245
4641.6,282616.3,-86.83291,67.3381
10000.0,130722.1,-86.95715,67.3147
