Frequency,Impedance,Phase Angle,Temperature (Dry Bath)
10.0,7056074.0,23.76827,65.7615
21.544346900318832,4337874.0,-13.54839,65.7753
46.41588833612777,5042397.0,-14.11888,65.7562
100.0,392199.6,-159.4516,65.7719
215.44346900318823,15217.42,39.43904,65.7705
464.15888336127773,627721.3,-52.90411,65.768
1000.0,407404.7,-26.1391,65.7644
2154.4346900318824,403520.9,-115.3501,65.7599
4641.588833612777,152091.2,-87.22324,65.7687
10000.0,85446.41,-71.75241,65.7703
