Frequency,Impedance,Phase Angle,Temperature (Dry Bath)
10.0,4658459.0,-7.941846,71.2636
21.544346900318832,6048399.0,-11.6292,71.2712
46.41588833612777,2340081.0,-11.18235,71.2808
100.0,218442.5,41.76524,71.2816
215.44346900318823,18945.05,152.4373,71.2764
464.15888336127773,721107.1,-116.6651,71.2812
1000.0,506650.5,-89.77487,71.2698
2154.4346900318824,260725.0,-85.27634,71.2689
4641.588833612777,127680.2,-88.40257,71.2861
10000.0,61818.08,-90.94389,71.298
