Frequency,Impedance,Phase Angle,Temperature (Dry Bath)
10.0,31474960.0,-18.70011,67.2992
21.5,28726910.0,-31.02772,67.2927
46.4,19064050.0,-52.29759,67.315
100.0,4669407.0,-49.92918,67.2861
215.4,226086.0,58.39635,67.2978
464.2,2362787.0,-62.46712,67.283
1000.0,1304516.0,-83.87143,67.2892
2154.4,564410.4,-85.48776,67.2862
4641.6,260876.9,-86.78623,67.2842
10000.0,129065.0,-87.25848,67.2953
