Frequency,Impedance,Phase Angle,Temperature (Dry Bath)
10.0,262319.0,-23.56859,67.3414
21.5,218751.4,-21.5005,67.3594
46.4,187003.2,-19.17499,67.3644
100.0,159844.7,-15.95827,67.3401
215.4,156281.1,-15.25352,67.3508
464.2,132734.0,-16.26436,67.3621
1000.0,118223.2,-17.84397,67.3609
2154.4,102225.1,-24.0656,67.3569
4641.6,83927.93,-32.04777,67.3616
10000.0,62381.56,-42.42585,67.3678
