Frequency,Impedance,Phase Angle,Temperature (Dry Bath)
10.0,29937340.0,-23.04054,67.3461
21.5,24610790.0,-44.4108,67.3389
46.4,15766330.0,-58.07168,67.3442
100.0,3154641.0,-89.62623,67.3459
215.4,2921269.0,-151.6255,67.3355
464.2,1887766.0,-81.01395,67.3559
1000.0,1499057.0,-91.18006,67.3327
2154.4,538167.5,-85.83016,67.3405
4641.6,260106.5,-81.80984,67.3421
10000.0,124348.5,-83.0706,67.3409
