Frequency,Impedance,Phase Angle,Temperature (Dry Bath)
10.0,23900010.0,-22.31537,68.031
21.5,21377340.0,-30.12296,68.031
46.4,15418300.0,-40.30909,68.031
100.0,6786202.0,-92.38004,68.031
215.4,6515452.0,-62.73934,68.031
464.2,2547479.0,-86.56436,68.031
1000.0,1439329.0,-86.14736,68.031
2154.4,663126.0,-86.41463,68.031
4641.6,313236.0,-90.60898,68.031
10000.0,157457.6,-97.17598,68.031
