Frequency,Impedance,Phase Angle,Temperature (Dry Bath)
10.0,38181690.0,-35.47057,67.8318
21.5,29859840.0,-28.82065,67.819
46.4,36796730.0,-42.57396,67.83
100.0,4577052.0,-36.08663,67.7984
215.4,6367585.0,-59.3069,67.8133
464.2,2625087.0,-84.32843,67.8139
1000.0,1385295.0,-87.93068,67.8201
2154.4,660399.8,-85.81084,67.8201
4641.6,307055.6,-94.03977,67.807
10000.0,148974.3,-98.47401,67.8225
