Frequency,Impedance,Phase Angle,Temperature (Dry Bath)
10.0,28684090.0,-35.12249,68.0278
21.5,45885410.0,-26.57224,68.0235
46.4,34801040.0,-52.08651,68.0284
100.0,7322722.0,-46.08639,68.0168
215.4,6036236.0,-62.47926,68.019
464.2,4483194.0,-78.97746,68.0081
1000.0,1669427.0,-82.82482,68.0205
2154.4,739410.0,-89.11444,67.9952
4641.6,335317.2,-94.16308,68.0054
10000.0,159792.8,-98.03106,68.0056
