Frequency,Impedance,Phase Angle,Temperature (Dry Bath)
10.0,3934991.0,-1.577282,71.3762
21.544346900318832,4140728.0,-24.85351,71.3905
46.41588833612777,5852988.0,8.606079,71.3768
100.0,606480.1,-15.03928,71.3739
215.44346900318823,1637091.0,-139.0514,71.3828
464.15888336127773,1091120.0,-65.43304,71.376
1000.0,2003038.0,-10.87604,71.3832
2154.4346900318824,1913658.0,-26.12682,71.3847
4641.588833612777,408630.2,-81.90622,71.3775
10000.0,140371.5,-84.57753,71.379
