Frequency,Impedance,Phase Angle,Temperature (Dry Bath)
10.0,1341073.0,-16.93525,68.1346
21.5,1225248.0,-13.85475,68.1499
46.4,1150603.0,-12.9947,68.1597
100.0,920725.2,-13.19118,68.1619
215.4,889906.6,-12.08905,68.1517
464.2,778593.4,-18.84457,68.1452
1000.0,660288.9,-37.4943,68.1575
2154.4,474546.0,-52.49647,68.1418
4641.6,252888.7,-69.11225,68.1553
10000.0,136454.3,-90.47826,68.1599
