Frequency,Impedance,Phase Angle,Temperature (Dry Bath)
10.0,33857250.0,-21.20467,67.1595
21.5,32204140.0,-31.81271,67.1746
46.4,19552190.0,-53.71972,67.1719
100.0,5977093.0,10.3139,67.1742
215.4,151593.1,156.7047,67.1703
464.2,2047058.0,-116.0995,67.1783
1000.0,1099874.0,-86.28058,67.185
2154.4,549325.2,-91.0995,67.1565
4641.6,268547.4,-85.74974,67.1713
10000.0,124818.5,-87.03818,67.1509
