Frequency,Impedance,Phase Angle,Temperature (Dry Bath)
10.0,28778100.0,-16.23881,67.5518
21.5,23383250.0,-30.1641,67.5429
46.4,22172040.0,-56.4069,67.5611
100.0,2985858.0,-20.57003,67.5466
215.4,119295.2,88.2497,67.5505
464.2,2603465.0,-69.51991,67.5542
1000.0,1350477.0,-84.89876,67.5466
2154.4,601174.2,-85.59479,67.5524
4641.6,292680.3,-85.38681,67.5574
10000.0,127699.1,-87.54243,67.5472
