Frequency,Impedance,Phase Angle,Temperature (Dry Bath)
10.0,10252540.0,-14.75995,71.2487
21.544346900318832,18233960.0,21.53062,71.2274
46.41588833612777,4079794.0,-20.77495,71.2309
100.0,720970.6,-173.6535,71.2408
215.44346900318823,199462.9,-108.301,71.2498
464.15888336127773,729172.1,-161.9086,71.2424
1000.0,424892.7,-121.2391,71.2498
2154.4346900318824,356458.9,-104.2238,71.2478
4641.588833612777,183098.0,-75.39468,71.2492
10000.0,69148.49,-81.29002,71.2388
