Frequency,Impedance,Phase Angle,Temperature (Dry Bath)
10.0,45695570.0,-13.20593,67.8601
21.5,29919100.0,-23.56045,67.8566
46.4,37694650.0,-48.25993,67.866
100.0,5541289.0,4.28806,67.8627
215.4,4279250.0,-87.84005,67.8701
464.2,3136000.0,-79.09373,67.8545
1000.0,1725601.0,-78.74173,67.8443
2154.4,679171.4,-86.97429,67.8712
4641.6,338476.4,-95.91246,67.8566
10000.0,155454.5,-99.92431,67.861
