Frequency,Impedance,Phase Angle,Temperature (Dry Bath)
10.0,1781803.0,-17.66018,65.8328
21.544346900318832,1549205.0,-11.94172,65.8367
46.41588833612777,1230842.0,-19.2895,65.8388
100.0,466091.2,-20.49948,65.8178
215.44346900318823,188125.8,-72.19494,65.8306
464.15888336127773,925319.9,-38.51151,65.8215
1000.0,597561.4,-79.79175,65.8253
2154.4346900318824,393370.1,-89.04626,65.8411
4641.588833612777,228115.3,-76.56806,65.8445
10000.0,66595.5,-83.08403,65.8309
