Frequency,Impedance,Phase Angle,Temperature (Dry Bath)
10.0,4651383.0,-2.112847,71.3277
21.544346900318832,3662188.0,1.732067,71.3284
46.41588833612777,4760003.0,-5.97974,71.3297
100.0,547089.3,61.04634,71.3315
215.44346900318823,887637.9,-152.7993,71.3193
464.15888336127773,596068.0,146.0975,71.3319
1000.0,1253564.0,88.27117,71.3182
2154.4346900318824,1184647.0,-2.474096,71.3246
4641.588833612777,220419.5,-64.16732,71.336
10000.0,205684.4,-90.79015,71.3256
