Frequency,Impedance,Phase Angle,Temperature (Dry Bath)
10.0,241446.4,-22.77094,67.2548
21.5,202366.3,-20.52985,67.2456
46.4,174507.4,-18.26669,67.2478
100.0,151358.4,-14.20829,67.2679
215.4,138909.5,-16.40173,67.2561
464.2,126129.5,-15.12974,67.2714
1000.0,116077.2,-17.65033,67.2561
2154.4,99491.87,-22.27377,67.2476
4641.6,82326.03,-31.13474,67.2448
10000.0,62186.09,-42.69481,67.2507
