Frequency,Impedance,Phase Angle,Temperature (Dry Bath)
10.0,3143686.0,-12.79529,71.0278
21.544346900318832,2401391.0,-21.83275,71.0265
46.41588833612777,2312187.0,-22.17475,71.0267
100.0,336835.0,-65.64885,71.0176
215.44346900318823,1810526.0,138.5245,71.0388
464.15888336127773,1741207.0,-126.7004,71.0264
1000.0,504605.8,-87.05284,71.0209
2154.4346900318824,239283.7,-74.55527,71.0206
4641.588833612777,137532.2,-83.19346,71.0164
10000.0,61301.59,-83.17722,71.0163
