Frequency,Impedance,Phase Angle,Temperature (Dry Bath)
10.0,17414590.0,-25.30697,68.2184
21.5,17346250.0,-17.81089,68.2336
46.4,15831660.0,-43.81719,68.2332
100.0,22707610.0,-16.32186,68.2312
215.4,6844583.0,-85.2088,68.23
464.2,2762960.0,-79.72744,68.2296
1000.0,1305343.0,-89.67847,68.2389
2154.4,614861.8,-91.32397,68.226
4641.6,304506.8,-90.43318,68.2215
10000.0,145634.2,-98.98319,68.227
