Frequency,Impedance,Phase Angle,Temperature (Dry Bath)
10.0,5489922.0,0.7668266,71.3662
21.544346900318832,4597454.0,-25.62279,71.3793
46.41588833612777,4804218.0,-2.809495,71.3671
100.0,1354789.0,158.2057,71.3796
215.44346900318823,667519.3,-85.9452,71.3759
464.15888336127773,11133040.0,-42.55729,71.3737
1000.0,1667113.0,-37.99852,71.3782
2154.4346900318824,334903.5,-85.68946,71.3628
4641.588833612777,292544.9,-85.94067,71.3657
10000.0,136472.3,-88.40698,71.3742
