Frequency,Impedance,Phase Angle,Temperature (Dry Bath)
10.0,8762311.0,22.84232,71.3194
21.544346900318832,4801722.0,-9.850224,71.3317
46.41588833612777,4529566.0,-33.17786,71.3268
100.0,525301.9,11.7773,71.3309
215.44346900318823,426787.9,-128.2406,71.3307
464.15888336127773,7937552.0,90.06504,71.3322
1000.0,420937.9,-107.2833,71.3269
2154.4346900318824,180966.2,-96.1133,71.3337
4641.588833612777,72714.52,-84.54472,71.3251
10000.0,38488.36,-85.86194,71.3185
