Frequency,Impedance,Phase Angle,Temperature (Dry Bath)
10.0,54090.97,-33.69292,67.1003
21.5,41756.47,-29.6811,67.1112
46.4,33773.28,-26.05214,67.1169
100.0,28266.83,-22.52752,67.1048
215.4,24452.11,-19.19978,67.1154
464.2,21725.06,-16.37555,67.1088
1000.0,19447.5,-14.25932,67.1191
2154.4,17716.29,-12.94854,67.1074
4641.6,16291.88,-13.0788,67.1161
10000.0,14958.3,-14.99954,67.0997
