Frequency,Impedance,Phase Angle,Temperature (Dry Bath)
10.0,6213356.0,-12.6929,65.7211
21.544346900318832,4945836.0,-9.191758,65.7305
46.41588833612777,5002688.0,-12.30761,65.722
100.0,421454.9,-25.27112,65.7108
215.44346900318823,34473.78,95.45839,65.7007
464.15888336127773,673249.1,-55.22102,65.7211
1000.0,304303.6,-113.6595,65.7251
2154.4346900318824,199151.8,-96.73138,65.7138
4641.588833612777,191296.5,-87.77516,65.7095
10000.0,70363.79,-87.28811,65.7078
