Frequency,Impedance,Phase Angle,Temperature (Dry Bath)
10.0,39999650.0,-19.91777,67.165
21.5,24590990.0,-38.80613,67.1448
46.4,14364170.0,-58.08947,67.142
100.0,4096610.0,-54.67227,67.1306
215.4,2367395.0,-62.05997,67.139
464.2,2264348.0,-72.52836,67.135
1000.0,1057049.0,-91.21272,67.1392
2154.4,549079.6,-87.29601,67.1414
4641.6,245771.4,-85.55806,67.1457
10000.0,119458.6,-85.00671,67.1362
