Frequency,Impedance,Phase Angle,Temperature (Dry Bath)
10.0,3703305.0,-19.3691,65.7011
21.544346900318832,4067101.0,-23.28865,65.7088
46.41588833612777,5757782.0,-20.18106,65.706
100.0,395864.5,-13.57831,65.703
215.44346900318823,181586.2,154.6915,65.7231
464.15888336127773,718081.8,-94.40901,65.7103
1000.0,388413.0,-80.4446,65.7151
2154.4346900318824,212845.4,-98.60702,65.7053
4641.588833612777,128213.3,-79.12984,65.7281
10000.0,58768.45,-84.33096,65.7287
