Frequency,Impedance,Phase Angle,Temperature (Dry Bath)
10.0,8176477.0,10.14399,71.5179
21.544346900318832,3542777.0,-11.18558,71.5067
46.41588833612777,4084331.0,-16.06205,71.5145
100.0,412538.6,-48.042,71.5239
215.44346900318823,664249.9,-107.797,71.5183
464.15888336127773,505600.4,147.2557,71.5107
1000.0,699044.2,-41.30513,71.5212
2154.4346900318824,1061604.0,-44.47237,71.5197
4641.588833612777,266086.0,-94.46784,71.5118
10000.0,137955.5,-95.67772,71.5104
