Frequency,Impedance,Phase Angle,Temperature (Dry Bath)
10.0,8422162.0,36.17188,71.3117
21.544346900318832,7763579.0,-10.44699,71.3134
46.41588833612777,3207902.0,18.27666,71.3033
100.0,350891.7,60.93614,71.3042
215.44346900318823,60426.08,83.98656,71.2988
464.15888336127773,970515.1,-27.40479,71.3071
1000.0,518224.3,-74.16889,71.3035
2154.4346900318824,223719.9,-110.9345,71.3153
4641.588833612777,135356.9,-103.6862,71.3038
10000.0,71369.4,-80.23054,71.3049
