Frequency,Impedance,Phase Angle,Temperature (Dry Bath)
10.0,1466090.0,-17.62165,67.4012
21.5,1336115.0,-15.37952,67.3748
46.4,1193321.0,-12.36654,67.3765
100.0,1331694.0,-19.7408,67.3773
215.4,173499.0,-153.4838,67.3573
464.2,1001410.0,-21.01673,67.3735
1000.0,795600.4,-35.00605,67.3848
2154.4,424360.3,-63.99491,67.3814
4641.6,225241.0,-71.95286,67.3764
10000.0,111978.5,-78.13038,67.3895
