Frequency,Impedance,Phase Angle,Temperature (Dry Bath)
10.0,5201242.0,20.97769,70.5993
21.544346900318832,5868630.0,-10.85316,70.6054
46.41588833612777,5641768.0,-14.59773,70.6129
100.0,664299.8,-51.16514,70.5908
215.44346900318823,1053190.0,-155.1764,70.6105
464.15888336127773,420427.6,-84.40585,70.6131
1000.0,199910.2,-7.964434,70.5944
2154.4346900318824,241161.3,-82.12731,70.6056
4641.588833612777,141167.4,-86.25808,70.6008
10000.0,51646.22,-89.27724,70.5971
