Frequency,Impedance,Phase Angle,Temperature (Dry Bath)
10.0,28414740.0,-22.15592,68.1421
21.5,17643660.0,-27.3756,68.1421
46.4,15964150.0,-42.18728,68.1421
100.0,5713041.0,-21.88938,68.1421
215.4,7351686.0,-102.3019,68.1421
464.2,3003688.0,-82.16505,68.1421
1000.0,1318036.0,-87.88599,68.1421
2154.4,723553.5,-88.14745,68.1421
4641.6,354315.3,-92.27008,68.1421
10000.0,148217.3,-96.53817,68.1421
