Frequency,Impedance,Phase Angle,Temperature (Dry Bath)
10.0,25892370.0,-1.707935,67.2983
21.5,27338280.0,-40.74261,67.2996
46.4,18174810.0,-45.11409,67.2855
100.0,8520437.0,-17.57852,67.2889
215.4,3159004.0,57.77577,67.3024
464.2,2379768.0,-98.96003,67.2826
1000.0,1216510.0,-95.9543,67.293
2154.4,646221.2,-85.13831,67.3027
4641.6,268128.1,-88.65324,67.2883
10000.0,130150.9,-87.52223,67.2987
