Frequency,Impedance,Phase Angle,Temperature (Dry Bath)
10.0,2047360.0,-12.91914,68.0407
21.5,2002843.0,-13.8662,68.0438
46.4,1827238.0,-13.21415,68.0426
100.0,1364143.0,-11.78997,68.0467
215.4,1348178.0,-18.5883,68.0476
464.2,1228064.0,-31.48279,68.0487
1000.0,894611.4,-44.98059,68.0413
2154.4,527351.4,-66.06179,68.0562
4641.6,291754.4,-79.28429,68.0389
10000.0,146356.2,-90.12953,68.0587
