Frequency,Impedance,Phase Angle,Temperature (Dry Bath)
10.0,66203.29,-37.31123,68.1902
21.5,49935.43,-34.46577,68.187
46.4,38172.13,-30.85129,68.1828
100.0,29959.05,-25.6826,68.1847
215.4,24459.62,-21.75054,68.1843
464.2,21431.71,-18.74462,68.175
1000.0,18691.82,-15.42933,68.182
2154.4,16688.83,-13.44683,68.1921
4641.6,15382.07,-13.70062,68.1727
10000.0,14329.21,-16.19516,68.1879
