Frequency,Impedance,Phase Angle,Temperature (Dry Bath)
10.0,114268.5,-4.064828,67.1309
21.5,112001.7,-3.623206,67.1377
46.4,110238.3,-3.344897,67.1209
100.0,109305.9,-4.585143,67.1101
215.4,118925.1,-16.9576,67.1252
464.2,106412.9,-7.061786,67.1284
1000.0,101077.4,-9.189873,67.1241
2154.4,96653.33,-14.10039,67.1451
4641.6,86009.49,-23.93048,67.1309
10000.0,68411.06,-40.20418,67.1442
