Frequency,Impedance,Phase Angle,Temperature (Dry Bath)
10.0,34512.23,-11.39442,70.6795
21.544346900318832,32189.34,-9.660781,70.6663
46.41588833612777,30093.93,-9.035698,70.6734
100.0,27940.83,-11.73736,70.6761
215.44346900318823,26619.85,-7.477524,70.6612
464.15888336127773,24565.19,-7.23152,70.6813
1000.0,23428.14,-7.689326,70.6795
2154.4346900318824,21546.3,-12.63026,70.6779
4641.588833612777,19501.34,-13.68198,70.6657
10000.0,18060.79,-24.65753,70.6784
