Frequency,Impedance,Phase Angle,Temperature (Dry Bath)
10.0,38533590.0,-6.512066,68.1522
21.5,23829330.0,-27.40807,68.137
46.4,13533760.0,-58.12312,68.1589
100.0,3655689.0,-28.99075,68.1493
215.4,5713995.0,-95.08206,68.1599
464.2,2594364.0,-93.07051,68.1544
1000.0,1358352.0,-82.19188,68.1529
2154.4,619908.6,-88.35673,68.1609
4641.6,294713.4,-88.85593,68.151
10000.0,147321.6,-94.63889,68.1479
