Frequency,Impedance,Phase Angle,Temperature (Dry Bath)
10.0,1663050.0,-19.68052,67.3239
21.5,1464548.0,-17.3035,67.3269
46.4,1334053.0,-16.1688,67.3178
100.0,1016884.0,-9.037608,67.3275
215.4,844542.9,-50.96692,67.3134
464.2,1048967.0,-39.23118,67.3282
1000.0,746280.4,-46.31537,67.3055
2154.4,524318.4,-57.47694,67.3085
4641.6,255315.7,-70.45019,67.3109
10000.0,134013.9,-77.96147,67.3218
