Frequency,Impedance,Phase Angle,Temperature (Dry Bath)
10.0,1480735.0,-18.67764,67.1095
21.5,1314760.0,-16.46793,67.1162
46.4,1204993.0,-14.3186,67.1178
100.0,868426.5,-23.21459,67.1057
215.4,137268.0,-64.94095,67.1134
464.2,904983.6,-25.90934,67.1047
1000.0,687240.9,-41.83711,67.0994
2154.4,436450.7,-63.38584,67.0974
4641.6,232895.5,-71.40752,67.0989
10000.0,115709.1,-80.29087,67.1186
