Frequency,Impedance,Phase Angle,Temperature (Dry Bath)
10.0,5504519.0,-0.1429336,67.4348
21.5,4667982.0,-4.209824,67.4266
46.4,5205829.0,-13.23996,67.4328
100.0,1958390.0,-22.32854,67.4499
215.4,91649.65,46.8875,67.4511
464.2,1824495.0,-24.30052,67.458
1000.0,1160563.0,-69.94082,67.4401
2154.4,538069.8,-81.44121,67.4433
4641.6,257276.1,-85.5557,67.4524
10000.0,124845.2,-83.88605,67.4412
