Frequency,Impedance,Phase Angle,Temperature (Dry Bath)
10.0,21118890.0,-16.57305,68.1907
21.5,25638640.0,-35.65201,68.1876
46.4,23562410.0,-47.12431,68.1854
100.0,3922050.0,-57.41326,68.1781
215.4,7783033.0,-28.23655,68.1814
464.2,2264302.0,-93.31234,68.1705
1000.0,1296486.0,-84.96434,68.1742
2154.4,595551.7,-85.22424,68.181
4641.6,291702.4,-90.44655,68.184
10000.0,141339.6,-95.89351,68.176
