Frequency,Impedance,Phase Angle,Temperature (Dry Bath)
10.0,1479837.0,-17.79443,67.9852
21.5,1316119.0,-15.01567,67.9733
46.4,1182327.0,-14.00227,67.9824
100.0,1042393.0,-18.80621,67.966
215.4,1088011.0,-11.17423,67.9783
464.2,924338.6,-29.51505,67.9861
1000.0,732835.3,-41.2721,67.9637
2154.4,517735.5,-57.26929,67.9686
4641.6,305831.9,-69.77538,67.9797
10000.0,129083.0,-86.65232,67.9747
