Frequency,Impedance,Phase Angle,Temperature (Dry Bath)
10.0,176474.5,-12.89128,71.36
21.544346900318832,161565.8,-11.10671,71.3813
46.41588833612777,145707.1,-11.11633,71.3553
100.0,127042.5,-3.891766,71.3714
215.44346900318823,15638.12,32.42404,71.3559
464.15888336127773,145330.5,-3.857428,71.3721
1000.0,96548.72,-25.98106,71.3763
2154.4346900318824,110502.1,-36.47932,71.3724
4641.588833612777,67265.85,-39.16272,71.3749
10000.0,51028.93,-54.66473,71.3863
