Frequency,Impedance,Phase Angle,Temperature (Dry Bath)
10.0,6223554.0,-6.239407,71.2544
21.544346900318832,5731155.0,-11.52834,71.2643
46.41588833612777,4783717.0,-24.16895,71.285
100.0,830367.0,-7.590337,71.2599
215.44346900318823,461480.5,-41.28978,71.2641
464.15888336127773,2548039.0,-41.82817,71.2729
1000.0,559732.9,-138.9132,71.2765
2154.4346900318824,335438.9,-71.20344,71.2699
4641.588833612777,164830.2,-90.34474,71.2662
10000.0,63173.24,-84.01185,71.2767
