Frequency,Impedance,Phase Angle,Temperature (Dry Bath)
10.0,6329282.0,-11.81065,65.6766
21.544346900318832,4076658.0,18.63214,65.6748
46.41588833612777,3240542.0,-25.40172,65.6764
100.0,701329.5,3.046538,65.6832
215.44346900318823,68963.45,26.95124,65.6685
464.15888336127773,644762.3,-79.45598,65.689
1000.0,312810.4,-135.4832,65.6821
2154.4346900318824,263996.2,-75.11126,65.6699
4641.588833612777,139567.8,-91.30097,65.6887
10000.0,70628.15,-80.3247,65.68
