Frequency,Impedance,Phase Angle,Temperature (Dry Bath)
10.0,30152860.0,-24.00954,67.3012
21.5,23421210.0,-38.82742,67.3101
46.4,14418850.0,-53.25878,67.3115
100.0,4817113.0,-63.06258,67.3116
215.4,2792094.0,68.6994,67.343
464.2,2038326.0,-65.93787,67.3343
1000.0,945492.2,-83.5049,67.3305
2154.4,515201.7,-86.55919,67.3216
4641.6,261002.9,-86.24254,67.323
10000.0,124870.5,-83.10443,67.3505
