Frequency,Impedance,Phase Angle,Temperature (Dry Bath)
10.0,2399571.0,-10.39203,68.1016
21.5,2280619.0,-11.50908,68.1016
46.4,2120627.0,-12.84402,68.1016
100.0,1474498.0,-21.6317,68.1016
215.4,1457743.0,-28.39306,68.1016
464.2,1315461.0,-37.42805,68.1016
1000.0,928857.1,-48.87703,68.1016
2154.4,583829.3,-64.03876,68.1016
4641.6,312587.6,-82.83487,68.1016
10000.0,149519.7,-89.61539,68.1016
