Frequency,Impedance,Phase Angle,Temperature (Dry Bath)
10.0,25641340.0,-23.5382,67.1409
21.5,28627870.0,-50.85845,67.164
46.4,16844280.0,-63.4359,67.1568
100.0,14777260.0,19.38649,67.1512
215.4,224372.8,-77.42684,67.1476
464.2,2295397.0,-79.65971,67.1487
1000.0,1096777.0,-81.5276,67.1626
2154.4,558673.4,-91.59773,67.153
4641.6,260799.2,-85.27342,67.1409
10000.0,125290.8,-88.09211,67.1498
