Frequency,Impedance,Phase Angle,Temperature (Dry Bath)
10.0,5367945.0,23.47856,71.4313
21.544346900318832,4553880.0,-8.632053,71.4296
46.41588833612777,6754894.0,-13.9901,71.4317
100.0,433204.4,-65.54611,71.4428
215.44346900318823,967511.0,156.9014,71.4273
464.15888336127773,1495388.0,58.05928,71.4321
1000.0,989677.8,-53.02816,71.4157
2154.4346900318824,504238.2,-62.94916,71.4308
4641.588833612777,296775.1,-87.50696,71.419
10000.0,124964.5,-86.09798,71.4346
