Frequency,Impedance,Phase Angle,Temperature (Dry Bath)
10.0,18362750.0,-28.47309,68.3094
21.5,17288550.0,-36.60057,68.3094
46.4,18014570.0,-41.36904,68.3094
100.0,5004802.0,-26.60254,68.3094
215.4,6017089.0,-22.60065,68.3094
464.2,2462806.0,-82.90033,68.3094
1000.0,1262877.0,-83.39018,68.3094
2154.4,627870.7,-88.96432,68.3094
4641.6,300565.6,-93.10368,68.3094
10000.0,146821.2,-97.32825,68.3094
