Frequency,Impedance,Phase Angle,Temperature (Dry Bath)
10.0,112896.5,-3.090223,66.9951
21.5,110740.9,-2.539501,66.981
46.4,108960.2,-2.423331,66.9785
100.0,108412.0,-2.935495,66.9684
215.4,98663.2,10.66667,66.9769
464.2,104486.1,-4.297848,66.9769
1000.0,100755.1,-8.214846,66.9741
2154.4,96995.7,-13.39911,66.9772
4641.6,86160.9,-23.5796,67.0053
10000.0,67675.46,-41.33161,66.9766
