Frequency,Impedance,Phase Angle,Temperature (Dry Bath)
10.0,179933.6,-12.14897,71.338
21.544346900318832,162031.0,-11.10667,71.3453
46.41588833612777,146789.9,-11.68273,71.3359
100.0,134421.1,-15.39256,71.3433
215.44346900318823,124501.9,-9.86357,71.3531
464.15888336127773,108436.7,-8.920779,71.3459
1000.0,131212.0,-13.87992,71.3444
2154.4346900318824,88751.46,-23.88416,71.3554
4641.588833612777,70040.63,-43.85554,71.3384
10000.0,51000.74,-50.61007,71.3499
