Frequency,Impedance,Phase Angle,Temperature (Dry Bath)
10.0,3068533.0,-50.02307,66.4238
21.544346900318832,4583698.0,-7.822803,66.428
46.41588833612777,3426572.0,-27.63296,66.4202
100.0,757643.6,6.69509,66.4374
215.44346900318823,1044653.0,0.5935359,66.4295
464.15888336127773,1152518.0,-106.9067,66.4306
1000.0,372412.1,-64.37984,66.4397
2154.4346900318824,258591.4,-85.06291,66.4188
4641.588833612777,121883.1,-91.26739,66.423
10000.0,64177.17,-93.82555,66.4182
