Frequency,Impedance,Phase Angle,Temperature (Dry Bath)
10.0,16619440.0,-27.5272,68.1346
21.5,14395140.0,-30.20409,68.1426
46.4,20627830.0,-50.11378,68.1649
100.0,4929838.0,-15.43937,68.1548
215.4,5252891.0,-75.12389,68.1571
464.2,2621368.0,-76.28436,68.176
1000.0,1323137.0,-86.17594,68.1499
2154.4,630543.8,-87.52082,68.1517
4641.6,303123.1,-89.90449,68.1469
10000.0,150256.4,-91.77149,68.157
