Frequency,Impedance,Phase Angle,Temperature (Dry Bath)
10.0,22792540.0,-19.6495,68.1454
21.5,24458100.0,-35.51318,68.1517
46.4,27994400.0,-54.85943,68.1332
100.0,13788080.0,-122.2035,68.1275
215.4,4912156.0,-51.80618,68.1391
464.2,2377074.0,-75.84606,68.1365
1000.0,1088557.0,-83.52159,68.134
2154.4,556865.8,-84.80583,68.1234
4641.6,271311.4,-86.48822,68.1191
10000.0,119380.5,-96.6358,68.123
