Frequency,Impedance,Phase Angle,Temperature (Dry Bath)
10.0,5895502.0,-3.686207,71.2715
21.544346900318832,2825855.0,-11.16947,71.2363
46.41588833612777,4076660.0,-14.94733,71.2516
100.0,290647.1,-35.04742,71.2423
215.44346900318823,1312583.0,102.4138,71.2617
464.15888336127773,586473.3,-44.77497,71.2428
1000.0,471371.1,-113.2646,71.2237
2154.4346900318824,859761.9,-127.0216,71.2527
4641.588833612777,113689.8,-69.74974,71.2426
10000.0,61135.66,-87.60338,71.2388
