Frequency,Impedance,Phase Angle,Temperature (Dry Bath)
10.0,176915.5,-12.45307,71.4313
21.544346900318832,164705.9,-11.20495,71.4336
46.41588833612777,148441.9,-11.43397,71.4355
100.0,155329.2,-15.29913,71.4355
215.44346900318823,147558.1,-14.53969,71.4489
464.15888336127773,116246.5,-22.06685,71.4676
1000.0,115041.3,-18.74692,71.4362
2154.4346900318824,77112.08,-23.99692,71.4479
4641.588833612777,80578.5,-44.00448,71.4513
10000.0,46146.71,-58.78238,71.444
