Frequency,Impedance,Phase Angle,Temperature (Dry Bath)
10.0,172690.7,-12.57739,65.7452
21.544346900318832,158406.5,-10.86244,65.7212
46.41588833612777,145152.7,-10.84947,65.7205
100.0,114612.7,-9.809031,65.7354
215.44346900318823,183601.7,1.117149,65.736
464.15888336127773,111364.6,-10.0694,65.7453
1000.0,96640.44,-11.94635,65.7352
2154.4346900318824,106936.6,-18.63192,65.7219
4641.588833612777,82464.33,-30.53294,65.7216
10000.0,55793.51,-59.67281,65.7241
