Frequency,Impedance,Phase Angle,Temperature (Dry Bath)
10.0,28200480.0,-22.77003,67.1503
21.5,33046700.0,-24.00527,67.1737
46.4,18158870.0,-48.23327,67.1553
100.0,7794878.0,-55.28594,67.134
215.4,7840006.0,100.0011,67.1493
464.2,2305362.0,-70.98908,67.1556
1000.0,1255961.0,-89.16107,67.1654
2154.4,539904.0,-92.04642,67.1421
4641.6,262142.8,-90.3437,67.1472
10000.0,124954.5,-87.38462,67.1594
