Frequency,Impedance,Phase Angle,Temperature (Dry Bath)
10.0,21916170.0,-0.003806407,67.1012
21.5,23702620.0,-37.57861,67.0865
46.4,21088230.0,-63.29545,67.0895
100.0,9233096.0,28.38314,67.0805
215.4,219273.9,-148.1043,67.0894
464.2,2353486.0,-63.13481,67.0924
1000.0,1017513.0,-86.30978,67.0912
2154.4,537527.4,-82.36817,67.0848
4641.6,263321.5,-86.3519,67.097
10000.0,122381.3,-85.01032,67.1037
