Frequency,Impedance,Phase Angle,Temperature (Dry Bath)
10.0,39752980.0,-39.94145,67.7081
21.5,47040140.0,-34.57677,67.7085
46.4,40071730.0,-52.83505,67.715
100.0,18591260.0,-24.11848,67.7166
215.4,4878016.0,-66.17914,67.6894
464.2,3659366.0,-75.18688,67.6893
1000.0,1867143.0,-84.72598,67.6941
2154.4,657250.3,-91.29831,67.6894
4641.6,307539.9,-91.36308,67.703
10000.0,141920.2,-98.7854,67.6887
