Frequency,Impedance,Phase Angle,Temperature (Dry Bath)
10.0,1945149.0,-16.03559,65.7397
21.544346900318832,1418411.0,-24.89132,65.7318
46.41588833612777,1167411.0,-30.60925,65.7299
100.0,527262.3,1.065505,65.7382
215.44346900318823,12473.81,-29.43564,65.7415
464.15888336127773,245162.2,-45.35173,65.7497
1000.0,806739.1,-62.85892,65.7484
2154.4346900318824,323037.7,-70.3433,65.7654
4641.588833612777,150973.0,-91.12911,65.7568
10000.0,75251.47,-96.60441,65.7628
