Frequency,Impedance,Phase Angle,Temperature (Dry Bath)
10.0,10892830.0,43.05869,71.246
21.544346900318832,6597941.0,13.05234,71.2368
46.41588833612777,4438074.0,-19.62616,71.2532
100.0,470873.2,41.81663,71.2486
215.44346900318823,2366158.0,-176.8536,71.2589
464.15888336127773,506707.3,-43.43431,71.2669
1000.0,1005320.0,-30.69196,71.2788
2154.4346900318824,1190164.0,-95.11428,71.2685
4641.588833612777,460359.8,-93.10285,71.2508
10000.0,167154.3,-87.80471,71.2425
