Frequency,Impedance,Phase Angle,Temperature (Dry Bath)
10.0,182967.5,-4.85177,68.2662
21.5,175031.0,-4.312346,68.2668
46.4,168900.0,-4.222227,68.2762
100.0,159609.0,-5.098299,68.2483
215.4,158315.3,-4.951911,68.2715
464.2,154051.5,-10.49656,68.2761
1000.0,150730.4,-12.55795,68.2619
2154.4,142273.7,-17.20599,68.2692
4641.6,125556.4,-30.82213,68.268
10000.0,93408.78,-50.45102,68.2724
