Frequency,Impedance,Phase Angle,Temperature (Dry Bath)
10.0,468077.9,-27.07794,65.8179
21.544346900318832,369526.0,-26.12109,65.8493
46.41588833612777,291679.1,-26.20661,65.8356
100.0,186618.5,-33.79815,65.8472
215.44346900318823,20199.21,1.121269,65.8397
464.15888336127773,175903.7,-21.59298,65.8395
1000.0,114733.9,-40.87459,65.8348
2154.4346900318824,97981.89,-46.13216,65.8409
4641.588833612777,86870.09,-46.89997,65.8371
10000.0,48746.86,-58.5903,65.8443
