Frequency,Impedance,Phase Angle,Temperature (Dry Bath)
10.0,4373990.0,-5.635182,71.4684
21.544346900318832,8045422.0,12.19201,71.4524
46.41588833612777,5037846.0,-19.51996,71.4618
100.0,812919.6,-4.933128,71.4472
215.44346900318823,1826832.0,-4.06636,71.4489
464.15888336127773,3028334.0,-158.8883,71.4366
1000.0,663710.2,-135.1632,71.4373
2154.4346900318824,343476.7,-61.5504,71.446
4641.588833612777,226563.0,-79.9521,71.4458
10000.0,152161.4,-90.09482,71.4501
