Frequency,Impedance,Phase Angle,Temperature (Dry Bath)
10.0,1484378.0,-18.11849,67.1961
21.5,1326689.0,-15.58462,67.1833
46.4,1195017.0,-14.55541,67.1909
100.0,1011153.0,-24.2239,67.1923
215.4,191429.2,-109.6588,67.1893
464.2,905985.9,-36.11281,67.1932
1000.0,625581.6,-43.61195,67.1912
2154.4,428187.2,-60.84601,67.1916
4641.6,224149.2,-73.99465,67.202
10000.0,112523.0,-79.38622,67.1925
