Frequency,Impedance,Phase Angle,Temperature (Dry Bath)
10.0,23390050.0,-27.88198,68.0527
21.5,34076360.0,-46.36698,68.0527
46.4,29384900.0,-58.19987,68.0527
100.0,5233162.0,-15.67945,68.0527
215.4,5016236.0,-61.26549,68.0527
464.2,2103355.0,-63.26523,68.0527
1000.0,1207603.0,-81.5937,68.0527
2154.4,611743.4,-88.17341,68.0527
4641.6,278141.2,-90.20561,68.0527
10000.0,129258.4,-96.37259,68.0527
