Frequency,Impedance,Phase Angle,Temperature (Dry Bath)
10.0,3819838.0,-12.20384,71.3742
21.544346900318832,4519505.0,4.573362,71.3526
46.41588833612777,5802372.0,-41.52806,71.3662
100.0,594415.7,66.68711,71.3616
215.44346900318823,1341884.0,26.58395,71.3697
464.15888336127773,679174.8,-55.61162,71.3721
1000.0,507376.8,167.1702,71.3475
2154.4346900318824,225524.2,-75.84001,71.371
4641.588833612777,134687.2,-82.69232,71.3499
10000.0,68548.15,-89.58075,71.3603
