Frequency,Impedance,Phase Angle,Temperature (Dry Bath)
10.0,12277210.0,5.598837,65.8074
21.544346900318832,3886769.0,-4.503286,65.7974
46.41588833612777,3343119.0,-69.0799,65.8202
100.0,837840.1,38.694,65.8165
215.44346900318823,33823.68,-175.4517,65.8049
464.15888336127773,1148176.0,-174.4906,65.7962
1000.0,743563.6,-89.88421,65.8018
2154.4346900318824,223506.6,-100.5017,65.8037
4641.588833612777,144383.4,-88.46965,65.7992
10000.0,66700.01,-80.45454,65.8118
