Frequency,Impedance,Phase Angle,Temperature (Dry Bath)
10.0,2775371.0,-8.197483,70.8949
21.544346900318832,4468114.0,0.4138597,70.8809
46.41588833612777,5220601.0,-18.10075,70.9014
100.0,1353497.0,4.621896,70.908
215.44346900318823,2776323.0,85.05475,70.8952
464.15888336127773,322072.9,-177.754,70.8998
1000.0,983081.3,-134.2993,70.9058
2154.4346900318824,338181.0,-90.49255,70.89
4641.588833612777,142916.8,-94.01395,70.8902
10000.0,53122.33,-91.05446,70.888
