Frequency,Impedance,Phase Angle,Temperature (Dry Bath)
10.0,7067657.0,-5.407946,65.7105
21.544346900318832,7699556.0,-22.42833,65.7266
46.41588833612777,3319092.0,-32.37829,65.7023
100.0,333283.6,81.61163,65.722
215.44346900318823,14640.29,135.2739,65.726
464.15888336127773,1484165.0,-26.3955,65.7265
1000.0,529488.0,-87.95407,65.7378
2154.4346900318824,438549.0,-104.2371,65.7288
4641.588833612777,147353.0,-96.23226,65.7287
10000.0,71176.84,-89.97569,65.7077
