Frequency,Impedance,Phase Angle,Temperature (Dry Bath)
10.0,4149923.0,-3.154814,71.3809
21.544346900318832,3341421.0,-3.298483,71.3796
46.41588833612777,4511153.0,-31.03739,71.372
100.0,442865.4,-51.44814,71.3845
215.44346900318823,370245.0,-150.0811,71.382
464.15888336127773,656705.2,-151.4369,71.3665
1000.0,526597.4,-46.59232,71.3757
2154.4346900318824,241473.4,-85.67161,71.3832
4641.588833612777,124935.9,-88.93739,71.3778
10000.0,69697.62,-82.99432,71.3702
