Frequency,Impedance,Phase Angle,Temperature (Dry Bath)
10.0,15320900.0,-34.63653,68.1632
21.5,20498800.0,-42.12571,68.1599
46.4,17031840.0,-52.31703,68.168
100.0,4719559.0,-36.66532,68.1696
215.4,3831562.0,-67.49119,68.1687
464.2,3056054.0,-58.00019,68.1668
1000.0,1179212.0,-79.85415,68.1639
2154.4,616134.8,-86.09341,68.166
4641.6,315061.2,-89.66905,68.1684
10000.0,127663.6,-97.33409,68.1631
