Frequency,Impedance,Phase Angle,Temperature (Dry Bath)
10.0,17049760.0,-34.87911,68.2451
21.5,18719690.0,-36.78086,68.2622
46.4,20052550.0,-55.15792,68.2633
100.0,10462780.0,-39.96003,68.2555
215.4,5343683.0,-52.00878,68.2663
464.2,2462237.0,-87.9846,68.2608
1000.0,1312790.0,-83.89361,68.2668
2154.4,659608.8,-85.90557,68.262
4641.6,289662.3,-87.26337,68.2564
10000.0,137649.5,-95.28819,68.2615
