Frequency,Impedance,Phase Angle,Temperature (Dry Bath)
10.0,5051299.0,10.7782,71.5398
21.544346900318832,5870636.0,-19.05351,71.5244
46.41588833612777,4628399.0,-29.31496,71.5288
100.0,2462054.0,-67.53344,71.533
215.44346900318823,907621.9,-37.91418,71.5279
464.15888336127773,537960.2,-10.13463,71.5346
1000.0,682606.0,-94.08673,71.55
2154.4346900318824,738955.6,-120.4546,71.5206
4641.588833612777,245715.7,-107.3689,71.5338
10000.0,113219.5,-91.7536,71.5212
