Frequency,Impedance,Phase Angle,Temperature (Dry Bath)
10.0,26906640.0,-22.04046,67.2865
21.5,27613560.0,-28.96158,67.2895
46.4,14496200.0,-59.02714,67.295
100.0,5531332.0,-15.80903,67.3016
215.4,158179.3,-81.19702,67.2918
464.2,3104895.0,-104.2975,67.2931
1000.0,1007183.0,-80.38865,67.2987
2154.4,617818.7,-87.03106,67.2926
4641.6,274948.0,-81.64212,67.2926
10000.0,132623.6,-86.24279,67.3137
