Frequency,Impedance,Phase Angle,Temperature (Dry Bath)
10.0,28731320.0,-19.59523,68.0821
21.5,25452950.0,-36.78463,68.0702
46.4,28490390.0,-43.68621,68.0683
100.0,4806588.0,-33.06992,68.0887
215.4,6649648.0,-75.26047,68.0901
464.2,4574733.0,-74.20689,68.0796
1000.0,1360237.0,-90.30374,68.0834
2154.4,658708.5,-89.48147,68.0907
4641.6,323395.2,-88.11305,68.092
10000.0,148015.9,-101.7369,68.0957
