Frequency,Impedance,Phase Angle,Temperature (Dry Bath)
10.0,20393330.0,-23.59994,67.7911
21.5,19051310.0,-29.96248,67.7871
46.4,11864490.0,-46.73847,67.7732
100.0,5141349.0,-23.68125,67.7746
215.4,3639593.0,-69.24986,67.785
464.2,2720789.0,-80.27968,67.7763
1000.0,1258807.0,-76.86766,67.7921
2154.4,619497.6,-83.19738,67.7876
4641.6,270974.4,-89.95347,67.7738
10000.0,137447.4,-98.86419,67.7713
