Frequency,Impedance,Phase Angle,Temperature (Dry Bath)
10.0,129836.8,-4.151446,67.1558
21.5,127389.6,-3.687226,67.1446
46.4,123881.3,-3.133624,67.1542
100.0,124940.3,-3.854019,67.1636
215.4,111482.5,9.610937,67.148
464.2,119920.8,-6.700935,67.1674
1000.0,113007.1,-10.04227,67.1639
2154.4,108496.2,-16.53663,67.1702
4641.6,98210.79,-26.56704,67.1636
10000.0,73596.92,-42.56458,67.1669
