Frequency,Impedance,Phase Angle,Temperature (Dry Bath)
10.0,261879.9,-23.73886,67.3264
21.5,217758.7,-21.68659,67.3053
46.4,186617.0,-19.14477,67.3183
100.0,160145.5,-17.52947,67.3169
215.4,146817.1,-16.27826,67.3217
464.2,133913.9,-16.60539,67.3254
1000.0,118049.1,-19.72951,67.3413
2154.4,103087.8,-23.10775,67.3345
4641.6,83884.93,-32.41162,67.3339
10000.0,62956.37,-42.7747,67.3224
