Frequency,Impedance,Phase Angle,Temperature (Dry Bath)
10.0,26506710.0,-15.71264,68.0348
21.5,24862900.0,-24.11456,68.029
46.4,41236140.0,-41.90479,68.0464
100.0,6427260.0,-21.59335,68.0331
215.4,2983508.0,-84.30447,68.0486
464.2,3545302.0,-82.06129,68.0275
1000.0,1364976.0,-88.19099,68.0275
2154.4,629618.4,-89.43854,68.0382
4641.6,305948.3,-96.61283,68.0393
10000.0,160862.3,-90.83772,68.0259
