Frequency,Impedance,Phase Angle,Temperature (Dry Bath)
10.0,365651.6,-24.25077,65.769
21.544346900318832,299138.4,-23.89142,65.7712
46.41588833612777,254401.6,-21.60361,65.7758
100.0,205121.4,-21.98927,65.7398
215.44346900318823,123585.8,-100.53,65.7691
464.15888336127773,180091.1,-30.71748,65.7584
1000.0,134959.8,-18.24686,65.7616
2154.4346900318824,97595.14,-36.31969,65.7498
4641.588833612777,72350.72,-40.09718,65.7449
10000.0,43730.3,-56.00659,65.7471
