Frequency,Impedance,Phase Angle,Temperature (Dry Bath)
10.0,2173027.0,-12.04629,68.0139
21.5,2047444.0,-13.78522,68.0139
46.4,1943244.0,-13.62835,68.0139
100.0,1456027.0,-15.69872,68.0139
215.4,1608352.0,-23.13453,68.0139
464.2,1229122.0,-34.45565,68.0139
1000.0,913295.6,-50.25765,68.0139
2154.4,552563.8,-67.78043,68.0139
4641.6,318256.9,-76.7018,68.0139
10000.0,145081.9,-90.88949,68.0139
