Frequency,Impedance,Phase Angle,Temperature (Dry Bath)
10.0,145666.5,-4.909199,68.016
21.5,140597.2,-4.194653,68.0392
46.4,137059.3,-3.911744,68.022
100.0,132874.4,-3.582462,68.0326
215.4,128179.9,-4.636313,68.0376
464.2,130187.5,-6.060032,68.022
1000.0,122302.2,-10.3497,68.018
2154.4,115783.8,-15.29394,68.0155
4641.6,103349.7,-30.5371,68.0261
10000.0,85648.1,-49.83616,68.018
