Frequency,Impedance,Phase Angle,Temperature (Dry Bath)
10.0,52239.61,-34.08149,67.1734
21.5,40193.86,-30.20806,67.1561
46.4,32345.29,-26.45168,67.1529
100.0,26998.16,-22.34017,67.1552
215.4,23400.03,-18.86382,67.1511
464.2,20701.31,-16.38638,67.1539
1000.0,18413.85,-14.22049,67.1502
2154.4,16823.77,-12.80732,67.1279
4641.6,15446.83,-12.90931,67.1271
10000.0,14193.03,-14.5282,67.1349
