Frequency,Impedance,Phase Angle,Temperature (Dry Bath)
10.0,25134350.0,-20.87846,67.2408
21.5,31143300.0,-32.27139,67.244
46.4,16900660.0,-45.04834,67.2423
100.0,3155205.0,-102.4992,67.2424
215.4,10489320.0,-162.8949,67.2316
464.2,2135723.0,-58.68067,67.235
1000.0,1520138.0,-104.3353,67.2263
2154.4,615810.4,-84.00832,67.2384
4641.6,267449.2,-83.83599,67.2517
10000.0,129141.4,-90.97312,67.2508
