Frequency,Impedance,Phase Angle,Temperature (Dry Bath)
10.0,26744690.0,-10.36538,68.0222
21.5,24103380.0,-33.27039,68.0171
46.4,15032710.0,-39.80481,68.0052
100.0,4748596.0,-37.7113,68.0159
215.4,8907680.0,-63.25318,68.0027
464.2,2928493.0,-78.58313,68.0181
1000.0,1345004.0,-85.33777,68.0288
2154.4,698911.2,-87.77992,68.0217
4641.6,346372.4,-92.26618,68.0206
10000.0,156863.7,-98.27401,68.0213
