Frequency,Impedance,Phase Angle,Temperature (Dry Bath)
10.0,23994410.0,-5.067094,67.0439
21.5,37920780.0,-26.21314,67.0393
46.4,17125480.0,-52.40464,67.035
100.0,4774422.0,-69.99366,67.0349
215.4,164841.3,-100.9612,67.0446
464.2,2017980.0,-84.71043,67.0346
1000.0,1031587.0,-90.84354,67.0248
2154.4,515732.5,-92.45797,67.0283
4641.6,267964.6,-85.66536,67.039
10000.0,125250.4,-86.98507,67.0327
