Frequency,Impedance,Phase Angle,Temperature (Dry Bath)
10.0,29176430.0,-43.62017,67.4157
21.5,23077710.0,-34.22319,67.4088
46.4,19154490.0,-48.94191,67.4342
100.0,3292943.0,-19.51031,67.421
215.4,2932868.0,-76.62112,67.4166
464.2,2909346.0,-84.6714,67.4309
1000.0,1184317.0,-81.50948,67.4313
2154.4,607166.3,-91.06752,67.409
4641.6,260027.4,-88.50576,67.4337
10000.0,122681.0,-86.48844,67.419
