Frequency,Impedance,Phase Angle,Temperature (Dry Bath)
10.0,117577.7,-4.033475,67.3041
21.5,114654.5,-3.391992,67.3137
46.4,113198.8,-3.321915,67.2959
100.0,115346.9,-3.951127,67.3082
215.4,113426.5,-5.60921,67.2994
464.2,107978.6,-6.791488,67.3072
1000.0,104382.6,-8.52498,67.3146
2154.4,100657.9,-15.09759,67.3105
4641.6,89662.11,-23.88347,67.302
10000.0,72637.91,-38.09013,67.3093
