Frequency,Impedance,Phase Angle,Temperature (Dry Bath)
10.0,202900.7,-23.68298,67.4282
21.5,170493.6,-20.59463,67.4083
46.4,147426.9,-17.73024,67.42
100.0,128479.6,-16.39323,67.4325
215.4,119217.1,-12.21098,67.4217
464.2,109372.7,-12.524,67.4208
1000.0,97401.99,-16.43494,67.4256
2154.4,88762.54,-20.13829,67.4331
4641.6,76502.84,-27.15131,67.4439
10000.0,58994.87,-39.20304,67.4271
