Frequency,Impedance,Phase Angle,Temperature (Dry Bath)
10.0,53793.78,-33.5541,67.2612
21.5,41463.51,-29.55118,67.2633
46.4,33752.77,-25.65,67.2459
100.0,28449.41,-21.84941,67.262
215.4,23019.42,-16.62284,67.2613
464.2,22106.03,-15.20619,67.2572
1000.0,19940.32,-13.11665,67.2574
2154.4,18265.17,-11.95278,67.2516
4641.6,16879.15,-12.07353,67.2703
10000.0,15653.92,-14.23562,67.2655
