Frequency,Impedance,Phase Angle,Temperature (Dry Bath)
10.0,2541552.0,-1.374267,66.9734
21.5,2445646.0,-4.616893,66.9585
46.4,2406931.0,-6.409782,66.9828
100.0,2074671.0,17.21878,66.9688
215.4,1785644.0,-50.81817,66.9668
464.2,1770246.0,-53.0884,66.9645
1000.0,1125936.0,-76.97481,66.9812
2154.4,531893.8,-77.89992,66.9752
4641.6,259520.1,-79.63438,66.9707
10000.0,127332.0,-82.78456,66.9787
