Frequency,Impedance,Phase Angle,Temperature (Dry Bath)
10.0,149853.8,-4.895283,68.0659
21.5,145213.8,-4.301815,68.0361
46.4,141454.8,-3.850712,68.0425
100.0,136361.7,-4.753409,68.0329
215.4,135866.1,-4.420152,68.046
464.2,131008.5,-3.96863,68.0398
1000.0,127026.8,-8.803775,68.0347
2154.4,121463.5,-16.47672,68.0546
4641.6,107445.1,-27.11385,68.0431
10000.0,88523.24,-46.03172,68.0381
