Frequency,Impedance,Phase Angle,Temperature (Dry Bath)
10.0,1454524.0,-17.71918,67.4578
21.5,1313792.0,-15.70887,67.4699
46.4,1272163.0,-12.77935,67.4755
100.0,911713.0,-7.30109,67.4684
215.4,159130.9,-4.719713,67.4649
464.2,932854.3,-42.27648,67.4562
1000.0,662370.7,-40.80463,67.4697
2154.4,422699.7,-64.15791,67.472
4641.6,239015.3,-74.63015,67.461
10000.0,112895.1,-79.63538,67.4584
