Frequency,Impedance,Phase Angle,Temperature (Dry Bath)
10.0,24122560.0,-28.78299,67.3482
21.5,24585580.0,-24.22734,67.3321
46.4,10986820.0,-51.77048,67.3352
100.0,3437663.0,-54.38595,67.3505
215.4,1351433.0,-171.2555,67.345
464.2,4566904.0,-78.00809,67.3369
1000.0,1053844.0,-82.12811,67.3459
2154.4,569748.4,-87.64378,67.346
4641.6,248915.5,-86.91292,67.3465
10000.0,124101.4,-86.07932,67.3269
