Frequency,Impedance,Phase Angle,Temperature (Dry Bath)
10.0,25133620.0,-24.13321,67.4951
21.5,22488020.0,-31.89131,67.4806
46.4,19784240.0,-62.6113,67.4822
100.0,3138463.0,-100.1958,67.4733
215.4,186558.1,11.85705,67.477
464.2,2704244.0,-85.4519,67.4899
1000.0,1162796.0,-80.87877,67.476
2154.4,513980.0,-88.40619,67.4904
4641.6,251414.0,-85.59734,67.4609
10000.0,123101.0,-85.45409,67.4791
