Frequency,Impedance,Phase Angle,Temperature (Dry Bath)
10.0,5491949.0,-14.95962,71.5537
21.544346900318832,3252807.0,16.26773,71.5588
46.41588833612777,5390528.0,-18.99873,71.5537
100.0,370469.7,-109.2985,71.5429
215.44346900318823,1386541.0,-65.14719,71.5454
464.15888336127773,1288117.0,28.64224,71.5378
1000.0,1193135.0,-57.82198,71.557
2154.4346900318824,1155312.0,-2.960163,71.5393
4641.588833612777,305828.3,-62.9983,71.5438
10000.0,127323.0,-81.62943,71.5719
