Frequency,Impedance,Phase Angle,Temperature (Dry Bath)
10.0,4796890.0,14.70486,68.1454
21.5,466088.8,-12.67973,68.1343
46.4,421219.9,-11.7196,68.1285
100.0,378615.5,-10.07146,68.1262
215.4,377675.0,-12.95775,68.1386
464.2,333464.7,-15.1169,68.158
1000.0,303056.8,-19.68623,68.1448
2154.4,254146.8,-33.17448,68.1361
4641.6,209945.3,-49.86119,68.1411
10000.0,117330.6,-72.55221,68.1312
