Frequency,Impedance,Phase Angle,Temperature (Dry Bath)
10.0,22474670.0,-13.07253,67.9686
21.5,24870270.0,-13.19257,67.9686
46.4,32941240.0,-45.96215,67.9686
100.0,7479166.0,-10.82951,67.9686
215.4,6211372.0,-62.09422,67.9686
464.2,2683265.0,-95.8571,67.9686
1000.0,1581302.0,-85.24162,67.9686
2154.4,657502.5,-88.11978,67.9686
4641.6,325283.8,-91.93291,67.9686
10000.0,146998.8,-94.02025,67.9686
