Frequency,Impedance,Phase Angle,Temperature (Dry Bath)
10.0,26247540.0,-21.59532,67.4234
21.5,23503790.0,-36.8757,67.4097
46.4,22553730.0,-50.47915,67.4455
100.0,4288654.0,-73.40609,67.4224
215.4,1864846.0,-152.04,67.4336
464.2,2719294.0,-98.39702,67.4469
1000.0,1237380.0,-82.48966,67.4352
2154.4,543743.2,-88.21132,67.4234
4641.6,268546.9,-89.05714,67.436
10000.0,130126.5,-85.27271,67.4337
