Frequency,Impedance,Phase Angle,Temperature (Dry Bath)
10.0,29049950.0,-9.914781,67.8905
21.5,28083670.0,-34.83715,67.8847
46.4,32788460.0,-41.26584,67.8703
100.0,4989811.0,-34.29419,67.869
215.4,7434475.0,-86.34521,67.8749
464.2,2677913.0,-78.19853,67.8695
1000.0,1269822.0,-84.4687,67.8684
2154.4,627157.5,-87.53875,67.8642
4641.6,272261.7,-91.38585,67.8727
10000.0,136958.4,-97.1564,67.8778
