Frequency,Impedance,Phase Angle,Temperature (Dry Bath)
10.0,29098270.0,-34.08096,67.265
21.5,29601610.0,-36.42393,67.2763
46.4,18165100.0,-55.15792,67.2713
100.0,6453920.0,-15.13775,67.2737
215.4,3877755.0,-94.33011,67.2668
464.2,2413497.0,-72.18094,67.2698
1000.0,1104081.0,-89.56169,67.2601
2154.4,582000.8,-86.4209,67.2659
4641.6,268109.0,-89.83839,67.2629
10000.0,121558.5,-86.60743,67.2772
