Frequency,Impedance,Phase Angle,Temperature (Dry Bath)
10.0,4965376.0,-9.440598,71.0146
21.544346900318832,59877910.0,-17.46953,71.0163
46.41588833612777,4521278.0,-26.451,70.9956
100.0,651099.1,-166.9333,71.0361
215.44346900318823,441827.9,9.182856,71.0194
464.15888336127773,431220.3,15.23516,70.9988
1000.0,2164463.0,-133.9263,71.0044
2154.4346900318824,623933.0,-37.83085,71.0035
4641.588833612777,296187.5,-99.53268,70.9888
10000.0,198935.8,-70.69416,71.0198
