Frequency,Impedance,Phase Angle,Temperature (Dry Bath)
10.0,14869.74,-17.39031,71.3304
21.544346900318832,13080.68,-15.95798,71.3401
46.41588833612777,11590.91,-15.37806,71.3368
100.0,10137.2,-14.61976,71.3376
215.44346900318823,9189.95,-13.71351,71.3164
464.15888336127773,8271.715,-13.30858,71.3311
1000.0,7411.002,-11.45056,71.3409
2154.4346900318824,6758.48,-9.960392,71.3205
4641.588833612777,6284.856,-8.879942,71.3351
10000.0,5887.781,-9.305385,71.3291
