Frequency,Impedance,Phase Angle,Temperature (Dry Bath)
10.0,3456910.0,-6.390094,70.9953
21.544346900318832,4030639.0,-10.83898,70.9843
46.41588833612777,4259755.0,-51.07146,70.9788
100.0,634393.2,79.85714,70.9886
215.44346900318823,569710.2,-36.04733,70.9851
464.15888336127773,1211391.0,-17.24438,70.9828
1000.0,663475.9,-54.07587,70.9777
2154.4346900318824,198392.5,-76.30239,70.982
4641.588833612777,118920.3,-88.28447,70.9922
10000.0,67336.9,-84.4257,70.9897
