Frequency,Impedance,Phase Angle,Temperature (Dry Bath)
10.0,42720.28,-14.61552,71.4579
21.544346900318832,38599.33,-12.76846,71.4518
46.41588833612777,35213.86,-11.74608,71.4679
100.0,30701.36,-10.77609,71.4596
215.44346900318823,30154.28,-11.53491,71.4593
464.15888336127773,28326.94,-12.69389,71.4629
1000.0,24161.13,-11.59498,71.4737
2154.4346900318824,24419.37,-12.26344,71.4904
4641.588833612777,21059.24,-15.46473,71.4473
10000.0,18674.17,-24.39475,71.4704
