Frequency,Impedance,Phase Angle,Temperature (Dry Bath)
10.0,37072000.0,-18.71754,67.1888
21.5,33726940.0,-46.16378,67.1776
46.4,19398850.0,-48.93224,67.181
100.0,15447600.0,20.30408,67.1825
215.4,227758.0,-129.5826,67.1774
464.2,2370685.0,-102.5416,67.195
1000.0,1071125.0,-87.65192,67.1799
2154.4,548068.3,-85.0655,67.1853
4641.6,258321.9,-89.14007,67.2074
10000.0,123186.9,-86.79216,67.2073
