Frequency,Impedance,Phase Angle,Temperature (Dry Bath)
10.0,51532300.0,-23.38798,67.9357
21.5,37933300.0,-22.793,67.9589
46.4,30174420.0,-46.28458,67.9538
100.0,6310352.0,-42.91883,67.9458
215.4,32472060.0,-91.32374,67.9598
464.2,2956669.0,-81.36868,67.9666
1000.0,1394727.0,-86.67566,67.9473
2154.4,685695.8,-88.93664,67.9477
4641.6,302799.8,-95.79736,67.9779
10000.0,138620.4,-96.48937,67.9638
