Frequency,Impedance,Phase Angle,Temperature (Dry Bath)
10.0,23125050.0,-35.45439,68.0692
21.5,18845660.0,-27.68048,68.0692
46.4,19919890.0,-47.48181,68.0692
100.0,6537760.0,-27.26828,68.0692
215.4,4871547.0,-85.61606,68.0692
464.2,3231330.0,-75.26348,68.0692
1000.0,1311557.0,-84.75349,68.0692
2154.4,631644.8,-86.94127,68.0692
4641.6,302611.7,-89.52458,68.0692
10000.0,158996.7,-96.07428,68.0692
