Frequency,Impedance,Phase Angle,Temperature (Dry Bath)
10.0,24343630.0,-29.48006,67.5112
21.5,24591340.0,-28.40745,67.4899
46.4,19455710.0,-54.99812,67.4857
100.0,8139019.0,20.84822,67.4803
215.4,206846.8,-59.91096,67.4942
464.2,2281927.0,-95.10035,67.4827
1000.0,1246291.0,-90.35176,67.4749
2154.4,553515.6,-84.75181,67.4815
4641.6,263038.7,-87.23364,67.4881
10000.0,124060.7,-86.3311,67.4877
