Frequency,Impedance,Phase Angle,Temperature (Dry Bath)
10.0,20680860.0,-26.46262,67.9686
21.5,21390840.0,-41.31765,67.9686
46.4,23399840.0,-52.74067,67.9686
100.0,3943164.0,-26.79171,67.9686
215.4,4469125.0,-81.55824,67.9686
464.2,2964476.0,-73.14427,67.9686
1000.0,1302394.0,-81.0235,67.9686
2154.4,578344.7,-85.65697,67.9686
4641.6,272299.7,-90.8172,67.9686
10000.0,125206.0,-94.13447,67.9686
