Frequency,Impedance,Phase Angle,Temperature (Dry Bath)
10.0,27643730.0,-43.10954,67.3246
21.5,24469750.0,-30.27879,67.3388
46.4,15987210.0,-54.93005,67.3251
100.0,3019034.0,-33.02387,67.3338
215.4,7470628.0,-169.5285,67.3263
464.2,1657706.0,-74.22791,67.3233
1000.0,864442.8,-80.94352,67.34
2154.4,466937.1,-88.00193,67.3558
4641.6,218848.4,-82.17619,67.3653
10000.0,106672.1,-80.28664,67.3516
