Frequency,Impedance,Phase Angle,Temperature (Dry Bath)
10.0,25596280.0,-26.9825,67.4445
21.5,23105160.0,-29.97437,67.4502
46.4,15314170.0,-55.43977,67.4281
100.0,4090431.0,-61.118,67.4439
215.4,12545710.0,-166.5512,67.4298
464.2,1887024.0,-69.29617,67.4451
1000.0,964124.4,-75.12253,67.4289
2154.4,462765.2,-81.61233,67.4337
4641.6,265931.2,-86.99797,67.4458
10000.0,122604.1,-83.98254,67.4479
