Frequency,Impedance,Phase Angle,Temperature (Dry Bath)
10.0,16617290.0,-14.42915,67.9284
21.5,28846550.0,-38.13152,67.9388
46.4,18313760.0,-47.00019,67.9308
100.0,8157358.0,-2.598322,67.9446
215.4,4348920.0,-49.8869,67.9534
464.2,2922764.0,-99.91831,67.9377
1000.0,1191324.0,-90.30374,67.9228
2154.4,608484.6,-84.61975,67.9241
4641.6,311490.0,-93.12559,67.949
10000.0,145942.7,-97.33878,67.9476
