Frequency,Impedance,Phase Angle,Temperature (Dry Bath)
10.0,25828010.0,-16.85392,68.2246
21.5,19930230.0,-34.73395,68.2295
46.4,14926650.0,-43.07907,68.2096
100.0,5280146.0,-54.62056,68.2397
215.4,6338458.0,-47.75979,68.2227
464.2,2138633.0,-86.073,68.2283
1000.0,1433359.0,-87.34744,68.2176
2154.4,739654.8,-82.68183,68.2124
4641.6,305551.9,-92.74347,68.2388
10000.0,149603.2,-101.0913,68.2353
