Frequency,Impedance,Phase Angle,Temperature (Dry Bath)
10.0,509187.6,-28.35329,65.6958
21.544346900318832,387965.2,-29.08546,65.6865
46.41588833612777,303968.6,-23.15989,65.696
100.0,213488.1,-11.53812,65.7052
215.44346900318823,42983.02,132.337,65.698
464.15888336127773,171369.4,-10.985,65.71
1000.0,134749.6,-24.19468,65.6992
2154.4346900318824,135200.8,-35.86944,65.7082
4641.588833612777,70800.07,-46.41531,65.7101
10000.0,52061.42,-57.51446,65.7063
