Frequency,Impedance,Phase Angle,Temperature (Dry Bath)
10.0,3728699.0,6.775002,71.4727
21.544346900318832,6463632.0,-15.08798,71.4724
46.41588833612777,5252488.0,-25.31317,71.4752
100.0,582887.4,-73.31965,71.4697
215.44346900318823,924287.8,-101.9524,71.4718
464.15888336127773,664636.8,-47.22506,71.469
1000.0,597296.7,-84.07493,71.4772
2154.4346900318824,762022.4,-71.5293,71.4595
4641.588833612777,208910.2,-65.12379,71.4764
10000.0,126215.2,-79.9791,71.46
