Frequency,Impedance,Phase Angle,Temperature (Dry Bath)
10.0,5660305.0,-15.85625,70.9487
21.544346900318832,5420046.0,-43.04562,70.9554
46.41588833612777,4113373.0,-33.89734,70.9508
100.0,593877.3,147.236,70.9466
215.44346900318823,659799.1,122.6865,70.9501
464.15888336127773,1188598.0,-50.59783,70.9577
1000.0,292773.6,-85.6961,70.943
2154.4346900318824,346059.5,-96.30413,70.9708
4641.588833612777,113727.9,-76.12994,70.9521
10000.0,60154.22,-84.91188,70.9582
