Frequency,Impedance,Phase Angle,Temperature (Dry Bath)
10.0,27685110.0,-7.135767,67.4287
21.5,21593510.0,-34.48583,67.4141
46.4,20460410.0,-44.46436,67.4316
100.0,5095710.0,-122.5401,67.4275
215.4,2495419.0,18.97017,67.4156
464.2,2074776.0,-73.87129,67.4201
1000.0,1202789.0,-73.57678,67.416
2154.4,610300.9,-87.01544,67.4242
4641.6,269539.4,-88.39717,67.4226
10000.0,129587.1,-86.14849,67.4457
