Frequency,Impedance,Phase Angle,Temperature (Dry Bath)
10.0,1559101.0,-18.18376,67.7325
21.5,1337909.0,-14.84811,67.7401
46.4,1180895.0,-13.84349,67.7419
100.0,1069383.0,-8.452855,67.7432
215.4,953227.9,-20.044,67.7359
464.2,978402.6,-17.98764,67.7251
1000.0,652914.3,-38.92393,67.7233
2154.4,521469.2,-55.72115,67.7654
4641.6,272255.7,-76.56873,67.7536
10000.0,131458.7,-88.89206,67.7536
