Frequency,Impedance,Phase Angle,Temperature (Dry Bath)
10.0,65503.71,-31.85402,67.1637
21.5,51412.74,-27.93128,67.159
46.4,42476.38,-24.20662,67.1411
100.0,36299.16,-21.45427,67.1484
215.4,31519.83,-18.82505,67.1432
464.2,28316.56,-14.78826,67.1551
1000.0,25559.31,-13.18489,67.1414
2154.4,23380.59,-12.23907,67.1628
4641.6,21600.58,-12.87324,67.1536
10000.0,19889.56,-16.58156,67.1382
