Frequency,Impedance,Phase Angle,Temperature (Dry Bath)
10.0,24115410.0,-12.99765,68.0523
21.5,14628080.0,-38.72623,68.0523
46.4,12260070.0,-49.43189,68.0523
100.0,14123330.0,-90.40308,68.0523
215.4,4116138.0,-70.20659,68.0523
464.2,2120032.0,-82.09194,68.0523
1000.0,1203885.0,-78.14756,68.0523
2154.4,584388.1,-87.15206,68.0523
4641.6,270255.9,-86.99315,68.0523
10000.0,130992.0,-98.45164,68.0523
