Frequency,Impedance,Phase Angle,Temperature (Dry Bath)
10.0,31190.02,-13.14973,28.9391
21.544346900318832,28263.09,-11.79197,29.0057
46.41588833612777,25751.15,-10.9075,29.0043
100.0,22843.61,-9.771812,28.9447
215.44346900318823,21539.01,-9.186972,29.08
464.15888336127773,20210.51,-7.370325,28.4146
1000.0,20565.46,-9.719459,28.1977
2154.4346900318824,17932.22,-8.217022,28.1345
4641.588833612777,17345.44,-9.230427,28.4265
10000.0,15892.02,-10.87868,28.4513
