Frequency,Impedance,Phase Angle,Temperature (Dry Bath)
10.0,3763857.0,-0.338337,70.5137
21.544346900318832,3921897.0,-25.51466,70.518
46.41588833612777,3414413.0,-18.40463,70.5105
100.0,262073.9,-78.16943,70.5176
215.44346900318823,817053.5,-173.7853,70.5242
464.15888336127773,452806.7,-151.4585,70.5187
1000.0,216873.7,-16.49449,70.5196
2154.4346900318824,408277.1,-95.8946,70.5207
4641.588833612777,122933.0,-71.82231,70.5144
10000.0,57172.27,-80.4174,70.5158
