Frequency,Impedance,Phase Angle,Temperature (Dry Bath)
10.0,81117.77,-36.6536,71.328
21.544346900318832,59987.49,-32.74382,71.3235
46.41588833612777,46269.59,-28.79925,71.3303
100.0,36077.75,-31.11656,71.3371
215.44346900318823,30956.9,-18.36988,71.3385
464.15888336127773,26464.16,-21.40178,71.3195
1000.0,23195.06,-19.81502,71.3306
2154.4346900318824,20449.31,-18.54949,71.3271
4641.588833612777,17548.25,-24.22986,71.3346
10000.0,15103.95,-32.39385,71.3388
