Frequency,Impedance,Phase Angle,Temperature (Dry Bath)
10.0,135521.1,-3.714747,67.2797
21.5,132754.6,-3.165642,67.2962
46.4,130692.6,-3.395454,67.2809
100.0,128017.4,-5.4307,67.2794
215.4,128208.5,-1.933004,67.2834
464.2,123745.5,-7.384428,67.2811
1000.0,118464.3,-9.986675,67.2745
2154.4,112324.2,-16.55229,67.272
4641.6,96659.7,-28.10382,67.278
10000.0,73359.9,-44.65542,67.2841
