Frequency,Impedance,Phase Angle,Temperature (Dry Bath)
10.0,389948.7,-24.26501,65.88
21.544346900318832,320230.5,-22.97556,65.8617
46.41588833612777,258797.4,-23.19397,65.8834
100.0,188947.8,-18.20626,65.8717
215.44346900318823,6800.947,-99.89763,65.8777
464.15888336127773,189212.5,-24.09056,65.8591
1000.0,123652.9,-41.24827,65.8733
2154.4346900318824,135436.0,-37.75697,65.8631
4641.588833612777,80240.24,-46.10919,65.8778
10000.0,53064.96,-56.75795,65.8787
