Frequency,Impedance,Phase Angle,Temperature (Dry Bath)
10.0,31476220.0,-23.20059,67.3982
21.5,21113390.0,-34.32866,67.4023
46.4,8147042.0,-77.87676,67.3993
100.0,14720650.0,-46.71301,67.4026
215.4,187879.1,95.14852,67.4119
464.2,1730757.0,-74.99772,67.3987
1000.0,786298.7,-83.12842,67.3944
2154.4,422502.3,-82.23443,67.4083
4641.6,199685.7,-81.81732,67.4133
10000.0,98850.49,-81.97928,67.3916
