Frequency,Impedance,Phase Angle,Temperature (Dry Bath)
10.0,3883923.0,2.335055,71.3572
21.544346900318832,3212359.0,-12.12446,71.3581
46.41588833612777,5605584.0,-50.48871,71.3525
100.0,980728.0,87.80064,71.3627
215.44346900318823,898598.9,67.36229,71.3469
464.15888336127773,337911.9,-52.84197,71.3489
1000.0,2248447.0,-130.2821,71.3503
2154.4346900318824,233510.2,-84.44549,71.3576
4641.588833612777,144032.8,-66.77419,71.3565
10000.0,67598.9,-93.46193,71.3536
