Frequency,Impedance,Phase Angle,Temperature (Dry Bath)
10.0,4713060.0,-44.19125,70.9208
21.544346900318832,5351797.0,-12.56574,70.9159
46.41588833612777,3986541.0,-42.74906,70.9121
100.0,280704.2,-156.018,70.9128
215.44346900318823,624734.0,103.235,70.9192
464.15888336127773,463866.2,-64.35524,70.9063
1000.0,693100.1,141.9083,70.9172
2154.4346900318824,327483.1,-74.23241,70.9092
4641.588833612777,116285.0,-78.25301,70.9178
10000.0,63794.63,-78.07507,70.9145
