Frequency,Impedance,Phase Angle,Temperature (Dry Bath)
10.0,5381366.0,-6.06969,66.2674
21.544346900318832,3881719.0,-8.888941,66.259
46.41588833612777,3920802.0,-41.99844,66.2689
100.0,300043.9,-8.745244,66.2524
215.44346900318823,340062.3,-100.5842,66.2556
464.15888336127773,653807.6,-165.8993,66.2569
1000.0,397284.3,-112.547,66.2451
2154.4346900318824,216215.7,-83.86533,66.252
4641.588833612777,162456.2,-80.7464,66.2486
10000.0,58277.52,-89.9824,66.2435
