Frequency,Impedance,Phase Angle,Temperature (Dry Bath)
10.0,83393.94,-3.160034,66.9226
21.5,81369.16,-2.754906,66.9331
46.4,80039.31,-2.580226,66.912
100.0,77480.31,-2.439631,66.9282
215.4,65797.5,17.68015,66.9164
464.2,76647.81,-5.070563,66.9238
1000.0,73814.33,-6.802761,66.9139
2154.4,72388.36,-11.01397,66.9241
4641.6,66084.12,-19.22225,66.9055
10000.0,57164.18,-33.47756,66.9189
