Frequency,Impedance,Phase Angle,Temperature (Dry Bath)
10.0,20563400.0,-32.67184,68.0658
21.5,14344820.0,-15.51699,68.0658
46.4,18201230.0,-47.77094,68.0658
100.0,6619554.0,-11.74238,68.0658
215.4,6361256.0,-69.09641,68.0658
464.2,2588899.0,-83.12868,68.0658
1000.0,1315639.0,-87.43643,68.0658
2154.4,676605.8,-85.27334,68.0658
4641.6,305168.2,-87.91594,68.0658
10000.0,152470.4,-96.74088,68.0658
