Frequency,Impedance,Phase Angle,Temperature (Dry Bath)
10.0,23994010.0,-25.91312,67.2212
21.5,24347680.0,-47.02616,67.2195
46.4,9440277.0,-67.90668,67.2386
100.0,6333770.0,-44.83176,67.2482
215.4,241066.5,-139.6377,67.2457
464.2,1614675.0,-71.82873,67.2535
1000.0,877341.9,-79.5344,67.2536
2154.4,473865.1,-78.98841,67.2631
4641.6,229453.9,-77.85019,67.2381
10000.0,120729.1,-79.42476,67.2471
