Frequency,Impedance,Phase Angle,Temperature (Dry Bath)
10.0,7006726.0,6.573201,67.1
21.544346900318832,7330738.0,-21.09727,67.1
46.41588833612777,8156746.0,-10.47326,67.1
100.0,1487862.0,-15.67506,67.1
215.44346900318823,1902915.0,-14.78628,67.1
464.15888336127773,4140041.0,30.92839,67.1
1000.0,4236652.0,13.62396,67.1
2154.4346900318824,4688455.0,109.0072,67.1
4641.588833612777,798609.9,-72.36345,67.1
10000.0,745482.7,-55.25477,67.1
