Frequency,Impedance,Phase Angle,Temperature (Dry Bath)
10.0,895516.9,-29.69116,71.3699
21.544346900318832,758804.5,-31.24073,71.3713
46.41588833612777,594025.6,-26.38375,71.3569
100.0,151079.6,-39.28924,71.3705
215.44346900318823,25702.32,32.62549,71.3704
464.15888336127773,255233.5,-41.20499,71.376
1000.0,300829.8,-23.65298,71.3798
2154.4346900318824,152929.0,-51.49625,71.3806
4641.588833612777,123573.1,-56.36399,71.3668
10000.0,57619.03,-76.06272,71.3853
