Frequency,Impedance,Phase Angle,Temperature (Dry Bath)
10.0,4872511.0,-22.0364,65.7564
21.544346900318832,4824223.0,-7.252854,65.7538
46.41588833612777,4181187.0,-29.99365,65.7612
100.0,1499691.0,-146.196,65.7539
215.44346900318823,16580.28,-45.00652,65.7631
464.15888336127773,725584.9,-105.6678,65.7614
1000.0,756608.2,-95.29383,65.7562
2154.4346900318824,314545.4,-87.09067,65.7649
4641.588833612777,171529.7,-78.35859,65.743
10000.0,70528.7,-91.40997,65.7527
