Frequency,Impedance,Phase Angle,Temperature (Dry Bath)
10.0,33148740.0,-29.23257,68.0461
21.5,45115180.0,-30.95889,68.0481
46.4,35539330.0,-55.78602,68.0613
100.0,4439642.0,-54.18408,68.0583
215.4,3784379.0,-75.95682,68.0606
464.2,2011023.0,-75.05571,68.0652
1000.0,1288115.0,-82.37409,68.0554
2154.4,601503.0,-82.53218,68.0682
4641.6,289679.1,-92.21844,68.0618
10000.0,130797.9,-93.51626,68.071
