Frequency,Impedance,Phase Angle,Temperature (Dry Bath)
10.0,134802.3,-3.769777,67.2891
21.5,132465.3,-3.394725,67.276
46.4,129159.4,-3.201084,67.2706
100.0,125215.1,-4.526328,67.2853
215.4,93184.63,7.757232,67.2874
464.2,122842.5,-5.712999,67.2657
1000.0,117299.1,-10.34502,67.2603
2154.4,108246.8,-16.13977,67.2495
4641.6,95622.03,-26.68002,67.2707
10000.0,73384.91,-43.71188,67.2564
