Frequency,Impedance,Phase Angle,Temperature (Dry Bath)
10.0,1629199.0,-14.4156,68.1439
21.5,1453999.0,-13.78693,68.1439
46.4,1258813.0,-13.78597,68.1439
100.0,1156153.0,-13.38131,68.1439
215.4,990750.6,-14.7916,68.1439
464.2,901004.0,-28.48362,68.1439
1000.0,794811.0,-41.95295,68.1439
2154.4,516831.4,-57.7418,68.1439
4641.6,271150.0,-75.92481,68.1439
10000.0,143367.9,-88.83167,68.1439
