Frequency,Impedance,Phase Angle,Temperature (Dry Bath)
10.0,1467856.0,-15.26084,67.9941
21.5,1315563.0,-14.36293,67.9873
46.4,1157894.0,-13.25309,67.9922
100.0,979175.2,-10.48187,67.992
215.4,912577.9,-17.05548,68.0111
464.2,961973.7,-12.56241,68.0044
1000.0,727269.5,-40.80137,67.9944
2154.4,472468.1,-55.93105,68.0
4641.6,272585.1,-73.281,68.0031
10000.0,140745.4,-80.79063,68.0077
