Frequency,Impedance,Phase Angle,Temperature (Dry Bath)
10.0,510017.9,-13.63538,68.3193
21.5,464564.1,-12.42223,68.3175
46.4,420460.8,-11.64055,68.3288
100.0,370241.9,-10.08492,68.3187
215.4,362925.5,-10.93795,68.3194
464.2,326596.4,-14.84386,68.3043
1000.0,326129.8,-19.85293,68.315
2154.4,254761.1,-35.03034,68.3258
4641.6,216264.3,-51.79277,68.3288
10000.0,122444.2,-75.36248,68.3194
