Frequency,Impedance,Phase Angle,Temperature (Dry Bath)
10.0,31189390.0,-11.99663,67.3183
21.5,25300430.0,-29.4143,67.3148
46.4,16416420.0,-57.86316,67.3259
100.0,6755437.0,14.19437,67.3079
215.4,5325741.0,-95.55528,67.3136
464.2,1946755.0,-77.55207,67.3174
1000.0,1007740.0,-79.43146,67.3135
2154.4,420766.6,-86.59742,67.3095
4641.6,225510.7,-83.05793,67.324
10000.0,104415.8,-82.2482,67.3145
