Frequency,Impedance,Phase Angle,Temperature (Dry Bath)
10.0,128312.4,-4.252055,67.178
21.5,125630.6,-3.635554,67.1663
46.4,122660.0,-3.298094,67.1692
100.0,118615.0,-4.449916,67.1596
215.4,136189.9,-32.6188,67.1838
464.2,118724.2,-5.85915,67.1839
1000.0,112759.9,-9.208778,67.1839
2154.4,106714.4,-16.3239,67.1618
4641.6,91514.22,-25.74771,67.1834
10000.0,71585.81,-42.44636,67.1928
