Frequency,Impedance,Phase Angle,Temperature (Dry Bath)
10.0,23639280.0,-27.88706,67.2739
21.5,23712290.0,-37.24762,67.2772
46.4,15141990.0,-59.33337,67.2743
100.0,7856981.0,-31.6891,67.267
215.4,2040323.0,-98.90621,67.2878
464.2,1701633.0,-74.90137,67.2979
1000.0,986674.6,-80.1601,67.2743
2154.4,444588.1,-81.29563,67.283
4641.6,214799.9,-84.46567,67.2843
10000.0,106855.3,-81.10775,67.2775
