Frequency,Impedance,Phase Angle,Temperature (Dry Bath)
10.0,144273.1,-5.017431,67.916
21.5,139202.5,-4.036039,67.8974
46.4,135902.1,-3.817268,67.9041
100.0,130620.6,-4.776447,67.9033
215.4,130417.6,-5.831484,67.9168
464.2,124939.4,-5.897797,67.907
1000.0,119615.3,-9.284457,67.8994
2154.4,118185.8,-16.11707,67.8927
4641.6,101594.4,-29.21223,67.8924
10000.0,82597.53,-47.31134,67.8692
