Frequency,Impedance,Phase Angle,Temperature (Dry Bath)
10.0,94978.67,-14.02838,71.2986
21.544346900318832,85236.71,-12.65042,71.3123
46.41588833612777,77871.55,-12.08778,71.3141
100.0,60829.91,-11.60143,71.3009
215.44346900318823,62369.34,-13.86008,71.3025
464.15888336127773,54382.97,-11.39191,71.3014
1000.0,55407.58,-16.72057,71.2959
2154.4346900318824,51207.1,-20.18821,71.3014
4641.588833612777,45892.56,-25.7323,71.3028
10000.0,34439.5,-42.71039,71.2911
