Frequency,Impedance,Phase Angle,Temperature (Dry Bath)
10.0,1355299.0,-15.48472,67.9046
21.5,1245401.0,-14.32438,67.9036
46.4,1176172.0,-14.00156,67.923
100.0,923170.2,-10.65169,67.8974
215.4,1025064.0,-7.254302,67.9183
464.2,913915.8,-23.10492,67.8932
1000.0,656899.6,-39.75142,67.919
2154.4,444258.0,-57.07734,67.9163
4641.6,250627.8,-70.66901,67.8961
10000.0,132275.2,-86.5828,67.8925
