Frequency,Impedance,Phase Angle,Temperature (Dry Bath)
10.0,1968283.0,-11.06492,68.1053
21.5,1878247.0,-12.1706,68.1228
46.4,1787415.0,-13.54397,68.1128
100.0,1382942.0,-19.32704,68.1309
215.4,1364600.0,-22.36453,68.1089
464.2,1068770.0,-32.08716,68.1252
1000.0,898666.6,-48.34276,68.1198
2154.4,554273.2,-60.62219,68.1302
4641.6,329509.9,-82.97684,68.1183
10000.0,143450.6,-91.10059,68.1107
