Frequency,Impedance,Phase Angle,Temperature (Dry Bath)
10.0,32022320.0,-10.76982,67.5319
21.5,34023370.0,-23.66261,67.5304
46.4,19893130.0,-49.56557,67.5214
100.0,11091580.0,-28.09755,67.5263
215.4,7986996.0,-138.4994,67.5069
464.2,2190481.0,-85.76248,67.5154
1000.0,1207785.0,-87.03756,67.5079
2154.4,576718.8,-83.56406,67.5062
4641.6,275278.8,-86.33818,67.5187
10000.0,128477.3,-84.68034,67.5043
