Frequency,Impedance,Phase Angle,Temperature (Dry Bath)
10.0,82063.26,-36.65037,71.4447
21.544346900318832,61737.5,-32.64271,71.442
46.41588833612777,47252.04,-28.63077,71.4333
100.0,37539.31,-23.42057,71.4337
215.44346900318823,37298.21,-36.29825,71.4344
464.15888336127773,27038.31,-17.55416,71.4229
1000.0,23451.46,-11.60166,71.4492
2154.4346900318824,20981.56,-17.77429,71.4283
4641.588833612777,19200.44,-18.86247,71.4379
10000.0,16814.66,-21.74773,71.4158
