Frequency,Impedance,Phase Angle,Temperature (Dry Bath)
10.0,23632690.0,-4.744179,67.3736
21.5,22610860.0,-38.0683,67.3679
46.4,16932510.0,-50.3195,67.3714
100.0,4124725.0,-122.9891,67.3717
215.4,5467119.0,172.0847,67.3748
464.2,1700951.0,-75.82987,67.3704
1000.0,1258990.0,-81.85266,67.3827
2154.4,570418.7,-85.49659,67.3705
4641.6,285720.3,-87.03083,67.3536
10000.0,131419.4,-86.37106,67.3924
