Frequency,Impedance,Phase Angle,Temperature (Dry Bath)
10.0,4398881.0,-30.21029,71.3686
21.544346900318832,5085840.0,-5.903744,71.3523
46.41588833612777,7628458.0,1.928834,71.3651
100.0,95369.75,138.7633,71.3703
215.44346900318823,638074.0,8.060538,71.3739
464.15888336127773,960180.2,152.5266,71.3755
1000.0,597276.2,0.5257696,71.3707
2154.4346900318824,301841.0,-90.23267,71.365
4641.588833612777,142489.5,-89.13709,71.3568
10000.0,64871.35,-83.11536,71.3693
