Frequency,Impedance,Phase Angle,Temperature (Dry Bath)
10.0,666091.0,-11.19602,71.4137
21.544346900318832,585838.2,-11.75585,71.4099
46.41588833612777,551772.2,-13.06785,71.4032
100.0,957400.0,3.755837,71.4215
215.44346900318823,172338.8,2.601784,71.4047
464.15888336127773,660777.8,3.685757,71.4119
1000.0,465897.9,1.973419,71.4221
2154.4346900318824,236181.7,-0.2643713,71.4091
4641.588833612777,166641.9,-40.82882,71.4051
10000.0,134447.6,-44.29946,71.428
