Frequency,Impedance,Phase Angle,Temperature (Dry Bath)
10.0,4339689.0,-12.14271,70.9104
21.544346900318832,4930005.0,-11.82887,70.9049
46.41588833612777,4434485.0,-25.06054,70.9107
100.0,762918.5,-117.7708,70.9002
215.44346900318823,927907.6,61.96278,70.9256
464.15888336127773,1962120.0,-135.1497,70.9064
1000.0,877601.8,-46.11071,70.9086
2154.4346900318824,372451.4,-106.4523,70.9204
4641.588833612777,97549.82,-92.09842,70.8948
10000.0,61198.49,-86.46124,70.9005
