Frequency,Impedance,Phase Angle,Temperature (Dry Bath)
10.0,149156.1,-16.07304,28.9878
21.544346900318832,132351.0,-14.6043,29.1717
46.41588833612777,119117.3,-14.16081,29.1024
100.0,106219.0,-14.08678,29.1458
215.44346900318823,90003.53,-14.34695,29.1805
464.15888336127773,75602.57,-33.73416,29.1193
1000.0,75942.16,-12.3553,29.0781
2154.4346900318824,73123.24,-14.10038,28.9068
4641.588833612777,71362.74,-23.02516,29.0333
10000.0,54309.33,-26.92891,29.2883
