Frequency,Impedance,Phase Angle,Temperature (Dry Bath)
10.0,113319.6,-3.659109,67.4892
21.5,111076.9,-3.318308,67.5137
46.4,109402.9,-3.276767,67.5039
100.0,108255.0,-4.352318,67.4758
215.4,111532.3,-4.45623,67.489
464.2,105903.0,-5.933093,67.49
1000.0,100449.5,-8.844878,67.4998
2154.4,96772.34,-13.01902,67.5009
4641.6,86661.69,-23.46949,67.4977
10000.0,71601.3,-37.73877,67.5054
