Frequency,Impedance,Phase Angle,Temperature (Dry Bath)
10.0,23691020.0,-22.98504,67.3021
21.5,23178010.0,-41.03771,67.3005
46.4,16598860.0,-56.59805,67.3078
100.0,2564081.0,-53.76048,67.2927
215.4,2893137.0,-74.0661,67.3126
464.2,1708332.0,-77.95149,67.302
1000.0,1020629.0,-80.66724,67.2852
2154.4,538874.8,-83.59542,67.3014
4641.6,257996.9,-84.20263,67.2899
10000.0,125021.2,-84.70095,67.2909
