Frequency,Impedance,Phase Angle,Temperature (Dry Bath)
10.0,30625200.0,-19.04018,67.287
21.5,23136920.0,-38.81479,67.2773
46.4,15048230.0,-58.18785,67.3072
100.0,4311060.0,-27.30095,67.2734
215.4,1652236.0,-61.89108,67.2744
464.2,2774792.0,-79.81399,67.285
1000.0,1034654.0,-61.0393,67.2752
2154.4,528962.6,-81.38227,67.2668
4641.6,248154.8,-81.22349,67.2921
10000.0,120320.7,-84.77895,67.2699
