Frequency,Impedance,Phase Angle,Temperature (Dry Bath)
10.0,5422540.0,-10.5348,71.3891
21.544346900318832,3799485.0,-5.981461,71.4
46.41588833612777,5273890.0,-15.92727,71.392
100.0,1190154.0,-14.75682,71.4121
215.44346900318823,1467355.0,-58.48296,71.3908
464.15888336127773,1511675.0,-38.23752,71.3885
1000.0,1266838.0,-57.07644,71.3934
2154.4346900318824,975436.8,-55.14724,71.4026
4641.588833612777,325436.7,-82.67802,71.3815
10000.0,144323.6,-87.8807,71.3835
