Frequency,Impedance,Phase Angle,Temperature (Dry Bath)
10.0,20376550.0,-20.32954,68.1774
21.5,24290420.0,-28.5347,68.1743
46.4,22977720.0,-37.47516,68.1756
100.0,5368128.0,-13.76637,68.1763
215.4,12531920.0,-57.5211,68.1599
464.2,2654186.0,-88.92726,68.1711
1000.0,1204049.0,-76.41048,68.1687
2154.4,587248.4,-85.70172,68.1805
4641.6,330768.5,-90.15105,68.1681
10000.0,145943.7,-98.28691,68.1907
