Frequency,Impedance,Phase Angle,Temperature (Dry Bath)
10.0,4361675.0,13.05581,71.3852
21.544346900318832,4668464.0,-34.26331,71.3866
46.41588833612777,5019544.0,-33.73456,71.3763
100.0,413126.1,14.02468,71.387
215.44346900318823,869834.6,105.3394,71.3736
464.15888336127773,663669.6,-27.12248,71.3678
1000.0,268195.9,-94.19251,71.3659
2154.4346900318824,358578.9,-102.3776,71.3747
4641.588833612777,174708.1,-62.48308,71.3739
10000.0,62617.17,-83.74943,71.357
