Frequency,Impedance,Phase Angle,Temperature (Dry Bath)
10.0,35043160.0,-18.50124,67.1256
21.5,27073380.0,-34.23518,67.1187
46.4,22346450.0,-43.19549,67.1191
100.0,9684308.0,-54.69194,67.1029
215.4,1519569.0,-89.48686,67.1174
464.2,1889884.0,-80.46689,67.1088
1000.0,953993.9,-83.17215,67.1153
2154.4,534895.3,-77.93472,67.104
4641.6,248808.6,-86.79693,67.1129
10000.0,119918.2,-84.17424,67.1207
