Frequency,Impedance,Phase Angle,Temperature (Dry Bath)
10.0,3095202.0,-10.13115,71.1948
21.544346900318832,3377119.0,-21.21639,71.198
46.41588833612777,3021140.0,-18.47296,71.1948
100.0,291802.8,-51.09755,71.1726
215.44346900318823,741785.4,26.9199,71.1956
464.15888336127773,1048098.0,133.8283,71.2025
1000.0,400479.4,-87.7691,71.1844
2154.4346900318824,230738.5,-85.04222,71.1969
4641.588833612777,108395.3,-77.35295,71.1821
10000.0,67007.54,-79.30729,71.1714
