Frequency,Impedance,Phase Angle,Temperature (Dry Bath)
10.0,30450410.0,-22.24296,67.2961
21.5,27233280.0,-47.64101,67.3018
46.4,19267890.0,-49.52252,67.3013
100.0,8363416.0,158.5804,67.3006
215.4,2918783.0,-74.89602,67.3056
464.2,1909937.0,-71.1202,67.3066
1000.0,1329391.0,-90.03468,67.3073
2154.4,580485.8,-93.07516,67.3192
4641.6,266575.9,-87.2961,67.3153
10000.0,130662.4,-85.7286,67.3088
