Frequency,Impedance,Phase Angle,Temperature (Dry Bath)
10.0,105236.7,-13.46742,71.2205
21.544346900318832,94191.33,-12.51084,71.2211
46.41588833612777,85925.19,-11.45478,71.2184
100.0,78613.64,-17.1086,71.2403
215.44346900318823,79175.95,2.204798,71.229
464.15888336127773,61477.7,-8.827076,71.2189
1000.0,63061.17,-16.77186,71.239
2154.4346900318824,54677.17,-20.35022,71.2299
4641.588833612777,52352.29,-32.25579,71.226
10000.0,35414.13,-36.80575,71.2363
