Frequency,Impedance,Phase Angle,Temperature (Dry Bath)
10.0,23192370.0,-13.95627,67.4212
21.5,30488420.0,-38.51902,67.422
46.4,13152450.0,-55.22224,67.4161
100.0,3933712.0,-65.91593,67.4152
215.4,266173.5,51.49221,67.412
464.2,2179413.0,-85.19534,67.4155
1000.0,825812.2,-76.11659,67.4229
2154.4,421110.3,-84.90307,67.4149
4641.6,197845.6,-82.77685,67.4211
10000.0,99745.58,-80.47935,67.4135
