Frequency,Impedance,Phase Angle,Temperature (Dry Bath)
10.0,21014410.0,-6.505247,68.2568
21.5,15828750.0,-37.01011,68.2568
46.4,11292970.0,-49.85543,68.2568
100.0,5235468.0,-60.11048,68.2568
215.4,5875850.0,-64.86517,68.2568
464.2,3158095.0,-73.87219,68.2568
1000.0,1175057.0,-79.41425,68.2568
2154.4,598331.9,-85.20107,68.2568
4641.6,317269.0,-84.77217,68.2568
10000.0,132752.0,-93.829,68.2568
