Frequency,Impedance,Phase Angle,Temperature (Dry Bath)
10.0,111520.3,-15.306,68.0184
21.5,99555.75,-13.22935,68.0218
46.4,90804.35,-11.90904,68.021
100.0,82547.15,-10.80543,68.0109
215.4,79448.89,-10.14043,68.0107
464.2,73495.44,-10.53801,68.0309
1000.0,68860.39,-11.35338,68.0207
2154.4,63877.56,-14.96392,68.0084
4641.6,59383.82,-20.67093,68.003
10000.0,51732.9,-32.50585,68.0167
