Frequency,Impedance,Phase Angle,Temperature (Dry Bath)
10.0,3627227.0,-5.496235,70.4993
21.544346900318832,4235242.0,-13.82508,70.4987
46.41588833612777,4415392.0,-22.97499,70.4935
100.0,383767.7,-61.24813,70.5008
215.44346900318823,598492.9,-17.38124,70.4955
464.15888336127773,953554.1,161.6166,70.4998
1000.0,325137.4,-47.53938,70.5059
2154.4346900318824,228163.6,-81.3704,70.5196
4641.588833612777,128385.6,-78.19267,70.4948
10000.0,63081.98,-83.92659,70.5055
