Frequency,Impedance,Phase Angle,Temperature (Dry Bath)
10.0,41129450.0,0.3369838,67.0928
21.5,40530330.0,-48.21762,67.0936
46.4,17082250.0,-48.35688,67.1036
100.0,5706127.0,-85.25841,67.1024
215.4,2811504.0,-74.23765,67.1037
464.2,2366374.0,-77.68113,67.1165
1000.0,1118918.0,-75.04504,67.0949
2154.4,528841.8,-89.4845,67.1062
4641.6,245852.6,-84.61537,67.1063
10000.0,122144.5,-86.39435,67.0999
