Frequency,Impedance,Phase Angle,Temperature (Dry Bath)
10.0,22542000.0,-23.66261,68.1016
21.5,34476910.0,-25.17537,68.1016
46.4,27818480.0,-55.2461,68.1016
100.0,5561505.0,-27.49901,68.1016
215.4,7393389.0,-86.8931,68.1016
464.2,2335349.0,-85.3976,68.1016
1000.0,1157767.0,-85.3414,68.1016
2154.4,576080.3,-81.72649,68.1016
4641.6,270019.7,-88.24403,68.1016
10000.0,132932.9,-92.02141,68.1016
