Frequency,Impedance,Phase Angle,Temperature (Dry Bath)
10.0,18632950.0,-9.32941,68.0322
21.5,21720810.0,-26.05095,68.0352
46.4,27700800.0,-48.96298,68.0147
100.0,4447275.0,-31.79133,68.0384
215.4,3151980.0,-87.71111,68.0384
464.2,3182503.0,-69.97401,68.042
1000.0,1512638.0,-89.10889,68.0477
2154.4,620189.1,-83.89692,68.0279
4641.6,276713.4,-89.32858,68.0286
10000.0,130258.2,-92.7504,68.0289
