Frequency,Impedance,Phase Angle,Temperature (Dry Bath)
10.0,90244.72,-3.043686,66.9779
21.5,88396.66,-2.595024,66.985
46.4,86755.82,-2.36267,66.9881
100.0,85411.57,-2.064802,66.971
215.4,84573.3,-3.444451,66.9888
464.2,83789.33,-4.415648,66.9805
1000.0,80558.9,-6.556022,66.9548
2154.4,78599.81,-11.54423,66.9771
4641.6,72851.11,-20.6189,66.9728
10000.0,60679.34,-35.45696,66.9764
