Frequency,Impedance,Phase Angle,Temperature (Dry Bath)
10.0,427165.3,-24.83542,65.8394
21.544346900318832,336834.4,-24.6463,65.8367
46.41588833612777,283722.7,-23.28727,65.8487
100.0,215948.7,-4.193728,65.8193
215.44346900318823,5571.933,-165.5024,65.836
464.15888336127773,161706.2,-23.01237,65.8405
1000.0,131346.6,-25.28378,65.8473
2154.4346900318824,99776.05,-30.91456,65.8386
4641.588833612777,75556.94,-53.83005,65.8374
10000.0,48985.77,-57.52183,65.8495
