Frequency,Impedance,Phase Angle,Temperature (Dry Bath)
10.0,31051880.0,-22.38625,67.3313
21.5,27465940.0,-39.30022,67.3388
46.4,17585750.0,-52.47919,67.3425
100.0,8027995.0,-128.156,67.3139
215.4,3782190.0,-66.05804,67.3176
464.2,2070995.0,-84.2746,67.3169
1000.0,1194598.0,-77.0811,67.303
2154.4,588353.4,-84.7375,67.3133
4641.6,265147.2,-85.80459,67.3029
10000.0,127684.9,-86.5345,67.3153
