Frequency,Impedance,Phase Angle,Temperature (Dry Bath)
10.0,3393757.0,-2.649643,70.9887
21.544346900318832,9539209.0,3.045845,70.9967
46.41588833612777,6815967.0,-9.42969,70.9842
100.0,517116.3,18.66293,70.9845
215.44346900318823,230858.4,35.14622,70.9902
464.15888336127773,618671.8,-81.45486,70.99
1000.0,571410.9,-152.9447,70.9736
2154.4346900318824,193725.1,-72.23773,70.9773
4641.588833612777,203681.7,-116.1152,70.9965
10000.0,303834.5,-111.7442,71.0017
