Frequency,Impedance,Phase Angle,Temperature (Dry Bath)
10.0,3267972.0,6.375951,67.36
21.5,2334258.0,2.521774,67.3667
46.4,2220199.0,-6.923958,67.3606
100.0,1594297.0,-39.06509,67.3729
215.4,1133159.0,-165.8201,67.3549
464.2,2190780.0,-54.67832,67.3643
1000.0,1148174.0,-68.70273,67.3628
2154.4,521960.9,-70.3913,67.3594
4641.6,256560.7,-81.65158,67.3506
10000.0,123917.2,-85.07101,67.362
