Frequency,Impedance,Phase Angle,Temperature (Dry Bath)
10.0,4943707.0,14.22407,70.6917
21.544346900318832,4758008.0,-5.173234,70.6983
46.41588833612777,5572116.0,-47.12413,70.6787
100.0,300998.4,-9.217204,70.6806
215.44346900318823,444306.0,-94.77451,70.69
464.15888336127773,4813810.0,-91.95439,70.6844
1000.0,1022003.0,-114.6082,70.6674
2154.4346900318824,231928.0,-89.84822,70.6786
4641.588833612777,139220.6,-107.7678,70.6826
10000.0,59593.18,-84.59275,70.6841
