Frequency,Impedance,Phase Angle,Temperature (Dry Bath)
10.0,24200810.0,-24.72462,67.2386
21.5,22190450.0,-37.10937,67.2357
46.4,17867590.0,-61.52637,67.2435
100.0,2623346.0,-63.50355,67.247
215.4,2608497.0,-76.64973,67.2386
464.2,3927897.0,-48.63057,67.2521
1000.0,941965.8,-74.10874,67.2401
2154.4,506767.8,-87.43701,67.2481
4641.6,256990.6,-85.6113,67.2474
10000.0,156266.5,-81.26641,67.249
