Frequency,Impedance,Phase Angle,Temperature (Dry Bath)
10.0,17759230.0,-9.19476,68.1612
21.5,18858480.0,-23.13592,68.1566
46.4,30498270.0,-51.84266,68.1683
100.0,5145346.0,-41.53092,68.1662
215.4,19824720.0,-35.59269,68.1594
464.2,2193290.0,-57.32959,68.1742
1000.0,1463893.0,-86.58897,68.1639
2154.4,705052.2,-87.60589,68.1773
4641.6,319220.3,-87.40722,68.1648
10000.0,148535.8,-94.54297,68.1669
