Frequency,Impedance,Phase Angle,Temperature (Dry Bath)
10.0,1527085.0,-15.91099,67.7271
21.5,1324299.0,-15.73457,67.7276
46.4,1181425.0,-13.77638,67.7126
100.0,982385.6,-16.76748,67.7341
215.4,1223457.0,-24.40806,67.7212
464.2,801718.3,-16.3154,67.741
1000.0,690024.7,-39.1384,67.7436
2154.4,465983.3,-58.57951,67.7235
4641.6,264375.3,-73.07694,67.7298
10000.0,134445.4,-84.95708,67.719
