Frequency,Impedance,Phase Angle,Temperature (Dry Bath)
10.0,58570.43,-32.93242,67.0392
21.5,45459.03,-28.98561,67.0381
46.4,37185.97,-25.28617,67.03
100.0,31190.75,-21.68044,67.0487
215.4,27195.45,-18.47356,67.0412
464.2,24143.35,-15.92628,67.0101
1000.0,21754.44,-13.64663,67.0222
2154.4,19923.68,-12.69707,67.0356
4641.6,18397.5,-12.93377,67.0357
10000.0,16885.81,-15.57575,67.0222
