Frequency,Impedance,Phase Angle,Temperature (Dry Bath)
10.0,5357582.0,-10.7728,71.5736
21.544346900318832,4248587.0,-1.999933,71.5735
46.41588833612777,4897418.0,-33.90328,71.5684
100.0,842393.5,44.69504,71.572
215.44346900318823,1536562.0,-37.2501,71.5824
464.15888336127773,867817.5,-56.13775,71.5779
1000.0,1149118.0,-133.274,71.5839
2154.4346900318824,586839.3,-11.06648,71.5721
4641.588833612777,412384.5,-56.3161,71.5717
10000.0,141234.2,-87.41409,71.589
