Frequency,Impedance,Phase Angle,Temperature (Dry Bath)
10.0,120170.5,-3.317393,67.3873
21.5,118662.8,-3.08096,67.3816
46.4,115738.0,-2.668103,67.3755
100.0,113006.2,-4.091198,67.381
215.4,112835.3,-5.465019,67.3814
464.2,111663.6,-6.194735,67.381
1000.0,108905.1,-8.199207,67.3748
2154.4,103912.6,-13.74401,67.3905
4641.6,91639.29,-24.33383,67.396
10000.0,74118.33,-38.6694,67.3714
