Frequency,Impedance,Phase Angle,Temperature (Dry Bath)
10.0,22163800.0,-22.19994,68.0848
21.5,20706990.0,-30.36516,68.0848
46.4,23638940.0,-42.04258,68.0848
100.0,10020780.0,-51.62934,68.0848
215.4,7024573.0,-64.65005,68.0848
464.2,2702511.0,-78.17094,68.0848
1000.0,1314630.0,-89.12471,68.0848
2154.4,738306.2,-88.70887,68.0848
4641.6,298669.3,-91.27616,68.0848
10000.0,161537.9,-96.59473,68.0848
