Frequency,Impedance,Phase Angle,Temperature (Dry Bath)
10.0,6110364.0,-21.6428,28.5368
21.544346900318832,5620180.0,2.725025,28.4891
46.41588833612777,5612582.0,-23.25747,28.4542
100.0,792649.3,30.30253,28.625
215.44346900318823,888608.8,-2.178723,28.7256
464.15888336127773,1410023.0,-14.98862,28.6284
1000.0,1071470.0,-33.89802,28.6747
2154.4346900318824,1078961.0,-103.1934,28.7572
4641.588833612777,233845.7,-99.6866,28.7592
10000.0,138668.3,-90.66421,28.7623
