Frequency,Impedance,Phase Angle,Temperature (Dry Bath)
10.0,37910290.0,-27.24013,67.7954
21.5,31166280.0,-22.2888,67.7792
46.4,37204220.0,-52.76684,67.7997
100.0,6146931.0,-38.53845,67.7788
215.4,19859600.0,-40.62533,67.7793
464.2,2823003.0,-90.35557,67.7824
1000.0,1311220.0,-86.2247,67.7794
2154.4,622872.6,-84.35802,67.7755
4641.6,328978.1,-88.64258,67.7715
10000.0,145653.8,-97.97852,67.762
