Frequency,Impedance,Phase Angle,Temperature (Dry Bath)
10.0,34327730.0,-15.79481,67.3317
21.5,23262470.0,-36.893,67.3486
46.4,18623570.0,-43.88385,67.3407
100.0,6324078.0,2.24637,67.342
215.4,1593180.0,114.1215,67.3382
464.2,2157720.0,-84.04395,67.3344
1000.0,1316796.0,-79.78334,67.3409
2154.4,546106.2,-86.70059,67.3288
4641.6,255729.4,-87.56975,67.3221
10000.0,131173.1,-86.0839,67.3339
