Frequency,Impedance,Phase Angle,Temperature (Dry Bath)
10.0,3697737.0,-2.640538,65.8728
21.544346900318832,7184198.0,-10.21974,65.8666
46.41588833612777,4952776.0,-17.57629,65.8672
100.0,981882.5,-26.84021,65.8652
215.44346900318823,414900.3,-80.11008,65.8532
464.15888336127773,666847.6,-53.19925,65.8459
1000.0,835257.0,65.85505,65.8635
2154.4346900318824,323601.9,-74.21832,65.8396
4641.588833612777,148466.1,-93.15289,65.8264
10000.0,70963.94,-94.46671,65.8403
