Frequency,Impedance,Phase Angle,Temperature (Dry Bath)
10.0,11330070.0,49.87441,72.2098
21.544346900318832,6001542.0,9.529867,72.2331
46.41588833612777,5279065.0,-6.015058,72.2012
100.0,319469.1,1.424873,72.2027
215.44346900318823,543084.6,-1.156901,72.185
464.15888336127773,365828.6,60.96986,72.1986
1000.0,745280.6,121.9543,72.1854
2154.4346900318824,463219.9,-36.20054,72.2003
4641.588833612777,221568.2,-28.66418,72.2037
10000.0,137499.3,-67.93259,72.2035
