Frequency,Impedance,Phase Angle,Temperature (Dry Bath)
10.0,2135827.0,-11.71081,67.9519
21.5,2079799.0,-10.50704,67.9519
46.4,2003096.0,-13.8252,67.9519
100.0,1849119.0,-16.36059,67.9519
215.4,1593536.0,-28.00452,67.9519
464.2,1260201.0,-31.33883,67.9519
1000.0,900351.4,-42.80403,67.9519
2154.4,595100.9,-60.62374,67.9519
4641.6,278294.0,-77.03752,67.9519
10000.0,159728.1,-87.60381,67.9519
