Frequency,Impedance,Phase Angle,Temperature (Dry Bath)
10.0,230787.6,-23.11513,67.1736
21.5,195027.2,-20.4777,67.1539
46.4,168534.9,-17.71323,67.1362
100.0,148786.3,-16.3268,67.1229
215.4,107436.5,-21.28645,67.1124
464.2,120827.8,-15.99015,67.1113
1000.0,111116.9,-16.31389,67.1213
2154.4,99954.31,-21.79344,67.1027
4641.6,81780.37,-30.06331,67.1366
10000.0,61547.94,-42.17836,67.1412
