Frequency,Impedance,Phase Angle,Temperature (Dry Bath)
10.0,50706050.0,-13.84234,67.9164
21.5,42827290.0,-24.21446,67.9162
46.4,18393950.0,-54.93849,67.8909
100.0,5348507.0,-34.89782,67.9019
215.4,8197960.0,-94.7517,67.8895
464.2,2358093.0,-91.28655,67.8994
1000.0,1178737.0,-87.59252,67.8863
2154.4,687161.5,-90.25716,67.8999
4641.6,300229.8,-92.11776,67.9002
10000.0,143089.2,-91.47901,67.9213
