Frequency,Impedance,Phase Angle,Temperature (Dry Bath)
10.0,87933.14,-16.37095,70.4
21.544346900318832,78732.83,-14.83935,70.4
46.41588833612777,69746.41,-13.69187,70.4
100.0,63455.31,-12.80847,70.4
215.44346900318823,56994.59,-11.01158,70.4
464.15888336127773,51809.58,-9.328163,70.4
1000.0,47946.21,-8.043655,70.4
2154.4346900318824,45906.08,-5.549132,70.4
4641.588833612777,44618.65,-4.861984,70.4
10000.0,43477.18,-5.1094,70.4
