Frequency,Impedance,Phase Angle,Temperature (Dry Bath)
10.0,707273.1,-11.34316,67.8194
21.5,665161.9,-10.90441,67.8094
46.4,629722.4,-10.79666,67.8046
100.0,555405.8,-10.72073,67.8014
215.4,556944.8,-15.17175,67.8168
464.2,471754.6,-19.93528,67.8059
1000.0,402721.3,-24.39629,67.7856
2154.4,317231.6,-41.82381,67.8065
4641.6,230455.0,-53.5711,67.8137
10000.0,129015.9,-72.32408,67.8093
