Frequency,Impedance,Phase Angle,Temperature (Dry Bath)
10.0,3865123.0,-10.1552,70.5973
21.544346900318832,5996038.0,-30.62085,70.6002
46.41588833612777,4601950.0,-22.32302,70.5819
100.0,437954.0,-62.98349,70.5898
215.44346900318823,3624896.0,-172.4029,70.6073
464.15888336127773,440030.2,-86.72956,70.5896
1000.0,436847.7,-79.44896,70.6128
2154.4346900318824,324431.3,-85.49838,70.594
4641.588833612777,139364.7,-77.51731,70.6103
10000.0,57607.61,-89.60198,70.6168
