Frequency,Impedance,Phase Angle,Temperature (Dry Bath)
10.0,35448760.0,4.930331,67.8745
21.5,34524530.0,-33.20811,67.9037
46.4,34051000.0,-38.51881,67.8808
100.0,9714206.0,-12.0894,67.9025
215.4,5027002.0,-92.78917,67.8904
464.2,3911060.0,-102.8524,67.8757
1000.0,1249604.0,-88.24645,67.8725
2154.4,591445.6,-88.40138,67.8799
4641.6,306250.7,-96.65117,67.9036
10000.0,146867.3,-95.05574,67.888
