Frequency,Impedance,Phase Angle,Temperature (Dry Bath)
10.0,115775.3,-3.225985,67.2877
21.5,113414.3,-2.574936,67.3113
46.4,111317.1,-2.346982,67.2877
100.0,111418.8,-2.920512,67.313
215.4,77895.47,-33.76198,67.3127
464.2,105303.6,-5.793709,67.2949
1000.0,102867.8,-9.010416,67.2904
2154.4,98420.65,-14.05373,67.3113
4641.6,88813.01,-24.25863,67.2999
10000.0,70870.86,-41.90158,67.2936
