Frequency,Impedance,Phase Angle,Temperature (Dry Bath)
10.0,217914.9,-23.22975,67.2729
21.5,183544.0,-20.46015,67.2726
46.4,158630.8,-18.00315,67.2811
100.0,139575.1,-14.22299,67.2799
215.4,83557.42,-0.2535638,67.2774
464.2,117213.2,-14.92625,67.2873
1000.0,105872.2,-15.82673,67.2746
2154.4,95199.88,-21.1721,67.2825
4641.6,80185.28,-29.82518,67.2763
10000.0,59770.04,-41.19604,67.288
