Frequency,Impedance,Phase Angle,Temperature (Dry Bath)
10.0,1600324.0,-20.24971,67.4827
21.5,1400274.0,-17.51845,67.5169
46.4,1242649.0,-15.80572,67.4998
100.0,1062540.0,-5.190295,67.5159
215.4,200522.1,34.70794,67.5015
464.2,937124.3,-25.93759,67.5151
1000.0,698021.7,-39.79585,67.4858
2154.4,441347.5,-60.3166,67.4945
4641.6,241237.8,-69.02504,67.4978
10000.0,128575.4,-78.14318,67.4935
