Frequency,Impedance,Phase Angle,Temperature (Dry Bath)
10.0,134539.8,-3.73897,67.3658
21.5,132171.1,-3.553134,67.367
46.4,128698.9,-3.268086,67.3606
100.0,127299.1,-3.295742,67.362
215.4,124560.8,-3.769806,67.3696
464.2,119875.8,-6.741792,67.3583
1000.0,116459.1,-9.371705,67.3608
2154.4,109024.2,-16.83088,67.3684
4641.6,97195.8,-28.16569,67.3535
10000.0,73742.28,-43.0903,67.3691
