Frequency,Impedance,Phase Angle,Temperature (Dry Bath)
10.0,29222250.0,-25.86494,68.1867
21.5,21227440.0,-37.53156,68.1871
46.4,28237780.0,-53.47564,68.1893
100.0,7248602.0,-36.72917,68.199
215.4,4214181.0,-59.22826,68.1766
464.2,2565561.0,-83.91789,68.1846
1000.0,1222039.0,-85.9076,68.1707
2154.4,575856.8,-85.62388,68.1672
4641.6,280555.9,-91.46552,68.1815
10000.0,130123.2,-96.20584,68.1785
