Frequency,Impedance,Phase Angle,Temperature (Dry Bath)
10.0,8382121.0,-13.20387,71.3684
21.544346900318832,6541998.0,16.39943,71.358
46.41588833612777,7550618.0,22.14082,71.3556
100.0,375860.8,-30.9511,71.3691
215.44346900318823,28825.24,-177.6633,71.3619
464.15888336127773,511539.9,-73.7972,71.3567
1000.0,382600.0,-83.68039,71.3597
2154.4346900318824,231107.7,-91.55282,71.3637
4641.588833612777,104584.9,-84.13652,71.3587
10000.0,63888.77,-91.90788,71.3484
