Frequency,Impedance,Phase Angle,Temperature (Dry Bath)
10.0,283981.4,-19.22496,71.4534
21.544346900318832,242073.4,-20.49334,71.4347
46.41588833612777,205382.3,-21.32814,71.4528
100.0,191688.3,-45.55751,71.4284
215.44346900318823,124139.8,-35.84475,71.4304
464.15888336127773,180084.5,-16.48072,71.4486
1000.0,99369.07,-4.503756,71.4384
2154.4346900318824,78821.14,-1.466118,71.4263
4641.588833612777,82214.07,-15.56764,71.4194
10000.0,71240.11,-31.94087,71.4377
