Frequency,Impedance,Phase Angle,Temperature (Dry Bath)
10.0,172120.2,-11.95029,65.8236
21.544346900318832,157996.8,-10.14014,65.8371
46.41588833612777,143581.3,-10.74991,65.8346
100.0,125824.7,0.7712812,65.8389
215.44346900318823,112084.7,-18.62115,65.8125
464.15888336127773,110237.3,-10.82126,65.8322
1000.0,104462.3,-23.83873,65.8119
2154.4346900318824,98812.84,-17.28566,65.8327
4641.588833612777,74649.63,-39.0082,65.8266
10000.0,53813.43,-51.37276,65.8251
