Frequency,Impedance,Phase Angle,Temperature (Dry Bath)
10.0,25276540.0,-22.48511,67.4246
21.5,22819620.0,-48.88209,67.4533
46.4,17475850.0,-50.16942,67.4445
100.0,7212817.0,2.122738,67.4236
215.4,2032006.0,-100.2488,67.4359
464.2,1843450.0,-74.66473,67.4388
1000.0,1067926.0,-84.08701,67.4247
2154.4,480910.2,-85.15352,67.4333
4641.6,265390.7,-81.13624,67.4463
10000.0,122959.2,-84.81655,67.4389
