Frequency,Impedance,Phase Angle,Temperature (Dry Bath)
10.0,4518070.0,-6.011895,71.3126
21.544346900318832,5668590.0,-47.21449,71.3019
46.41588833612777,4244010.0,-14.94853,71.2964
100.0,261677.6,-84.75414,71.3032
215.44346900318823,41085.89,130.2874,71.3056
464.15888336127773,900135.5,-106.6043,71.3001
1000.0,783056.9,-9.841412,71.2975
2154.4346900318824,201964.3,-84.11169,71.2981
4641.588833612777,128044.7,-88.07297,71.3056
10000.0,67012.6,-105.3226,71.2964
