Frequency,Impedance,Phase Angle,Temperature (Dry Bath)
10.0,6060967.0,-11.56324,67.8664
21.5,7850154.0,-12.17088,67.8599
46.4,9999407.0,-22.32576,67.8468
100.0,4410992.0,-24.7407,67.8682
215.4,3247270.0,-74.1086,67.8703
464.2,2290309.0,-55.37938,67.8512
1000.0,1208546.0,-78.88463,67.8662
2154.4,575227.3,-79.96227,67.8682
4641.6,293638.5,-87.25999,67.8738
10000.0,130088.2,-91.54912,67.859
