Frequency,Impedance,Phase Angle,Temperature (Dry Bath)
10.0,28782180.0,-10.66033,67.7948
21.5,16741030.0,-33.42116,67.7843
46.4,11248660.0,-53.99543,67.786
100.0,10298840.0,-54.6928,67.7991
215.4,4492375.0,-64.74438,67.7955
464.2,1953333.0,-83.888,67.8028
1000.0,1080937.0,-76.1312,67.7851
2154.4,496502.3,-82.04532,67.7889
4641.6,254982.6,-81.90444,67.7636
10000.0,134110.4,-87.33065,67.8036
