Frequency,Impedance,Phase Angle,Temperature (Dry Bath)
10.0,17769000.0,-15.03641,68.2492
21.5,23889950.0,-36.64685,68.2737
46.4,22765330.0,-49.5617,68.2483
100.0,6129956.0,-33.81474,68.2617
215.4,3319271.0,-50.81236,68.268
464.2,2136991.0,-85.96953,68.255
1000.0,1274886.0,-83.47526,68.2537
2154.4,568946.3,-89.41806,68.2588
4641.6,292620.6,-95.6306,68.2471
10000.0,138436.3,-99.23779,68.2587
