Frequency,Impedance,Phase Angle,Temperature (Dry Bath)
10.0,19205750.0,-37.54064,68.003
21.5,17886480.0,-19.87285,68.0025
46.4,20934380.0,-49.4109,67.9854
100.0,10629260.0,-94.47465,68.0103
215.4,3597505.0,-55.27775,67.9925
464.2,2347671.0,-90.74411,68.0024
1000.0,1635964.0,-83.24271,68.0181
2154.4,620657.0,-93.65453,67.996
4641.6,279681.5,-89.48629,68.0041
10000.0,137388.0,-95.50234,67.9925
