Frequency,Impedance,Phase Angle,Temperature (Dry Bath)
10.0,31213880.0,-37.29383,67.3314
21.5,25095320.0,-27.39093,67.318
46.4,17435300.0,-50.02086,67.3359
100.0,78990110.0,38.94143,67.3358
215.4,2434835.0,-59.53493,67.339
464.2,2186443.0,-102.4758,67.3318
1000.0,1182713.0,-78.13301,67.3396
2154.4,530690.5,-84.48819,67.3332
4641.6,261607.2,-86.72112,67.3243
10000.0,125878.7,-83.62487,67.3263
