Frequency,Impedance,Phase Angle,Temperature (Dry Bath)
10.0,50392.74,-34.57971,67.0824
21.5,38406.21,-30.5679,67.0845
46.4,30854.3,-26.76921,67.0801
100.0,25724.41,-23.19416,67.0839
215.4,22127.79,-19.69169,67.0904
464.2,19646.35,-16.35019,67.0793
1000.0,17542.79,-14.1786,67.0726
2154.4,16103.11,-12.92766,67.0782
4641.6,14761.26,-12.80831,67.0702
10000.0,13617.63,-14.29555,67.078
