Frequency,Impedance,Phase Angle,Temperature (Dry Bath)
10.0,120148.2,-16.65358,68.0757
21.5,107147.4,-14.44782,68.0622
46.4,97147.71,-12.80707,68.0829
100.0,86830.71,-11.62732,68.0791
215.4,84079.77,-14.53854,68.0818
464.2,77970.8,-9.546679,68.0746
1000.0,71388.36,-11.28004,68.0936
2154.4,65723.31,-15.3805,68.0937
4641.6,58561.4,-22.01495,68.0626
10000.0,51402.15,-35.05756,68.0854
