Frequency,Impedance,Phase Angle,Temperature (Dry Bath)
10.0,27073.46,-18.63664,71.5447
21.544346900318832,23480.41,-17.52179,71.5407
46.41588833612777,20418.63,-16.99409,71.5387
100.0,17461.68,-15.24205,71.5359
215.44346900318823,15556.26,-15.34213,71.5359
464.15888336127773,14020.83,-13.7467,71.5239
1000.0,12290.2,-12.94301,71.5391
2154.4346900318824,11481.79,-11.37776,71.5294
4641.588833612777,10335.24,-11.01841,71.5398
10000.0,9671.613,-12.08361,71.5344
