Frequency,Impedance,Phase Angle,Temperature (Dry Bath)
10.0,5873222.0,-30.69794,71.1072
21.544346900318832,3984659.0,-24.32733,71.0965
46.41588833612777,5874593.0,-31.99688,71.1024
100.0,344406.7,-95.29977,71.1052
215.44346900318823,519693.5,-12.60275,71.1021
464.15888336127773,309826.5,48.08924,71.0996
1000.0,417605.6,8.18255,71.1033
2154.4346900318824,482942.9,-91.35985,71.1066
4641.588833612777,326382.8,-112.628,71.1073
10000.0,127488.4,-85.56024,71.1179
