Frequency,Impedance,Phase Angle,Temperature (Dry Bath)
10.0,9925314.0,-10.00316,70.4941
21.544346900318832,5669103.0,-17.93324,70.4878
46.41588833612777,4583300.0,-12.94595,70.5022
100.0,392163.2,37.66239,70.5021
215.44346900318823,812904.2,-11.50916,70.4824
464.15888336127773,1324769.0,-108.0387,70.4926
1000.0,447707.5,-129.1036,70.5001
2154.4346900318824,166030.8,-52.85353,70.4919
4641.588833612777,142348.9,-98.63108,70.4878
10000.0,71813.88,-82.45134,70.4957
