Frequency,Impedance,Phase Angle,Temperature (Dry Bath)
10.0,54329.17,-33.60704,67.1592
21.5,42023.08,-29.71317,67.1558
46.4,34009.12,-26.0192,67.1407
100.0,28585.06,-22.18907,67.1807
215.4,24902.38,-1.065657,67.1663
464.2,21854.41,-16.09797,67.158
1000.0,19517.54,-13.98005,67.1445
2154.4,17887.92,-12.9375,67.1267
4641.6,16436.18,-12.78228,67.1644
10000.0,15131.72,-15.07286,67.1545
