Frequency,Impedance,Phase Angle,Temperature (Dry Bath)
10.0,4994420.0,14.01384,71.4813
21.544346900318832,4461030.0,-23.95567,71.476
46.41588833612777,5645340.0,-6.955853,71.4993
100.0,301514.3,-34.34983,71.4847
215.44346900318823,456246.4,-21.70826,71.4919
464.15888336127773,414131.2,-30.41361,71.496
1000.0,1245790.0,172.9047,71.4958
2154.4346900318824,226725.5,-79.70872,71.5253
4641.588833612777,112107.1,-73.32394,71.5001
10000.0,71658.63,-88.72691,71.5014
