Frequency,Impedance,Phase Angle,Temperature (Dry Bath)
10.0,146897.8,-20.89817,67.9146
21.5,128298.9,-17.7106,67.8823
46.4,113573.3,-15.21204,67.8952
100.0,99747.47,-11.93698,67.8907
215.4,91932.31,-12.16075,67.8739
464.2,84997.22,-12.00025,67.8711
1000.0,79625.31,-13.76901,67.8765
2154.4,72938.22,-16.40119,67.8747
4641.6,65398.37,-25.19745,67.8936
10000.0,55747.28,-35.53152,67.8807
