Frequency,Impedance,Phase Angle,Temperature (Dry Bath)
10.0,36573960.0,-27.48574,67.3156
21.5,20245560.0,-30.24099,67.3228
46.4,16138860.0,-53.6132,67.3116
100.0,4913647.0,-152.0602,67.3115
215.4,6048841.0,-53.45173,67.3165
464.2,2241213.0,-81.9916,67.3186
1000.0,1111415.0,-85.4875,67.2918
2154.4,537726.3,-81.99624,67.3169
4641.6,249929.1,-83.58356,67.3229
10000.0,119907.1,-83.37079,67.313
