Frequency,Impedance,Phase Angle,Temperature (Dry Bath)
10.0,24248490.0,-13.01726,67.1336
21.5,24281080.0,-33.94911,67.1333
46.4,14710010.0,-62.4831,67.1347
100.0,15752740.0,-95.13446,67.1409
215.4,208872.9,-177.3702,67.1148
464.2,1295285.0,-79.24882,67.1461
1000.0,771948.9,-78.78581,67.1265
2154.4,427612.8,-86.63489,67.1434
4641.6,196393.8,-83.09315,67.1421
10000.0,98698.94,-80.23059,67.1422
