Frequency,Impedance,Phase Angle,Temperature (Dry Bath)
10.0,27766010.0,4.891599,68.0261
21.5,36548100.0,-32.68593,68.035
46.4,34261140.0,-48.97294,68.0321
100.0,19333160.0,-49.97805,68.0174
215.4,6262942.0,-94.88793,68.0242
464.2,3255572.0,-103.7762,68.0199
1000.0,1614901.0,-78.32168,68.0267
2154.4,698188.6,-93.02121,68.052
4641.6,323813.6,-88.80742,68.0344
10000.0,145955.5,-93.74196,68.0414
