Frequency,Impedance,Phase Angle,Temperature (Dry Bath)
10.0,22722650.0,-17.26498,67.9947
21.5,26423730.0,-22.32791,67.9958
46.4,33725110.0,-41.52963,67.9803
100.0,8375179.0,-35.1342,67.9938
215.4,11024510.0,-36.60953,67.9902
464.2,2860779.0,-76.86578,68.0014
1000.0,1366622.0,-80.62959,67.9919
2154.4,647494.9,-88.08161,67.9897
4641.6,319969.7,-92.15535,67.9859
10000.0,155866.1,-95.15897,67.9799
