Frequency,Impedance,Phase Angle,Temperature (Dry Bath)
10.0,50660880.0,-17.26149,67.3963
21.5,23985820.0,-38.44319,67.3897
46.4,14520510.0,-60.50574,67.4114
100.0,3531028.0,-66.71389,67.4088
215.4,3694932.0,25.74022,67.3945
464.2,2379475.0,-87.43765,67.3948
1000.0,906540.3,-80.65373,67.3992
2154.4,429641.7,-83.74326,67.4237
4641.6,218868.3,-83.8895,67.3943
10000.0,108875.8,-80.16174,67.4054
