Frequency,Impedance,Phase Angle,Temperature (Dry Bath)
10.0,670874.1,-4.269269,71.5051
21.544346900318832,655206.1,-3.326659,71.4812
46.41588833612777,596612.5,-4.088119,71.5139
100.0,332922.9,-55.28605,71.5045
215.44346900318823,592054.9,-46.2563,71.4867
464.15888336127773,545887.9,-12.49773,71.4872
1000.0,357809.2,-30.4318,71.4884
2154.4346900318824,309288.3,-59.39445,71.506
4641.588833612777,163588.5,-63.26584,71.5216
10000.0,96507.84,-71.87931,71.5176
