Frequency,Impedance,Phase Angle,Temperature (Dry Bath)
10.0,27494780.0,-25.62685,67.3685
21.5,47863580.0,-50.35229,67.357
46.4,18622770.0,-42.98271,67.3855
100.0,7977656.0,136.7741,67.3552
215.4,5913941.0,-114.9251,67.3756
464.2,1956473.0,-87.72029,67.3666
1000.0,1123889.0,-91.29029,67.3648
2154.4,529019.7,-86.64966,67.3584
4641.6,271261.2,-87.15301,67.3548
10000.0,131249.1,-85.94811,67.3584
