Frequency,Impedance,Phase Angle,Temperature (Dry Bath)
10.0,42905.42,-14.58672,70.6472
21.544346900318832,38807.87,-12.33976,70.6586
46.41588833612777,35599.35,-11.32364,70.6549
100.0,31098.83,-7.661382,70.6466
215.44346900318823,29249.82,-12.30629,70.6474
464.15888336127773,28917.27,-11.86158,70.6422
1000.0,24512.72,-8.735408,70.6542
2154.4346900318824,24835.71,-14.57803,70.6396
4641.588833612777,22470.36,-16.65928,70.6378
10000.0,19594.39,-23.9501,70.6536
