Frequency,Impedance,Phase Angle,Temperature (Dry Bath)
10.0,112953.0,-3.239952,67.0809
21.5,110837.0,-2.551654,67.0841
46.4,109050.3,-2.5016,67.0762
100.0,108332.8,-2.420288,67.0886
215.4,107262.5,-1.621748,67.0843
464.2,104169.9,-5.574433,67.0761
1000.0,101745.3,-8.274435,67.0592
2154.4,96970.02,-14.21181,67.0844
4641.6,85204.97,-24.32858,67.0741
10000.0,68518.04,-40.39805,67.0868
