Frequency,Impedance,Phase Angle,Temperature (Dry Bath)
10.0,1517641.0,-18.70822,67.2435
21.5,1360371.0,-15.86775,67.2688
46.4,1240781.0,-16.9702,67.2543
100.0,1050053.0,-5.813843,67.2523
215.4,195277.5,68.25243,67.2514
464.2,895238.8,-30.96818,67.2577
1000.0,703304.5,-39.82303,67.2637
2154.4,426753.8,-62.88838,67.2645
4641.6,223962.5,-72.48941,67.2866
10000.0,110183.3,-79.14589,67.2816
