Frequency,Impedance,Phase Angle,Temperature (Dry Bath)
10.0,25344.96,-14.00537,70.5402
21.544346900318832,23160.35,-10.95378,70.5442
46.41588833612777,21455.4,-9.186301,70.5398
100.0,19672.7,-12.46536,70.5404
215.44346900318823,19171.19,-8.908107,70.5539
464.15888336127773,17606.02,-6.152375,70.5403
1000.0,16734.48,-5.612939,70.54
2154.4346900318824,16044.0,-8.481328,70.5329
4641.588833612777,15458.36,-12.39656,70.5403
10000.0,14937.07,-19.53745,70.5504
