Frequency,Impedance,Phase Angle,Temperature (Dry Bath)
10.0,3313977.0,3.6816,67.1
21.544346900318832,3951270.0,4.350266,67.1
46.41588833612777,7256342.0,7.956769,67.1
100.0,3275735.0,-154.3224,67.1
215.44346900318823,2609178.0,50.25319,67.1
464.15888336127773,1084071.0,-48.07336,67.1
1000.0,1892222.0,3.519787,67.1
2154.4346900318824,1844755.0,8.086622,67.1
4641.588833612777,14968350.0,173.1219,67.1
10000.0,694998.5,-99.35872,67.1
