Frequency,Impedance,Phase Angle,Temperature (Dry Bath)
10.0,28671630.0,-6.951435,68.1754
21.5,17071840.0,-16.39688,68.1508
46.4,14790290.0,-43.38689,68.1759
100.0,8781493.0,-96.41085,68.1645
215.4,4857279.0,-76.15976,68.1553
464.2,3227307.0,-67.99184,68.1508
1000.0,1621502.0,-84.87756,68.1584
2154.4,618902.0,-87.5555,68.1585
4641.6,313212.5,-92.92539,68.1527
10000.0,141569.7,-95.24495,68.167
