Frequency,Impedance,Phase Angle,Temperature (Dry Bath)
10.0,3504207.0,-6.549292,70.6405
21.544346900318832,3460269.0,-25.88125,70.6354
46.41588833612777,5443974.0,-9.055107,70.6639
100.0,397558.3,-65.88022,70.6576
215.44346900318823,1056318.0,-141.3314,70.6423
464.15888336127773,569727.5,-90.91271,70.6552
1000.0,362780.7,-82.65958,70.6458
2154.4346900318824,312693.0,-73.96307,70.6571
4641.588833612777,120993.8,-94.24318,70.652
10000.0,60749.32,-90.78051,70.6556
