Frequency,Impedance,Phase Angle,Temperature (Dry Bath)
10.0,31613840.0,-3.561775,67.248
21.5,25587870.0,-34.49274,67.2307
46.4,22051880.0,-39.50833,67.2312
100.0,5898797.0,-57.59972,67.2286
215.4,719355.8,22.19131,67.2271
464.2,1687542.0,-89.81515,67.225
1000.0,1238466.0,-87.06609,67.2354
2154.4,550860.5,-90.3453,67.2485
4641.6,252056.7,-87.47566,67.2496
10000.0,125660.6,-87.54185,67.2461
