Frequency,Impedance,Phase Angle,Temperature (Dry Bath)
10.0,4001415.0,-18.64186,17.6102
21.5,4826968.0,-19.34245,17.6105
46.4,4640217.0,-26.38345,17.6041
100.0,2928860.0,-30.10192,17.6033
215.4,2266151.0,-39.17134,17.6091
464.2,1443079.0,-51.90281,17.6032
1000.0,904537.0,-65.45148,17.6135
2154.4,570415.3,-71.98358,17.6308
4641.6,257269.7,-84.86359,17.5876
10000.0,135693.3,-87.84439,17.6061
