Frequency,Impedance,Phase Angle,Temperature (Dry Bath)
10.0,216382.1,-23.15368,67.3725
21.5,182318.3,-20.35487,67.3577
46.4,157639.0,-17.75583,67.3699
100.0,143711.4,-13.77221,67.3908
215.4,110658.2,-37.7133,67.3685
464.2,114424.2,-14.67834,67.3858
1000.0,106968.7,-16.1019,67.3774
2154.4,94625.25,-21.0712,67.3622
4641.6,79288.48,-28.77781,67.3718
10000.0,62490.59,-40.52251,67.3731
