Frequency,Impedance,Phase Angle,Temperature (Dry Bath)
10.0,3866219.0,10.71473,71.2245
21.544346900318832,3716455.0,-24.79437,71.2189
46.41588833612777,2400147.0,-32.95064,71.2199
100.0,270929.2,-65.55939,71.2189
215.44346900318823,1038511.0,-100.9567,71.2207
464.15888336127773,1504535.0,-138.8572,71.2297
1000.0,639418.3,-37.63609,71.2124
2154.4346900318824,240988.6,-92.67292,71.2125
4641.588833612777,141439.7,-82.07858,71.2246
10000.0,67404.46,-82.64501,71.2196
