Frequency,Impedance,Phase Angle,Temperature (Dry Bath)
10.0,26112930.0,-14.8069,68.0658
21.5,22182760.0,-15.51551,68.0658
46.4,24219000.0,-42.80031,68.0658
100.0,9901226.0,-18.32688,68.0658
215.4,3700257.0,-70.694,68.0658
464.2,4626965.0,-84.7006,68.0658
1000.0,1551230.0,-90.85461,68.0658
2154.4,654483.9,-91.14549,68.0658
4641.6,348549.5,-91.65229,68.0658
10000.0,164147.7,-96.12491,68.0658
