Frequency,Impedance,Phase Angle,Temperature (Dry Bath)
10.0,28659870.0,-22.95772,66.9808
21.5,21837350.0,-32.90583,66.9765
46.4,13993650.0,-68.59439,66.9773
100.0,5639369.0,-46.2158,66.977
215.4,1722766.0,-94.3926,66.9909
464.2,1691150.0,-66.10221,66.9717
1000.0,838622.5,-81.29682,66.978
2154.4,418955.8,-82.96746,66.9671
4641.6,194794.7,-81.5903,66.978
10000.0,101063.3,-79.96651,66.9714
