Frequency,Impedance,Phase Angle,Temperature (Dry Bath)
10.0,22046070.0,-6.934311,67.7711
21.5,17509700.0,-32.82239,67.8081
46.4,17879580.0,-46.29507,67.7867
100.0,6098874.0,-51.53421,67.7976
215.4,5291678.0,-63.31574,67.8014
464.2,3434145.0,-86.41111,67.7964
1000.0,1293923.0,-87.46117,67.7933
2154.4,684048.4,-92.8159,67.7889
4641.6,292321.9,-95.1177,67.799
10000.0,139798.4,-95.9848,67.8049
