Frequency,Impedance,Phase Angle,Temperature (Dry Bath)
10.0,150872.0,-11.38296,71.2463
21.544346900318832,139785.6,-10.0363,71.2532
46.41588833612777,131058.3,-9.229554,71.2327
100.0,145940.4,-10.50728,71.2695
215.44346900318823,113516.0,-7.017576,71.242
464.15888336127773,98667.94,-16.16869,71.2512
1000.0,96915.86,-31.02159,71.2387
2154.4346900318824,94842.54,-36.72594,71.2533
4641.588833612777,75148.3,-43.23114,71.2285
10000.0,37942.62,-61.03329,71.2562
