Frequency,Impedance,Phase Angle,Temperature (Dry Bath)
10.0,11455.4,-5.048145,67.3919
21.5,11204.61,-4.173009,67.3839
46.4,11046.41,-3.987306,67.3928
100.0,10877.7,-3.600678,67.3992
215.4,10171.83,-4.895287,67.4013
464.2,10599.92,-4.128568,67.395
1000.0,10304.88,-4.081309,67.3866
2154.4,10052.84,-4.414375,67.3912
4641.6,9846.912,-5.736789,67.3734
10000.0,9542.309,-8.871845,67.389
