Frequency,Impedance,Phase Angle,Temperature (Dry Bath)
10.0,12529.86,-26.33136,71.203
21.544346900318832,10144.12,-23.74807,71.2152
46.41588833612777,8407.916,-21.04115,71.1959
100.0,7295.491,-18.2171,71.1982
215.44346900318823,6290.872,-15.78271,71.2206
464.15888336127773,5491.58,-14.65261,71.1884
1000.0,4920.488,-12.57553,71.2074
2154.4346900318824,4455.176,-11.63048,71.2086
4641.588833612777,4088.695,-11.37064,71.2004
10000.0,3755.042,-12.03869,71.1968
