Frequency,Impedance,Phase Angle,Temperature (Dry Bath)
10.0,22704860.0,-7.499764,68.1514
21.5,14375660.0,-38.99815,68.1675
46.4,21686930.0,-62.12636,68.1591
100.0,5526796.0,-27.60985,68.1459
215.4,5118165.0,-76.1891,68.1353
464.2,1947229.0,-67.30235,68.1559
1000.0,996281.0,-76.58581,68.1458
2154.4,528491.8,-81.31723,68.135
4641.6,259408.3,-87.23508,68.1424
10000.0,124745.0,-92.12994,68.1505
