Frequency,Impedance,Phase Angle,Temperature (Dry Bath)
10.0,22263890.0,-23.8919,68.1337
21.5,17915350.0,-37.43151,68.1199
46.4,23720320.0,-55.3306,68.1313
100.0,9678279.0,-6.780694,68.1482
215.4,5320585.0,-72.98396,68.124
464.2,2174341.0,-76.4059,68.1223
1000.0,986314.6,-87.34361,68.1182
2154.4,480435.7,-93.39541,68.1309
4641.6,232676.8,-90.32545,68.1235
10000.0,114501.0,-94.65176,68.1365
