Frequency,Impedance,Phase Angle,Temperature (Dry Bath)
10.0,1210867.0,-10.59507,67.9821
21.5,1093361.0,-11.41454,67.9728
46.4,1064197.0,-12.34448,67.9797
100.0,847530.7,-16.31494,67.9664
215.4,897240.2,-20.01,67.9691
464.2,733580.0,-28.55398,67.9575
1000.0,546508.4,-36.73477,67.9488
2154.4,380190.2,-45.13009,67.9599
4641.6,235008.5,-64.86521,67.9654
10000.0,151768.5,-80.65951,67.9625
