Frequency,Impedance,Phase Angle,Temperature (Dry Bath)
10.0,26444.57,-21.5603,71.1283
21.544346900318832,21901.59,-22.83018,71.1421
46.41588833612777,17831.61,-24.17517,71.1536
100.0,14882.01,-24.47145,71.1446
215.44346900318823,11135.74,-27.61479,71.1495
464.15888336127773,9078.548,-26.46411,71.1609
1000.0,7326.495,-26.58883,71.1612
2154.4346900318824,5796.5,-25.16017,71.1546
4641.588833612777,4693.319,-24.03261,71.1507
10000.0,3885.077,-20.11898,71.1711
