Frequency,Impedance,Phase Angle,Temperature (Dry Bath)
10.0,12191.06,-4.82217,67.0343
21.5,11921.9,-4.228292,67.0231
46.4,11704.38,-3.888062,67.0382
100.0,11595.14,-4.146605,67.0321
215.4,11566.41,-0.7781548,67.0353
464.2,11221.96,-4.188582,67.0206
1000.0,10926.18,-4.414015,67.049
2154.4,10697.37,-4.947816,67.0464
4641.6,10400.48,-6.229163,67.0605
10000.0,10119.38,-9.632831,67.0452
