Frequency,Impedance,Phase Angle,Temperature (Dry Bath)
10.0,598877.0,-11.58444,68.1921
21.5,543305.0,-11.00764,68.1876
46.4,498495.5,-11.35891,68.203
100.0,443024.6,-14.16237,68.1975
215.4,404989.2,-18.40298,68.1875
464.2,350608.8,-23.52341,68.2068
1000.0,296019.2,-28.84107,68.1782
2154.4,218663.0,-37.14188,68.1811
4641.6,159971.2,-50.77954,68.1828
10000.0,103851.9,-63.72994,68.1857
