Frequency,Impedance,Phase Angle,Temperature (Dry Bath)
10.0,5358259.0,-4.795166,71.4283
21.544346900318832,3970158.0,-30.90485,71.4017
46.41588833612777,4011334.0,-4.601345,71.4223
100.0,875945.4,-120.5513,71.417
215.44346900318823,536140.7,-3.046118,71.3999
464.15888336127773,421805.1,-83.59433,71.4084
1000.0,512152.7,-108.3554,71.4056
2154.4346900318824,274152.0,-35.78918,71.4007
4641.588833612777,267834.2,-74.891,71.4152
10000.0,117602.2,-96.69632,71.4071
