Frequency,Impedance,Phase Angle,Temperature (Dry Bath)
10.0,20828710.0,-22.90019,68.2657
21.5,14799350.0,-27.31234,68.251
46.4,23609090.0,-51.39024,68.2674
100.0,4099680.0,-35.02978,68.2523
215.4,3926191.0,-65.91644,68.2567
464.2,2109584.0,-66.19663,68.2675
1000.0,1043868.0,-79.07188,68.2527
2154.4,531877.1,-82.00461,68.2563
4641.6,296932.3,-82.06387,68.2678
10000.0,140942.9,-87.87213,68.2645
