Frequency,Impedance,Phase Angle,Temperature (Dry Bath)
10.0,159439.6,-8.819544,65.6934
21.544346900318832,148949.0,-8.260321,65.6999
46.41588833612777,140233.6,-7.796683,65.7031
100.0,122573.7,-5.343978,65.6977
215.44346900318823,140511.5,-4.26477,65.7111
464.15888336127773,117520.1,-9.91865,65.6947
1000.0,124353.2,-29.78564,65.723
2154.4346900318824,93221.58,-21.80362,65.6895
4641.588833612777,72098.49,-43.79852,65.7057
10000.0,42686.48,-61.15836,65.6995
