Frequency,Impedance,Phase Angle,Temperature (Dry Bath)
10.0,22731150.0,-7.66772,67.3843
21.5,26759250.0,-49.89722,67.3835
46.4,16070180.0,-35.31444,67.3986
100.0,3571689.0,-59.87452,67.3895
215.4,3344550.0,-155.2422,67.402
464.2,1882233.0,-75.34222,67.3939
1000.0,927025.0,-80.76412,67.3952
2154.4,472424.2,-80.19321,67.3885
4641.6,239028.3,-80.60485,67.396
10000.0,117563.7,-81.45048,67.3875
