Frequency,Impedance,Phase Angle,Temperature (Dry Bath)
10.0,2515924.0,-14.43182,67.3
21.544346900318832,2870076.0,11.34405,67.3
46.41588833612777,4357887.0,7.735769,67.3
100.0,1922633.0,-15.21444,67.3
215.44346900318823,2599108.0,11.92492,67.3
464.15888336127773,3404644.0,-14.57443,67.3
1000.0,1761237.0,-128.6729,67.3
2154.4346900318824,2265829.0,11.59036,67.3
4641.588833612777,1311863.0,-72.30422,67.3
10000.0,1530542.0,-66.4886,67.3
