Frequency,Impedance,Phase Angle,Temperature (Dry Bath)
10.0,1111281.0,-10.87777,67.9015
21.5,1037172.0,-11.11174,67.8911
46.4,968326.5,-12.69749,67.8963
100.0,857497.6,-15.64965,67.9044
215.4,807925.6,-12.84446,67.888
464.2,699790.1,-29.59879,67.896
1000.0,534524.3,-36.5244,67.9043
2154.4,371417.7,-48.96302,67.8909
4641.6,261507.5,-60.34719,67.8884
10000.0,153691.6,-75.69337,67.9096
