Frequency,Impedance,Phase Angle,Temperature (Dry Bath)
10.0,14054.7,-19.7327,70.9558
21.544346900318832,12073.71,-16.95039,70.9428
46.41588833612777,10614.98,-14.94484,70.9649
100.0,9619.644,-13.84587,70.9504
215.44346900318823,8626.34,-12.13184,70.966
464.15888336127773,7905.705,-10.70701,70.9674
1000.0,7209.034,-7.629143,70.9518
2154.4346900318824,6733.455,-9.336689,70.9636
4641.588833612777,6338.543,-10.05514,70.9464
10000.0,5976.985,-13.35888,70.9692
