Frequency,Impedance,Phase Angle,Temperature (Dry Bath)
10.0,12584.75,-26.79137,71.3266
21.544346900318832,10159.0,-24.08839,71.3217
46.41588833612777,8400.622,-21.27561,71.3019
100.0,7029.629,-18.39752,71.3235
215.44346900318823,6167.993,-16.08823,71.3046
464.15888336127773,5555.456,-14.31841,71.297
1000.0,4892.051,-12.78972,71.3156
2154.4346900318824,4411.323,-11.6747,71.2998
4641.588833612777,4062.35,-10.83738,71.307
10000.0,3725.118,-11.52141,71.3024
