Frequency,Impedance,Phase Angle,Temperature (Dry Bath)
10.0,22921700.0,-21.90981,68.0019
21.5,36522940.0,-29.99794,68.0111
46.4,36962640.0,-48.12163,68.0009
100.0,5138682.0,-67.99466,67.9988
215.4,7192521.0,-59.56792,68.001
464.2,2508960.0,-79.39418,68.0014
1000.0,1296820.0,-85.5222,68.0036
2154.4,657541.9,-90.18558,68.0259
4641.6,315145.4,-94.58435,68.0078
10000.0,144931.1,-94.79243,67.9931
