Frequency,Impedance,Phase Angle,Temperature (Dry Bath)
10.0,31217060.0,-9.347969,68.1313
21.5,25093750.0,-16.62526,68.1331
46.4,24299210.0,-52.77971,68.1304
100.0,5900532.0,-62.85592,68.1379
215.4,4264091.0,-75.64264,68.1249
464.2,2550246.0,-77.60771,68.1257
1000.0,1077671.0,-83.75492,68.1163
2154.4,553480.4,-76.42692,68.1149
4641.6,271933.8,-80.38774,68.1419
10000.0,135182.7,-87.57946,68.1341
