Frequency,Impedance,Phase Angle,Temperature (Dry Bath)
10.0,3964563.0,5.463576,71.2494
21.544346900318832,4295911.0,-25.90591,71.2535
46.41588833612777,4238180.0,-18.88487,71.2576
100.0,282375.6,-52.10001,71.25
215.44346900318823,486463.3,26.94661,71.2672
464.15888336127773,3992568.0,159.6423,71.2384
1000.0,602958.5,-62.91572,71.2575
2154.4346900318824,297372.2,-83.46577,71.247
4641.588833612777,156559.4,-86.88294,71.2431
10000.0,69161.31,-89.52996,71.263
