Frequency,Impedance,Phase Angle,Temperature (Dry Bath)
10.0,14570.8,-19.61364,71.1867
21.544346900318832,12534.36,-16.82862,71.2018
46.41588833612777,11049.02,-14.62336,71.1951
100.0,10011.0,-12.87263,71.19
215.44346900318823,9126.252,-11.83276,71.1902
464.15888336127773,8266.322,-10.10437,71.1881
1000.0,7599.669,-9.206985,71.2015
2154.4346900318824,7149.849,-9.264375,71.1838
4641.588833612777,6688.577,-10.21416,71.2152
10000.0,6269.735,-13.55637,71.2027
