Frequency,Impedance,Phase Angle,Temperature (Dry Bath)
10.0,1434125.0,-11.06941,65.8238
21.544346900318832,1153898.0,-10.71306,65.8382
46.41588833612777,1223594.0,-13.47627,65.8192
100.0,423747.8,-2.089711,65.8249
215.44346900318823,584134.7,-79.54821,65.8203
464.15888336127773,509404.7,-58.08687,65.823
1000.0,430002.5,-72.71295,65.8271
2154.4346900318824,177960.6,-62.67753,65.8224
4641.588833612777,132775.8,-77.19554,65.822
10000.0,63711.17,-84.3379,65.8154
