Frequency,Impedance,Phase Angle,Temperature (Dry Bath)
10.0,13221760.0,54.41464,71.0437
21.544346900318832,5195469.0,-11.16458,71.0512
46.41588833612777,4572097.0,-2.359117,71.0478
100.0,628666.0,-21.41729,71.041
215.44346900318823,678873.1,-35.87308,71.0393
464.15888336127773,756831.0,113.6988,71.0456
1000.0,700296.6,121.0798,71.0619
2154.4346900318824,613838.0,-168.7541,71.0645
4641.588833612777,6497835.0,-104.4756,71.0515
10000.0,117949.6,-95.78551,71.0513
