Frequency,Impedance,Phase Angle,Temperature (Dry Bath)
10.0,4064697.0,-11.24747,71.047
21.544346900318832,6552596.0,11.43597,71.0703
46.41588833612777,4019854.0,-33.24018,71.0632
100.0,1604704.0,-60.65525,71.0578
215.44346900318823,2902808.0,29.59016,71.0707
464.15888336127773,586482.2,21.0482,71.0585
1000.0,362230.6,-96.11125,71.0907
2154.4346900318824,338277.5,-92.90663,71.078
4641.588833612777,126339.3,-82.39585,71.0802
10000.0,59563.43,-82.4159,71.0916
