Frequency,Impedance,Phase Angle,Temperature (Dry Bath)
10.0,154071.6,-9.265303,71.3063
21.544346900318832,144329.7,-8.719019,71.2986
46.41588833612777,137646.2,-8.518486,71.3049
100.0,128845.3,-23.4053,71.3139
215.44346900318823,181297.9,-3.900839,71.303
464.15888336127773,134113.2,-17.57344,71.3048
1000.0,100183.0,-11.05233,71.2999
2154.4346900318824,117779.2,-24.86197,71.3018
4641.588833612777,67148.02,-39.9967,71.3148
10000.0,42218.9,-62.3015,71.3244
