Frequency,Impedance,Phase Angle,Temperature (Dry Bath)
10.0,275705.3,-9.166456,67.0708
21.5,260989.0,-8.240663,67.0569
46.4,247527.9,-8.172628,67.0619
100.0,229877.7,-7.855042,67.0623
215.4,392909.5,-103.0377,67.0713
464.2,215082.5,-14.93406,67.0593
1000.0,193054.4,-21.89483,67.082
2154.4,156684.2,-36.58459,67.0499
4641.6,107749.1,-49.18003,67.0661
10000.0,65192.81,-59.09046,67.0583
