Frequency,Impedance,Phase Angle,Temperature (Dry Bath)
10.0,157765.2,-10.40574,71.2719
21.544346900318832,147280.0,-8.75782,71.2747
46.41588833612777,139222.0,-7.33739,71.2794
100.0,131252.9,2.062539,71.2695
215.44346900318823,13721.16,-75.45606,71.2633
464.15888336127773,111083.3,-10.91189,71.2689
1000.0,117301.3,-13.01404,71.2731
2154.4346900318824,96815.03,-28.83188,71.2633
4641.588833612777,59954.15,-44.32071,71.2721
10000.0,43874.08,-57.24655,71.2765
