Frequency,Impedance,Phase Angle,Temperature (Dry Bath)
10.0,12031.47,-4.271682,67.4245
21.5,11795.67,-3.582924,67.427
46.4,11493.37,-2.931027,67.428
100.0,11394.16,-3.407357,67.4276
215.4,11056.5,-10.53669,67.4193
464.2,11071.59,-3.227688,67.423
1000.0,10804.51,-3.618515,67.4199
2154.4,10609.09,-4.177714,67.4125
4641.6,10402.36,-5.778687,67.4219
10000.0,10114.02,-9.376377,67.4026
