Frequency,Impedance,Phase Angle,Temperature (Dry Bath)
10.0,9098.108,-23.03723,70.9027
21.544346900318832,7672.109,-19.53392,70.8952
46.41588833612777,6644.795,-16.98837,70.8964
100.0,5865.606,-14.96025,70.8791
215.44346900318823,5265.361,-13.23334,70.8981
464.15888336127773,4748.893,-11.59032,70.8956
1000.0,4300.711,-10.52764,70.8949
2154.4346900318824,3988.531,-9.456277,70.8894
4641.588833612777,3728.707,-9.443351,70.8816
10000.0,3505.846,-10.31235,70.9019
