Frequency,Impedance,Phase Angle,Temperature (Dry Bath)
10.0,21454.37,-24.10618,71.1761
21.544346900318832,17476.89,-23.86828,71.1821
46.41588833612777,14331.07,-23.39312,71.1774
100.0,11842.01,-23.66913,71.1825
215.44346900318823,9890.242,-21.69679,71.1687
464.15888336127773,8230.637,-20.30857,71.1698
1000.0,7032.462,-20.07597,71.1818
2154.4346900318824,5996.762,-19.08224,71.1666
4641.588833612777,5055.504,-18.91719,71.1748
10000.0,4351.876,-17.93067,71.1604
