Frequency,Impedance,Phase Angle,Temperature (Dry Bath)
10.0,20296210.0,-4.023618,68.336
21.5,19932210.0,-33.92749,68.3506
46.4,10364440.0,-49.15149,68.3573
100.0,6291880.0,-36.54013,68.3465
215.4,4979785.0,-101.9423,68.3294
464.2,2210772.0,-83.22803,68.34
1000.0,988198.6,-93.80544,68.3471
2154.4,528120.5,-90.33551,68.3504
4641.6,242349.8,-83.69198,68.3436
10000.0,114068.2,-93.91446,68.3462
