Frequency,Impedance,Phase Angle,Temperature (Dry Bath)
10.0,160256.9,-9.44019,66.3567
21.544346900318832,152850.0,-8.506143,66.3536
46.41588833612777,142241.5,-7.815027,66.3717
100.0,123209.0,-14.21736,66.342
215.44346900318823,131706.3,-12.55363,66.3513
464.15888336127773,120518.4,-5.722367,66.3488
1000.0,107106.7,-25.21072,66.3385
2154.4346900318824,86804.52,-26.11698,66.3485
4641.588833612777,68876.74,-39.16443,66.3493
10000.0,43268.17,-63.48757,66.3397
