Frequency,Impedance,Phase Angle,Temperature (Dry Bath)
10.0,23891810.0,-25.98266,68.1803
21.5,17193530.0,-45.3689,68.1774
46.4,13821470.0,-55.76243,68.1812
100.0,5046028.0,-58.94304,68.1812
215.4,6872431.0,-72.91945,68.1886
464.2,2350878.0,-86.22645,68.1598
1000.0,986807.1,-81.81195,68.1718
2154.4,512847.9,-84.12725,68.1949
4641.6,279681.8,-83.29416,68.1902
10000.0,152872.7,-86.04526,68.1915
