Frequency,Impedance,Phase Angle,Temperature (Dry Bath)
10.0,19115.37,-18.14438,67.9043
21.5,16716.78,-14.68355,67.9067
46.4,15159.59,-11.76352,67.9181
100.0,13960.65,-9.074597,67.9037
215.4,13160.05,-7.323736,67.8826
464.2,12587.12,-5.674575,67.9175
1000.0,11988.89,-5.337225,67.9141
2154.4,11631.19,-5.775453,67.9069
4641.6,11587.81,-7.374238,67.9065
10000.0,11064.11,-11.65191,67.9036
