Frequency,Impedance,Phase Angle,Temperature (Dry Bath)
10.0,36732420.0,0.8046215,68.2796
21.5,25109120.0,-41.8979,68.2796
46.4,13322050.0,-57.52413,68.2796
100.0,6720916.0,-24.23416,68.2796
215.4,3135513.0,-83.77447,68.2796
464.2,2259561.0,-87.21577,68.2796
1000.0,1043229.0,-84.53778,68.2796
2154.4,481380.1,-85.49327,68.2796
4641.6,240216.6,-86.03622,68.2796
10000.0,109627.5,-92.02647,68.2796
