Frequency,Impedance,Phase Angle,Temperature (Dry Bath)
10.0,5912945.0,-10.24442,71.3282
21.544346900318832,5935620.0,-10.59825,71.3456
46.41588833612777,42051450.0,0.6723948,71.3329
100.0,333999.6,151.9981,71.3612
215.44346900318823,840271.0,54.62792,71.3521
464.15888336127773,695527.6,-47.51038,71.3595
1000.0,2399883.0,-141.9077,71.3545
2154.4346900318824,219539.7,-68.9282,71.3569
4641.588833612777,119938.9,-86.92746,71.3618
10000.0,61050.08,-80.17614,71.3402
