Frequency,Impedance,Phase Angle,Temperature (Dry Bath)
10.0,20026110.0,-28.20153,68.0838
21.5,25607230.0,-47.92616,68.0838
46.4,27880910.0,-54.06685,68.0838
100.0,5835996.0,-36.21822,68.0838
215.4,5207839.0,-46.61538,68.0838
464.2,2196775.0,-79.98054,68.0838
1000.0,1097648.0,-82.14642,68.0838
2154.4,595284.9,-75.30965,68.0838
4641.6,311274.3,-77.31816,68.0838
10000.0,162820.7,-93.24209,68.0838
