Frequency,Impedance,Phase Angle,Temperature (Dry Bath)
10.0,19215.39,-18.20297,67.9955
21.5,16802.51,-14.81841,67.9883
46.4,15203.79,-11.87943,67.9886
100.0,13823.36,-9.455373,67.9867
215.4,13149.83,-7.034195,67.9887
464.2,12760.82,-5.290153,67.9776
1000.0,12006.74,-5.171509,67.9865
2154.4,11669.61,-6.119182,67.9961
4641.6,11182.55,-7.053279,67.9842
10000.0,11052.31,-12.0085,67.9786
