Frequency,Impedance,Phase Angle,Temperature (Dry Bath)
10.0,140888.7,-5.700611,67.3747
21.5,135637.5,-4.685307,67.3772
46.4,131821.6,-4.39207,67.3837
100.0,126463.0,-3.360382,67.3626
215.4,120337.4,-4.305278,67.3799
464.2,120559.2,-7.29619,67.3759
1000.0,113870.4,-12.49192,67.3735
2154.4,107371.1,-20.7893,67.365
4641.6,91966.37,-33.63082,67.3642
10000.0,63459.19,-50.84444,67.3667
