Frequency,Impedance,Phase Angle,Temperature (Dry Bath)
10.0,9558.145,-25.66656,70.755
21.544346900318832,7798.767,-22.51127,70.7625
46.41588833612777,6544.083,-19.53428,70.7673
100.0,5726.786,-16.40492,70.7607
215.44346900318823,4971.135,-14.42698,70.7676
464.15888336127773,4447.363,-12.05567,70.7713
1000.0,4078.775,-10.49165,70.7582
2154.4346900318824,3756.679,-9.300251,70.7533
4641.588833612777,3499.874,-9.170409,70.7679
10000.0,3329.44,-9.881036,70.7703
