Frequency,Impedance,Phase Angle,Temperature (Dry Bath)
10.0,33576790.0,-3.498613,67.302
21.5,19162110.0,-49.07498,67.3108
46.4,12412780.0,-64.78219,67.2924
100.0,3624037.0,-32.16022,67.3089
215.4,197486.3,-88.91105,67.3172
464.2,2137960.0,-86.61031,67.3126
1000.0,966086.3,-75.74629,67.2893
2154.4,468785.4,-82.27957,67.3188
4641.6,223911.0,-78.95749,67.2992
10000.0,112068.5,-83.18109,67.3165
