Frequency,Impedance,Phase Angle,Temperature (Dry Bath)
10.0,16522510.0,-16.95003,68.0895
21.5,16809120.0,-30.51152,68.0734
46.4,12133850.0,-50.33971,68.0877
100.0,3631640.0,-47.70725,68.0613
215.4,3184247.0,-73.61405,68.0684
464.2,1613229.0,-88.83567,68.0849
1000.0,864062.7,-80.36422,68.065
2154.4,420816.2,-85.90476,68.081
4641.6,232785.3,-90.67795,68.0972
10000.0,117507.9,-88.48941,68.0816
