Frequency,Impedance,Phase Angle,Temperature (Dry Bath)
10.0,140249.7,-5.756091,67.4247
21.5,135133.1,-4.657122,67.4433
46.4,130933.6,-4.465965,67.4411
100.0,130836.0,-3.541384,67.4408
215.4,164474.1,106.5198,67.4273
464.2,122565.9,-7.008299,67.436
1000.0,112667.8,-12.30258,67.4358
2154.4,105644.6,-19.69526,67.4281
4641.6,91960.17,-34.16132,67.433
10000.0,63123.95,-52.02531,67.441
