Frequency,Impedance,Phase Angle,Temperature (Dry Bath)
10.0,35927800.0,-32.70987,67.9636
21.5,42638770.0,-41.02249,67.9474
46.4,19185490.0,-50.78456,67.9619
100.0,4409836.0,-48.49299,67.9479
215.4,4666706.0,-44.90837,67.9715
464.2,2041452.0,-72.98528,67.9584
1000.0,1018327.0,-78.33464,67.9547
2154.4,533738.7,-81.84245,67.963
4641.6,279028.6,-82.18965,67.9678
10000.0,125132.4,-95.69957,67.9699
