Frequency,Impedance,Phase Angle,Temperature (Dry Bath)
10.0,28654820.0,-27.90051,67.4405
21.5,21860610.0,-44.27211,67.4274
46.4,24263250.0,-56.25714,67.4275
100.0,4083690.0,-14.41919,67.4335
215.4,242115.3,-61.34577,67.4321
464.2,1397625.0,-73.28008,67.4111
1000.0,913249.7,-82.57534,67.4333
2154.4,461814.6,-83.14267,67.4291
4641.6,221815.6,-82.50081,67.423
10000.0,110656.0,-83.67586,67.4335
