Frequency,Impedance,Phase Angle,Temperature (Dry Bath)
10.0,52963650.0,-25.94332,67.8419
21.5,51994400.0,-46.72342,67.835
46.4,17155980.0,-63.03336,67.8341
100.0,4523431.0,-64.6644,67.842
215.4,3966742.0,-50.04353,67.8623
464.2,2532432.0,-83.55671,67.8483
1000.0,998734.0,-84.02523,67.8452
2154.4,525291.0,-85.97058,67.8284
4641.6,252566.0,-88.61082,67.857
10000.0,116470.4,-91.80703,67.8398
