Frequency,Impedance,Phase Angle,Temperature (Dry Bath)
10.0,3954057.0,-3.815523,71.5032
21.544346900318832,8286528.0,-8.979642,71.4987
46.41588833612777,4107072.0,-31.04382,71.4873
100.0,526127.4,-28.54207,71.4963
215.44346900318823,1105785.0,-59.62494,71.4923
464.15888336127773,625308.1,-76.80771,71.5003
1000.0,635485.6,-173.0385,71.5029
2154.4346900318824,205430.7,-78.54906,71.504
4641.588833612777,90914.35,-96.31051,71.4959
10000.0,53872.16,-92.78945,71.505
