Frequency,Impedance,Phase Angle,Temperature (Dry Bath)
10.0,32606160.0,7.719355,67.0614
21.5,23888000.0,-34.27763,67.0469
46.4,15713540.0,-63.15057,67.0507
100.0,6748898.0,6.221637,67.0579
215.4,2708334.0,-78.40359,67.0533
464.2,2858569.0,-75.86277,67.0599
1000.0,860698.4,-86.85398,67.0628
2154.4,490856.0,-82.54887,67.0412
4641.6,227185.4,-81.24765,67.0529
10000.0,117640.5,-79.55233,67.0714
