Frequency,Impedance,Phase Angle,Temperature (Dry Bath)
10.0,38835060.0,-17.0916,68.042
21.5,20848820.0,-36.87952,68.042
46.4,11003070.0,-55.26924,68.042
100.0,3828819.0,-54.96396,68.042
215.4,2817731.0,-69.147,68.042
464.2,1953552.0,-79.27936,68.042
1000.0,1103576.0,-79.8199,68.042
2154.4,600170.0,-77.35514,68.042
4641.6,307328.9,-80.83701,68.042
10000.0,153094.4,-87.99374,68.042
