Frequency,Impedance,Phase Angle,Temperature (Dry Bath)
10.0,12335.21,-4.454744,67.1563
21.5,12045.06,-3.828017,67.1729
46.4,11718.93,-3.074582,67.1559
100.0,11548.63,-3.048251,67.1587
215.4,11397.91,-3.166735,67.1596
464.2,11234.96,-3.291409,67.1649
1000.0,10964.91,-3.509782,67.1718
2154.4,10765.48,-4.209169,67.1726
4641.6,10570.76,-5.739846,67.147
10000.0,10258.74,-9.561063,67.1728
