Frequency,Impedance,Phase Angle,Temperature (Dry Bath)
10.0,158949.9,-6.206956,67.8649
21.5,152589.3,-5.267667,67.847
46.4,147263.9,-4.827662,67.8635
100.0,137527.8,-4.500824,67.8571
215.4,136778.5,-5.289926,67.8904
464.2,135370.4,-10.54339,67.8635
1000.0,125682.0,-11.66363,67.8423
2154.4,120240.3,-19.39441,67.838
4641.6,100746.2,-33.47702,67.8352
10000.0,75843.33,-53.90365,67.8506
