Frequency,Impedance,Phase Angle,Temperature (Dry Bath)
10.0,12517.09,-27.95288,70.9188
21.544346900318832,10001.35,-24.94513,70.9201
46.41588833612777,8199.247,-21.87969,70.916
100.0,6940.941,-18.67592,70.922
215.44346900318823,6051.306,-16.43356,70.9191
464.15888336127773,5342.458,-13.80693,70.9013
1000.0,4815.491,-11.94743,70.91
2154.4346900318824,4373.365,-10.25839,70.9114
4641.588833612777,4067.22,-10.96683,70.9296
10000.0,3752.562,-11.65104,70.9131
