Frequency,Impedance,Phase Angle,Temperature (Dry Bath)
10.0,40985690.0,-19.41535,67.0974
21.5,23136340.0,-44.04996,67.0763
46.4,15318270.0,-63.44511,67.0727
100.0,3299226.0,-110.9147,67.0818
215.4,5227680.0,-103.8915,67.0776
464.2,1567513.0,-92.96945,67.1004
1000.0,897461.7,-97.24043,67.0762
2154.4,462877.5,-80.26165,67.0853
4641.6,230758.3,-83.91442,67.1041
10000.0,115860.3,-78.70186,67.0736
