Frequency,Impedance,Phase Angle,Temperature (Dry Bath)
10.0,134810.2,-19.56837,66.4109
21.544346900318832,114364.5,-18.23568,66.4314
46.41588833612777,98729.04,-16.28531,66.4183
100.0,87172.74,-12.48889,66.4283
215.44346900318823,81464.66,-16.77775,66.4121
464.15888336127773,73883.89,-17.00425,66.4458
1000.0,64839.17,-17.60052,66.4152
2154.4346900318824,50833.39,-23.22946,66.4279
4641.588833612777,46553.11,-36.05447,66.419
10000.0,30772.84,-44.01538,66.4298
