Frequency,Impedance,Phase Angle,Temperature (Dry Bath)
10.0,17021.77,-23.0214,71.2813
21.544346900318832,14080.65,-21.53719,71.2852
46.41588833612777,11832.76,-19.84594,71.2752
100.0,10202.37,-17.96752,71.2697
215.44346900318823,8828.435,-16.13578,71.2622
464.15888336127773,7897.059,-14.10148,71.2624
1000.0,6932.522,-11.91792,71.2503
2154.4346900318824,6519.005,-9.580806,71.2695
4641.588833612777,5980.929,-9.943321,71.2615
10000.0,5675.363,-9.660362,71.278
