Frequency,Impedance,Phase Angle,Temperature (Dry Bath)
10.0,38035430.0,-29.36397,67.3497
21.5,24563740.0,-34.33184,67.3276
46.4,16725070.0,-56.61967,67.339
100.0,7984236.0,-23.83408,67.3459
215.4,3106743.0,164.7428,67.336
464.2,2064245.0,-77.53716,67.3478
1000.0,960073.5,-77.05814,67.3353
2154.4,443349.9,-83.21818,67.3444
4641.6,225579.5,-84.14061,67.3492
10000.0,113084.8,-82.12766,67.3511
