Frequency,Impedance,Phase Angle,Temperature (Dry Bath)
10.0,31386730.0,-26.74924,67.3572
21.5,24430740.0,-29.45098,67.3616
46.4,19233060.0,-36.29106,67.3638
100.0,8515638.0,-134.6048,67.3707
215.4,128152.4,-42.16339,67.3646
464.2,2193892.0,-95.3735,67.3616
1000.0,1286071.0,-89.66472,67.355
2154.4,579035.0,-87.50221,67.3647
4641.6,294800.7,-86.35449,67.3718
10000.0,128581.2,-86.25932,67.3566
