Frequency,Impedance,Phase Angle,Temperature (Dry Bath)
10.0,21234710.0,6.809332,68.1367
21.5,23870240.0,-29.45297,68.1367
46.4,20185380.0,-59.36149,68.1367
100.0,3870160.0,-55.42185,68.1367
215.4,2731495.0,-79.1451,68.1367
464.2,1608846.0,-84.45245,68.1367
1000.0,989691.3,-78.45064,68.1367
2154.4,546229.0,-79.99871,68.1367
4641.6,288584.7,-85.53499,68.1367
10000.0,141302.6,-90.50925,68.1367
