Frequency,Impedance,Phase Angle,Temperature (Dry Bath)
10.0,80836.7,-16.45034,70.4
21.544346900318832,76612.06,-18.26515,70.4
46.41588833612777,68515.14,-19.50075,70.4
100.0,57798.67,-20.24606,70.4
215.44346900318823,50571.91,-22.29229,70.4
464.15888336127773,41484.86,-22.20126,70.4
1000.0,34492.36,-20.57494,70.4
2154.4346900318824,29041.02,-18.16258,70.4
4641.588833612777,25826.69,-15.5455,70.4
10000.0,23446.8,-16.37535,70.4
