Frequency,Impedance,Phase Angle,Temperature (Dry Bath)
10.0,222210.9,-24.96347,71.3984
21.544346900318832,183195.4,-22.82093,71.3981
46.41588833612777,152643.3,-21.16645,71.3826
100.0,176209.7,-31.53237,71.3936
215.44346900318823,93848.14,-8.742193,71.3944
464.15888336127773,92132.06,-19.11503,71.3989
1000.0,85959.87,-47.34545,71.3871
2154.4346900318824,72039.61,-29.07447,71.4088
4641.588833612777,58143.39,-34.96387,71.3808
10000.0,36792.15,-60.87358,71.4093
