Frequency,Impedance,Phase Angle,Temperature (Dry Bath)
10.0,8347756.0,-14.83474,68.2679
21.5,8315844.0,-17.68377,68.2471
46.4,9123011.0,-37.48545,68.2504
100.0,5601038.0,-5.849673,68.2547
215.4,4374903.0,-91.0361,68.2547
464.2,1654684.0,-80.64605,68.241
1000.0,820279.4,-79.33076,68.2422
2154.4,444044.0,-81.35886,68.2589
4641.6,210205.4,-86.5771,68.2472
10000.0,108183.2,-91.47499,68.2417
