Frequency,Impedance,Phase Angle,Temperature (Dry Bath)
10.0,4418630.0,2.209834,72.2156
21.544346900318832,5955962.0,-9.789923,72.2271
46.41588833612777,5027315.0,7.909447,72.2389
100.0,561401.7,-0.8502879,72.2417
215.44346900318823,690724.3,-40.24872,72.2292
464.15888336127773,411297.6,-38.21632,72.2453
1000.0,3635314.0,-173.9549,72.229
2154.4346900318824,1926889.0,-87.77356,72.2138
4641.588833612777,318541.4,-88.02872,72.2198
10000.0,195527.3,-77.68633,72.228
