Frequency,Impedance,Phase Angle,Temperature (Dry Bath)
10.0,19418.41,-19.1987,67.7662
21.5,16752.74,-15.85328,67.7743
46.4,14959.23,-12.51595,67.7551
100.0,13643.8,-9.248981,67.773
215.4,13026.79,-7.155595,67.7714
464.2,12340.67,-6.19061,67.7788
1000.0,11664.94,-5.948942,67.7514
2154.4,11285.82,-6.860516,67.7613
4641.6,10977.51,-6.470451,67.7717
10000.0,10638.55,-12.00617,67.7614
