Frequency,Impedance,Phase Angle,Temperature (Dry Bath)
10.0,26808360.0,-12.47162,68.358
21.5,21287450.0,-31.56405,68.3344
46.4,13265270.0,-48.23744,68.3458
100.0,7012497.0,-30.68807,68.347
215.4,8016374.0,-73.03873,68.3366
464.2,2525042.0,-80.68461,68.3328
1000.0,1000037.0,-80.52128,68.3451
2154.4,557228.9,-83.31111,68.3387
4641.6,258791.5,-83.44562,68.3338
10000.0,149058.7,-91.0646,68.3476
