Frequency,Impedance,Phase Angle,Temperature (Dry Bath)
10.0,27270050.0,-11.81688,67.3138
21.5,24183440.0,-50.814,67.3071
46.4,16441160.0,-53.22019,67.3271
100.0,4728934.0,-13.51401,67.3043
215.4,4668429.0,-93.14496,67.306
464.2,1714531.0,-82.50427,67.3259
1000.0,957616.2,-81.3605,67.3276
2154.4,496954.0,-82.51364,67.3308
4641.6,256384.1,-80.86501,67.3231
10000.0,134556.1,-79.3803,67.3283
