Frequency,Impedance,Phase Angle,Temperature (Dry Bath)
10.0,29580180.0,-4.574251,68.1421
21.5,16133390.0,-22.32858,68.1421
46.4,16443330.0,-41.19355,68.1421
100.0,10824360.0,-34.4391,68.1421
215.4,4947853.0,-61.72132,68.1421
464.2,3421232.0,-62.96015,68.1421
1000.0,1340527.0,-85.90507,68.1421
2154.4,678398.3,-87.00564,68.1421
4641.6,337546.1,-89.65061,68.1421
10000.0,160615.3,-98.0499,68.1421
