Frequency,Impedance,Phase Angle,Temperature (Dry Bath)
10.0,1174675.0,-11.88057,67.7073
21.5,1104234.0,-10.16032,67.7279
46.4,1047665.0,-12.95552,67.7189
100.0,841734.8,-13.67036,67.7288
215.4,830852.1,-16.82476,67.7113
464.2,678949.2,-29.66732,67.7241
1000.0,512316.9,-41.23553,67.7323
2154.4,344931.7,-50.56025,67.7437
4641.6,208449.2,-59.9825,67.7292
10000.0,132337.6,-75.24078,67.7455
