Frequency,Impedance,Phase Angle,Temperature (Dry Bath)
10.0,22417.65,-21.78496,65.7078
21.544346900318832,18825.69,-18.39552,65.7098
46.41588833612777,16325.22,-15.32627,65.7061
100.0,15236.78,-12.7032,65.6927
215.44346900318823,13675.38,-7.851947,65.6846
464.15888336127773,12575.48,-7.398073,65.6886
1000.0,11962.52,-8.001602,65.7018
2154.4346900318824,11326.47,-7.596663,65.6985
4641.588833612777,10572.75,-8.511201,65.7177
10000.0,10243.74,-13.46467,65.6864
