Frequency,Impedance,Phase Angle,Temperature (Dry Bath)
10.0,153445.6,-6.437966,68.2813
21.5,146864.9,-5.272473,68.2813
46.4,142164.1,-4.819967,68.2813
100.0,134713.8,-3.513828,68.2813
215.4,131736.0,-5.476589,68.2813
464.2,128421.5,-7.680477,68.2813
1000.0,123276.7,-12.43353,68.2813
2154.4,108107.8,-20.70408,68.2813
4641.6,94760.0,-32.72177,68.2813
10000.0,73812.57,-52.38858,68.2813
