Frequency,Impedance,Phase Angle,Temperature (Dry Bath)
10.0,121137.6,-24.46602,67.3131
21.5,100796.3,-21.47192,67.3259
46.4,87429.56,-18.42911,67.3168
100.0,77989.29,-15.33152,67.3202
215.4,65812.2,-12.71022,67.2982
464.2,62741.57,-12.75599,67.3243
1000.0,57393.2,-13.40987,67.3091
2154.4,53425.75,-16.41072,67.317
4641.6,47811.64,-23.44868,67.3294
10000.0,39541.41,-35.79177,67.3199
