Frequency,Impedance,Phase Angle,Temperature (Dry Bath)
10.0,19957600.0,-20.8297,68.0177
21.5,21634340.0,-40.52227,68.0346
46.4,20495770.0,-60.96905,68.0238
100.0,4711410.0,-27.3203,68.0132
215.4,3608002.0,-65.11066,68.0365
464.2,1650107.0,-61.96698,68.0325
1000.0,898384.1,-72.42735,68.0288
2154.4,501501.4,-78.23262,68.028
4641.6,273913.1,-81.29129,68.018
10000.0,135070.3,-87.98883,68.0154
