Frequency,Impedance,Phase Angle,Temperature (Dry Bath)
10.0,5288.387,-35.16175,70.5501
21.544346900318832,4012.891,-29.55709,70.5684
46.41588833612777,3224.098,-24.10732,70.5499
100.0,2711.919,-19.4672,70.5592
215.44346900318823,2360.52,-16.08658,70.5541
464.15888336127773,2106.467,-13.52568,70.5524
1000.0,1891.917,-11.20739,70.5626
2154.4346900318824,1749.061,-9.728083,70.546
4641.588833612777,1627.545,-8.304168,70.552
10000.0,1537.52,-7.85053,70.556
