Frequency,Impedance,Phase Angle,Temperature (Dry Bath)
10.0,23350330.0,-22.82593,67.3669
21.5,19559890.0,-49.42995,67.3606
46.4,14520610.0,-58.08965,67.3636
100.0,6391322.0,-49.40893,67.3769
215.4,1453175.0,-110.7794,67.3685
464.2,2192745.0,-73.07808,67.3795
1000.0,972723.1,-70.40557,67.3819
2154.4,481026.3,-80.23738,67.3809
4641.6,236504.0,-81.98461,67.3685
10000.0,114837.5,-85.48212,67.3652
