Frequency,Impedance,Phase Angle,Temperature (Dry Bath)
10.0,14667.03,-19.59749,70.9733
21.544346900318832,12634.06,-16.71428,70.9812
46.41588833612777,11133.79,-14.56048,70.9962
100.0,10104.54,-12.97397,70.9856
215.44346900318823,9012.396,-11.64227,70.9854
464.15888336127773,8327.522,-10.28302,70.9931
1000.0,7616.638,-9.176188,70.9914
2154.4346900318824,7193.298,-9.275255,70.9766
4641.588833612777,6839.788,-10.40597,70.9866
10000.0,6286.402,-12.89138,70.9961
