Frequency,Impedance,Phase Angle,Temperature (Dry Bath)
10.0,3956076.0,-3.595659,71.3332
21.544346900318832,8440403.0,-17.39145,71.3381
46.41588833612777,3698879.0,-25.72537,71.3413
100.0,565914.0,16.02113,71.3428
215.44346900318823,27384.85,42.95409,71.3284
464.15888336127773,780681.5,13.33079,71.3382
1000.0,1647744.0,-107.4655,71.343
2154.4346900318824,269789.8,-59.80964,71.3273
4641.588833612777,154180.0,-81.17863,71.3489
10000.0,60454.07,-86.5105,71.3508
