Frequency,Impedance,Phase Angle,Temperature (Dry Bath)
10.0,648432.9,-11.21448,68.2686
21.5,602769.4,-10.53035,68.2682
46.4,559399.8,-11.26169,68.2635
100.0,507022.7,-11.14334,68.2699
215.4,458140.0,-16.68583,68.2643
464.2,387454.2,-20.63653,68.2673
1000.0,316658.5,-29.11606,68.2707
2154.4,253245.2,-39.08042,68.2732
4641.6,177942.0,-55.36448,68.2668
10000.0,117189.1,-66.97417,68.2643
