Frequency,Impedance,Phase Angle,Temperature (Dry Bath)
10.0,18618.83,-20.31646,70.9442
21.544346900318832,15988.44,-17.6259,70.9699
46.41588833612777,13991.92,-15.43333,70.9462
100.0,12321.28,-13.97009,70.9641
215.44346900318823,11252.77,-11.96446,70.9467
464.15888336127773,10195.98,-11.4445,70.962
1000.0,9342.537,-10.91752,70.9673
2154.4346900318824,8718.469,-9.291839,70.9853
4641.588833612777,8103.475,-10.95047,70.9532
10000.0,7668.274,-13.59359,70.9594
