Frequency,Impedance,Phase Angle,Temperature (Dry Bath)
10.0,5721628.0,-33.10375,70.5084
21.544346900318832,6392150.0,-9.875228,70.4899
46.41588833612777,5463066.0,-40.54913,70.4919
100.0,527128.0,-142.0174,70.4864
215.44346900318823,594404.0,-32.15859,70.4957
464.15888336127773,872416.2,141.7464,70.4846
1000.0,517884.0,-36.39265,70.4825
2154.4346900318824,236771.9,-82.86057,70.4823
4641.588833612777,199595.4,-94.76371,70.4694
10000.0,65931.6,-85.5992,70.489
