Frequency,Impedance,Phase Angle,Temperature (Dry Bath)
10.0,12624.48,-26.44871,71.3319
21.544346900318832,10200.18,-23.87169,71.3285
46.41588833612777,8433.01,-21.17183,71.345
100.0,7136.584,-19.42314,71.3178
215.44346900318823,10506.71,9.31982,71.3439
464.15888336127773,5533.513,-13.93926,71.3555
1000.0,4963.056,-12.18933,71.3456
2154.4346900318824,4460.201,-11.38544,71.353
4641.588833612777,4130.157,-11.29427,71.3269
10000.0,3810.655,-12.16261,71.3412
