Frequency,Impedance,Phase Angle,Temperature (Dry Bath)
10.0,12363.86,-7.97503,67.1942
21.5,11778.39,-4.681394,67.1955
46.4,11594.44,-4.799557,67.1994
100.0,11507.55,-5.263969,67.1906
215.4,11390.32,-5.873518,67.184
464.2,11223.86,-5.924391,67.2046
1000.0,10913.85,-5.855913,67.168
2154.4,10568.35,-5.879818,67.1993
4641.6,10200.24,-6.934305,67.1831
10000.0,9846.515,-9.999716,67.1745
