Frequency,Impedance,Phase Angle,Temperature (Dry Bath)
10.0,27144720.0,-21.85454,67.2973
21.5,37708640.0,-33.63085,67.2929
46.4,15113010.0,-55.73774,67.2912
100.0,10797170.0,29.35466,67.2807
215.4,2533767.0,-109.7436,67.2896
464.2,1606678.0,-90.1802,67.2831
1000.0,1018975.0,-87.54136,67.2883
2154.4,501992.4,-84.11165,67.2753
4641.6,227348.9,-83.81114,67.2896
10000.0,112203.9,-83.83648,67.2929
