Frequency,Impedance,Phase Angle,Temperature (Dry Bath)
10.0,23136460.0,-22.51121,67.4998
21.5,24625230.0,-30.37545,67.4891
46.4,17918360.0,-68.71947,67.4874
100.0,5460108.0,-92.42979,67.5023
215.4,349440.4,-14.2744,67.5064
464.2,1764488.0,-76.5384,67.5012
1000.0,988448.0,-75.8327,67.5035
2154.4,469561.8,-82.09724,67.5149
4641.6,258581.8,-79.04343,67.5104
10000.0,133525.1,-78.70298,67.499
