Frequency,Impedance,Phase Angle,Temperature (Dry Bath)
10.0,44479560.0,-19.12498,67.0241
21.5,23827160.0,-22.26561,67.0481
46.4,17758240.0,-56.1114,67.0206
100.0,5466997.0,-7.781794,67.0403
215.4,4068338.0,-22.72601,67.0365
464.2,2214744.0,-88.38059,67.0407
1000.0,967910.8,-83.94854,67.0452
2154.4,472884.1,-86.31644,67.0501
4641.6,237270.5,-81.82569,67.0651
10000.0,118960.0,-79.38315,67.0342
