Frequency,Impedance,Phase Angle,Temperature (Dry Bath)
10.0,113635.2,-9.603336,67.1083
21.5,106866.6,-8.767978,67.1272
46.4,102119.5,-8.970799,67.1125
100.0,97169.67,-9.170939,67.1203
215.4,90044.09,-10.59043,67.1217
464.2,84877.77,-12.8861,67.1251
1000.0,79145.33,-15.89083,67.1256
2154.4,67832.8,-20.78867,67.111
4641.6,55733.51,-28.11846,67.1192
10000.0,42755.79,-37.44618,67.1337
