Frequency,Impedance,Phase Angle,Temperature (Dry Bath)
10.0,3084022.0,-13.60745,67.9569
21.5,3162950.0,-15.36807,67.9313
46.4,3130917.0,-19.89382,67.943
100.0,2237421.0,-22.56755,67.9311
215.4,1853211.0,-34.24117,67.9355
464.2,1120191.0,-64.3045,67.9592
1000.0,798435.9,-69.93874,67.9372
2154.4,385152.6,-71.35963,67.9503
4641.6,237140.8,-79.26723,67.9332
10000.0,115039.2,-81.64643,67.9348
