Frequency,Impedance,Phase Angle,Temperature (Dry Bath)
10.0,27046650.0,-11.35313,67.1742
21.5,22522300.0,-37.01617,67.1584
46.4,14548550.0,-60.35843,67.1515
100.0,15925860.0,-121.3434,67.1655
215.4,4933649.0,-43.92774,67.1715
464.2,2014063.0,-73.48628,67.1562
1000.0,1045834.0,-86.92593,67.1742
2154.4,470944.0,-80.28397,67.177
4641.6,238055.3,-82.89523,67.1812
10000.0,118121.0,-79.58722,67.1943
