Frequency,Impedance,Phase Angle,Temperature (Dry Bath)
10.0,1210192.0,-12.34512,65.7501
21.544346900318832,1094360.0,-13.52837,65.7309
46.41588833612777,1034500.0,-8.133753,65.7318
100.0,1137599.0,-11.44679,65.7439
215.44346900318823,14504.65,35.92835,65.7366
464.15888336127773,290443.2,-45.01075,65.7355
1000.0,513137.3,-70.78459,65.7437
2154.4346900318824,238677.7,-76.06237,65.7475
4641.588833612777,110269.1,-68.03767,65.7308
10000.0,58240.95,-78.46515,65.7318
