Frequency,Impedance,Phase Angle,Temperature (Dry Bath)
10.0,172518.5,-11.48957,65.7757
21.544346900318832,161671.3,-11.05251,65.7661
46.41588833612777,146351.9,-10.56876,65.77
100.0,117840.3,-3.728665,65.7806
215.44346900318823,28921.61,-133.0848,65.7813
464.15888336127773,104427.0,-18.82982,65.7747
1000.0,107589.2,-20.33656,65.7839
2154.4346900318824,96149.54,-21.85325,65.7839
4641.588833612777,78729.06,-34.74615,65.7911
10000.0,56168.76,-55.82532,65.7789
