Frequency,Impedance,Phase Angle,Temperature (Dry Bath)
10.0,5303015.0,0.3469469,70.9314
21.544346900318832,5272422.0,-14.60683,70.9221
46.41588833612777,3644782.0,-28.78195,70.9235
100.0,453619.0,-40.55748,70.9071
215.44346900318823,1268352.0,-72.96681,70.9303
464.15888336127773,950663.8,-176.6774,70.9112
1000.0,227108.7,-114.8218,70.9199
2154.4346900318824,319563.0,-93.17553,70.9127
4641.588833612777,114452.1,-87.71344,70.917
10000.0,57239.04,-82.7134,70.918
