Frequency,Impedance,Phase Angle,Temperature (Dry Bath)
10.0,209744.2,-16.06946,28.5379
21.544346900318832,185238.2,-14.90599,28.3994
46.41588833612777,166002.8,-14.24643,27.7303
100.0,150779.1,-10.68542,27.705
215.44346900318823,160835.7,-16.34428,27.8423
464.15888336127773,133060.9,-15.41092,27.7596
1000.0,112304.6,-22.11694,27.8677
2154.4346900318824,92657.19,-14.8739,27.8248
4641.588833612777,89154.34,-25.45907,27.7899
10000.0,65593.04,-47.24059,27.9129
