Frequency,Impedance,Phase Angle,Temperature (Dry Bath)
10.0,39705930.0,-15.1857,67.4322
21.5,27238990.0,-35.79624,67.425
46.4,20020890.0,-44.92107,67.4357
100.0,5293990.0,26.44236,67.4372
215.4,3751658.0,-96.91564,67.4513
464.2,2847741.0,-61.92618,67.4456
1000.0,984468.3,-84.81063,67.4482
2154.4,550493.4,-88.14172,67.4519
4641.6,299971.0,-84.68878,67.444
10000.0,135910.7,-88.04237,67.4626
