Frequency,Impedance,Phase Angle,Temperature (Dry Bath)
10.0,21151540.0,-42.94155,67.8796
21.5,23157660.0,-47.83559,67.8598
46.4,19885240.0,-64.18822,67.8621
100.0,4111321.0,-66.43513,67.8534
215.4,2498368.0,-57.9008,67.8623
464.2,1784484.0,-64.3536,67.8759
1000.0,934466.5,-77.77602,67.8653
2154.4,510443.4,-75.5903,67.8558
4641.6,265789.6,-78.7517,67.8405
10000.0,145910.7,-84.33527,67.848
