Frequency,Impedance,Phase Angle,Temperature (Dry Bath)
10.0,22478.35,-21.67461,65.6084
21.544346900318832,18943.77,-18.55333,65.592
46.41588833612777,16423.89,-15.29259,65.6137
100.0,14457.24,-11.49547,65.6086
215.44346900318823,9124.978,-11.95426,65.5947
464.15888336127773,12641.83,-9.471808,65.6043
1000.0,11811.4,-8.002867,65.6269
2154.4346900318824,11145.18,-8.5981,65.6294
4641.588833612777,10926.93,-9.540525,65.6146
10000.0,10237.41,-14.33491,65.6547
