Frequency,Impedance,Phase Angle,Temperature (Dry Bath)
10.0,6927110.0,29.03442,65.6983
21.544346900318832,5576836.0,-3.158219,65.6805
46.41588833612777,4418221.0,-35.47583,65.6958
100.0,1390920.0,27.648,65.677
215.44346900318823,462079.7,129.6742,65.6882
464.15888336127773,821519.6,-82.29163,65.6832
1000.0,382967.3,-88.69262,65.6899
2154.4346900318824,236347.0,-96.65822,65.6952
4641.588833612777,116487.6,-76.8592,65.7006
10000.0,67572.35,-82.83111,65.6914
