Frequency,Impedance,Phase Angle,Temperature (Dry Bath)
10.0,23040770.0,-18.67123,68.3157
21.5,13829450.0,-37.19292,68.3157
46.4,11298370.0,-55.23755,68.3157
100.0,4957270.0,-34.13808,68.3157
215.4,3465188.0,-88.97532,68.3157
464.2,1809396.0,-86.87113,68.3157
1000.0,852320.2,-82.11772,68.3157
2154.4,449243.9,-83.18976,68.3157
4641.6,235892.0,-82.10679,68.3157
10000.0,115997.6,-89.97736,68.3157
