Frequency,Impedance,Phase Angle,Temperature (Dry Bath)
10.0,39297190.0,-20.24023,68.1826
21.5,13985850.0,-35.32314,68.1692
46.4,14089680.0,-52.90014,68.1851
100.0,3416696.0,-44.31811,68.1813
215.4,5723418.0,-51.36825,68.175
464.2,2089410.0,-66.86967,68.1737
1000.0,1098205.0,-83.28037,68.1795
2154.4,558856.2,-82.74061,68.18
4641.6,292017.1,-83.57139,68.1752
10000.0,149458.7,-86.84797,68.1787
