Frequency,Impedance,Phase Angle,Temperature (Dry Bath)
10.0,30958790.0,-15.97444,67.383
21.5,24405440.0,-35.23718,67.4033
46.4,15877190.0,-58.65845,67.3711
100.0,5625690.0,-76.18576,67.397
215.4,4100980.0,-82.69506,67.3755
464.2,1764200.0,-81.68519,67.3944
1000.0,941121.9,-79.91923,67.3869
2154.4,482358.8,-80.26916,67.3936
4641.6,231806.3,-80.67884,67.3781
10000.0,111392.9,-85.29978,67.3861
