Frequency,Impedance,Phase Angle,Temperature (Dry Bath)
10.0,137605.1,-6.294005,67.3672
21.5,131725.0,-5.281443,67.3697
46.4,127458.6,-5.074626,67.3713
100.0,126005.5,-5.884619,67.367
215.4,119060.3,-3.9837,67.3772
464.2,116240.5,-8.157756,67.383
1000.0,110472.8,-12.61731,67.3853
2154.4,102950.0,-19.4546,67.382
4641.6,88309.23,-32.45488,67.3787
10000.0,61591.26,-49.41631,67.3813
