Frequency,Impedance,Phase Angle,Temperature (Dry Bath)
10.0,18532790.0,-15.70504,68.0196
21.5,20325180.0,-33.83404,68.0196
46.4,21631180.0,-62.3798,68.0196
100.0,6499716.0,-36.77077,68.0196
215.4,4346842.0,-77.17446,68.0196
464.2,2323507.0,-73.2252,68.0196
1000.0,1061686.0,-80.38953,68.0196
2154.4,533062.9,-77.86216,68.0196
4641.6,257422.2,-86.4534,68.0196
10000.0,139152.6,-90.06732,68.0196
