Frequency,Impedance,Phase Angle,Temperature (Dry Bath)
10.0,4987054.0,-4.361062,65.7645
21.544346900318832,5055907.0,19.83317,65.7583
46.41588833612777,6722253.0,-17.57739,65.7557
100.0,815495.5,-105.7026,65.7741
215.44346900318823,16646.35,-158.9642,65.7557
464.15888336127773,4634509.0,89.8258,65.7692
1000.0,559196.0,-44.95968,65.7653
2154.4346900318824,439855.0,-68.31407,65.7616
4641.588833612777,136663.2,-80.99054,65.7509
10000.0,63950.41,-80.7494,65.7538
