Frequency,Impedance,Phase Angle,Temperature (Dry Bath)
10.0,10997.78,-26.18766,70.6522
21.544346900318832,8946.244,-22.82483,70.6337
46.41588833612777,7485.885,-19.64893,70.6527
100.0,6446.84,-15.29011,70.6387
215.44346900318823,5761.67,-14.1477,70.6426
464.15888336127773,5169.864,-12.0253,70.6505
1000.0,4666.54,-10.44337,70.6333
2154.4346900318824,4349.943,-10.27723,70.6433
4641.588833612777,4109.655,-9.86932,70.6295
10000.0,3816.124,-11.02488,70.6332
