Frequency,Impedance,Phase Angle,Temperature (Dry Bath)
10.0,163525.4,-9.262823,66.1146
21.544346900318832,151992.7,-8.269506,66.1077
46.41588833612777,144489.6,-8.002449,66.1147
100.0,118236.7,-4.958513,66.1127
215.44346900318823,149826.9,13.7184,66.111
464.15888336127773,148458.5,-12.17236,66.1111
1000.0,125003.7,-26.93844,66.1141
2154.4346900318824,95149.68,-36.65927,66.1136
4641.588833612777,69460.0,-46.67389,66.104
10000.0,43378.27,-62.2306,66.1055
