Frequency,Impedance,Phase Angle,Temperature (Dry Bath)
10.0,1225673.0,-11.08301,66.344
21.544346900318832,1067370.0,-6.840703,66.3436
46.41588833612777,1057832.0,-16.82724,66.3289
100.0,329135.2,14.78046,66.3396
215.44346900318823,137000.8,-42.90353,66.3458
464.15888336127773,952973.0,-143.8905,66.3374
1000.0,290433.0,-78.06758,66.3385
2154.4346900318824,173687.3,-76.35941,66.3343
4641.588833612777,129377.8,-70.98781,66.3403
10000.0,54994.61,-80.23779,66.3323
