Frequency,Impedance,Phase Angle,Temperature (Dry Bath)
10.0,60375910.0,-29.1281,67.8739
21.5,33700510.0,-30.50753,67.8528
46.4,15573780.0,-58.91991,67.8455
100.0,5242962.0,-62.79039,67.8485
215.4,3417618.0,-80.22649,67.8518
464.2,2225593.0,-78.75409,67.8407
1000.0,940862.3,-74.26274,67.838
2154.4,499794.8,-74.25843,67.8323
4641.6,272774.7,-84.32884,67.8528
10000.0,145335.0,-91.88183,67.8416
