Frequency,Impedance,Phase Angle,Temperature (Dry Bath)
10.0,52002340.0,-33.53782,67.9177
21.5,36546770.0,-36.04806,67.9131
46.4,17361020.0,-42.7279,67.9086
100.0,5088293.0,-28.68195,67.9122
215.4,8537429.0,-103.4207,67.9031
464.2,2897001.0,-87.90929,67.931
1000.0,1279305.0,-84.83089,67.9233
2154.4,637372.9,-89.33436,67.9068
4641.6,338988.6,-92.97769,67.9168
10000.0,141692.1,-92.94946,67.9224
