Frequency,Impedance,Phase Angle,Temperature (Dry Bath)
10.0,20975.51,-22.25094,29.3684
21.544346900318832,17288.52,-23.82396,29.2867
46.41588833612777,13901.87,-25.13194,29.2571
100.0,11135.8,-25.29304,29.4558
215.44346900318823,8900.359,-25.79395,29.4223
464.15888336127773,7127.29,-24.87984,29.3052
1000.0,5718.45,-24.10659,29.4751
2154.4346900318824,4758.971,-21.93005,29.5065
4641.588833612777,3942.721,-19.98775,29.1605
10000.0,3391.434,-18.59193,29.421
