Frequency,Impedance,Phase Angle,Temperature (Dry Bath)
10.0,27735650.0,-18.56038,67.7283
21.5,28136080.0,-28.05371,67.712
46.4,33045260.0,-53.36617,67.6956
100.0,7100012.0,-56.91661,67.7133
215.4,10001520.0,-54.048,67.7209
464.2,2924159.0,-97.82217,67.7181
1000.0,1644722.0,-88.72837,67.7003
2154.4,607060.0,-86.91388,67.7195
4641.6,299160.5,-87.35657,67.6994
10000.0,131304.1,-96.12329,67.6961
