Frequency,Impedance,Phase Angle,Temperature (Dry Bath)
10.0,32889330.0,-23.04587,68.0554
21.5,20541610.0,-24.34103,68.0588
46.4,32457340.0,-46.49064,68.0558
100.0,6277291.0,-72.24806,68.0678
215.4,5572243.0,-100.543,68.0599
464.2,2196833.0,-75.0832,68.0647
1000.0,1323534.0,-84.06376,68.0702
2154.4,667192.3,-87.45815,68.0619
4641.6,276488.6,-88.2351,68.053
10000.0,146039.1,-97.67308,68.0637
