Frequency,Impedance,Phase Angle,Temperature (Dry Bath)
10.0,22907.29,-21.40595,65.761
21.544346900318832,19275.28,-18.45419,65.7648
46.41588833612777,16722.84,-15.47191,65.753
100.0,15426.71,-11.72346,65.7495
215.44346900318823,8182.77,-23.32025,65.7597
464.15888336127773,12619.58,-8.136592,65.7723
1000.0,12151.12,-8.433809,65.7592
2154.4346900318824,11415.7,-7.490596,65.7631
4641.588833612777,10938.64,-9.922019,65.753
10000.0,10210.74,-14.37602,65.7607
