Frequency,Impedance,Phase Angle,Temperature (Dry Bath)
10.0,24750450.0,-7.155271,67.2734
21.5,24214880.0,-29.15177,67.2682
46.4,16259620.0,-60.18162,67.2762
100.0,3977049.0,-71.76756,67.2614
215.4,5784743.0,-77.41751,67.2597
464.2,1910022.0,-85.30262,67.2503
1000.0,965769.6,-81.0114,67.2665
2154.4,481125.7,-84.37448,67.2673
4641.6,241621.7,-80.8269,67.2698
10000.0,117913.1,-80.14623,67.2513
