Frequency,Impedance,Phase Angle,Temperature (Dry Bath)
10.0,139381.9,-5.686891,67.2663
21.5,133934.1,-4.864059,67.2619
46.4,129907.6,-4.485635,67.257
100.0,128726.8,-5.344161,67.2691
215.4,192586.5,32.37187,67.2739
464.2,118676.3,-8.371185,67.2611
1000.0,112173.2,-11.64927,67.2659
2154.4,105606.1,-19.92031,67.2521
4641.6,89991.32,-34.74079,67.2703
10000.0,60980.88,-52.01619,67.2637
