Frequency,Impedance,Phase Angle,Temperature (Dry Bath)
10.0,24103010.0,-17.1096,68.1906
21.5,25344670.0,-30.54395,68.1802
46.4,25771480.0,-44.85292,68.1849
100.0,4505358.0,-39.86704,68.1931
215.4,8511513.0,-85.34254,68.2006
464.2,2743371.0,-94.10094,68.1951
1000.0,1814377.0,-89.31273,68.1945
2154.4,645968.6,-89.54259,68.1938
4641.6,309088.8,-95.00808,68.179
10000.0,148557.7,-95.59005,68.1823
