Frequency,Impedance,Phase Angle,Temperature (Dry Bath)
10.0,29559450.0,-2.867664,68.2813
21.5,24684310.0,-17.27831,68.2813
46.4,13127150.0,-46.79675,68.2813
100.0,7202802.0,-30.06883,68.2813
215.4,6444112.0,-86.58972,68.2813
464.2,2854622.0,-67.07734,68.2813
1000.0,1951638.0,-91.83637,68.2813
2154.4,678389.7,-88.92499,68.2813
4641.6,340710.9,-85.22301,68.2813
10000.0,163984.3,-98.91409,68.2813
