Frequency,Impedance,Phase Angle,Temperature (Dry Bath)
10.0,122838.0,-13.45528,65.8411
21.544346900318832,107828.4,-12.39421,65.8423
46.41588833612777,98739.16,-11.85094,65.8416
100.0,92146.33,-9.775587,65.8611
215.44346900318823,84254.04,-8.419856,65.8411
464.15888336127773,83975.85,-11.53226,65.8315
1000.0,74276.07,-13.41591,65.831
2154.4346900318824,60004.97,-25.02151,65.8479
4641.588833612777,47564.46,-32.98289,65.8328
10000.0,38351.37,-43.72795,65.8261
