Frequency,Impedance,Phase Angle,Temperature (Dry Bath)
10.0,9194.788,-26.13642,71.4967
21.544346900318832,7308.218,-26.5822,71.4954
46.41588833612777,5796.868,-26.35818,71.507
100.0,4628.102,-25.73923,71.4919
215.44346900318823,3734.697,-24.01761,71.5
464.15888336127773,3061.136,-21.84996,71.488
1000.0,2570.541,-19.06336,71.4897
2154.4346900318824,2198.9,-16.50876,71.4876
4641.588833612777,1928.379,-14.03918,71.4834
10000.0,1744.765,-12.06476,71.4985
