Frequency,Impedance,Phase Angle,Temperature (Dry Bath)
10.0,137391.3,-18.7702,66.1929
21.544346900318832,117373.2,-17.79339,66.1826
46.41588833612777,101595.8,-16.11935,66.1712
100.0,73951.44,-22.35655,66.1827
215.44346900318823,85963.26,-8.008026,66.1711
464.15888336127773,76373.52,-16.22132,66.1677
1000.0,58973.96,-19.78443,66.1649
2154.4346900318824,57462.41,-20.7858,66.1618
4641.588833612777,42275.48,-36.57823,66.1828
10000.0,32185.62,-43.6163,66.1697
