Frequency,Impedance,Phase Angle,Temperature (Dry Bath)
10.0,4862409.0,-4.818946,70.7897
21.544346900318832,4155561.0,-4.39014,70.7911
46.41588833612777,3668684.0,-12.01089,70.8263
100.0,653032.1,-7.562328,70.8331
215.44346900318823,882927.2,73.73536,70.8258
464.15888336127773,1439173.0,-105.9123,70.8332
1000.0,683830.1,-108.5476,70.8581
2154.4346900318824,2165771.0,-69.48829,70.8562
4641.588833612777,398861.4,-73.39833,70.8429
10000.0,161346.0,-90.47372,70.8512
