Frequency,Impedance,Phase Angle,Temperature (Dry Bath)
10.0,135061.2,-6.446806,67.1052
21.5,129399.9,-5.398347,67.1165
46.4,124837.2,-5.159644,67.1303
100.0,119561.4,-6.728436,67.1189
215.4,115552.6,-5.783936,67.1326
464.2,113265.3,-8.110839,67.1251
1000.0,107722.5,-12.51332,67.1204
2154.4,100072.6,-20.64058,67.1273
4641.6,82137.2,-33.81604,67.128
10000.0,58907.98,-49.75079,67.1225
