Frequency,Impedance,Phase Angle,Temperature (Dry Bath)
10.0,4803262.0,-6.897811,66.3961
21.544346900318832,4694716.0,-12.96078,66.3934
46.41588833612777,6116202.0,-22.26983,66.385
100.0,792829.1,-118.8141,66.3696
215.44346900318823,224508.1,53.00037,66.3966
464.15888336127773,1909597.0,3.0467,66.3664
1000.0,585263.5,-88.84056,66.3907
2154.4346900318824,319410.1,-101.8922,66.388
4641.588833612777,163875.7,-86.3113,66.3814
10000.0,65981.17,-81.44659,66.3755
