Frequency,Impedance,Phase Angle,Temperature (Dry Bath)
10.0,154696.6,-11.48957,71.1338
21.544346900318832,141194.2,-11.04496,71.1441
46.41588833612777,132319.0,-10.02831,71.1255
100.0,120072.8,-4.697645,71.1355
215.44346900318823,151067.3,-3.488858,71.1401
464.15888336127773,100646.7,-18.6013,71.162
1000.0,93767.67,-27.46629,71.1387
2154.4346900318824,87845.59,-26.56132,71.1573
4641.588833612777,71931.22,-36.58242,71.1348
10000.0,36128.01,-58.99659,71.1437
