Frequency,Impedance,Phase Angle,Temperature (Dry Bath)
10.0,24548220.0,-8.143562,67.3215
21.5,36401900.0,-30.14641,67.3204
46.4,23785200.0,-51.94007,67.3315
100.0,34275080.0,-150.2647,67.3069
215.4,150762500.0,-10.5536,67.3357
464.2,2236374.0,-92.26886,67.34
1000.0,1220256.0,-79.16458,67.3295
2154.4,580563.2,-84.47524,67.3618
4641.6,277652.1,-89.30254,67.3386
10000.0,129281.2,-85.69611,67.3482
