Frequency,Impedance,Phase Angle,Temperature (Dry Bath)
10.0,2088041.0,-10.69508,67.4281
21.5,1960114.0,-11.71216,67.4034
46.4,1753212.0,-14.84024,67.4213
100.0,1665637.0,-12.02153,67.4118
215.4,1499383.0,-13.41236,67.4213
464.2,1041420.0,-39.83001,67.4197
1000.0,644522.2,-55.38703,67.4188
2154.4,358733.1,-62.47885,67.4106
4641.6,202548.5,-69.34924,67.4199
10000.0,108464.6,-72.63263,67.4122
