Frequency,Impedance,Phase Angle,Temperature (Dry Bath)
10.0,9769.518,-26.8955,70.6176
21.544346900318832,7773.54,-26.16312,70.6175
46.41588833612777,6219.561,-24.83459,70.6109
100.0,5033.365,-22.19392,70.612
215.44346900318823,4241.599,-19.88868,70.6207
464.15888336127773,3554.002,-17.90648,70.6179
1000.0,3093.304,-15.1963,70.6237
2154.4346900318824,2781.504,-13.47638,70.5987
4641.588833612777,2518.336,-12.62669,70.6208
10000.0,2329.764,-12.20374,70.613
