Frequency,Impedance,Phase Angle,Temperature (Dry Bath)
10.0,27950870.0,-29.01918,67.3628
21.5,18671350.0,-34.47282,67.3324
46.4,11655110.0,-51.65388,67.3594
100.0,4082938.0,-28.70554,67.3675
215.4,510895.7,127.8497,67.3672
464.2,1515731.0,-72.13648,67.3278
1000.0,792700.5,-76.13339,67.3559
2154.4,399744.9,-74.17222,67.3318
4641.6,232272.3,-74.07124,67.3767
10000.0,118844.2,-79.28001,67.3601
