Frequency,Impedance,Phase Angle,Temperature (Dry Bath)
10.0,3245335.0,-28.15488,66.5
21.544346900318832,5786374.0,-20.75438,66.5
46.41588833612777,4139823.0,-20.93163,66.5
100.0,4641231.0,12.56828,66.5
215.44346900318823,2028792.0,96.69342,66.5
464.15888336127773,2542334.0,-46.04062,66.5
1000.0,1001692.0,-13.48874,66.5
2154.4346900318824,496074.7,-33.40007,66.5
4641.588833612777,513056.4,-85.97487,66.5
10000.0,225917.4,-68.15393,66.5
