Frequency,Impedance,Phase Angle,Temperature (Dry Bath)
10.0,3755329.0,-16.26976,66.3692
21.544346900318832,3630249.0,-8.460458,66.3508
46.41588833612777,3960673.0,-17.45619,66.3523
100.0,217307.8,94.99712,66.3488
215.44346900318823,347370.0,-85.08395,66.3482
464.15888336127773,4267328.0,137.9214,66.3371
1000.0,550211.0,-92.8265,66.3475
2154.4346900318824,239532.9,-75.43778,66.344
4641.588833612777,175008.6,-94.34935,66.3508
10000.0,71883.18,-92.1576,66.3489
