Frequency,Impedance,Phase Angle,Temperature (Dry Bath)
10.0,137369.3,-25.63937,66.9412
21.5,111450.3,-22.54826,66.929
46.4,95269.91,-19.50875,66.9453
100.0,82269.15,-17.45342,66.9335
215.4,72722.02,11.19685,66.956
464.2,67319.23,-13.99544,66.954
1000.0,61049.59,-15.1866,66.9249
2154.4,55430.28,-19.26605,66.9539
4641.6,48627.96,-26.28778,66.9337
10000.0,39235.14,-38.67181,66.9442
