Frequency,Impedance,Phase Angle,Temperature (Dry Bath)
10.0,8292097.0,-9.045179,68.0627
21.5,9518769.0,-17.4966,68.0569
46.4,11050440.0,-35.88685,68.0551
100.0,3998770.0,-32.68239,68.0849
215.4,3850455.0,-63.8817,68.0565
464.2,1702509.0,-76.03003,68.0659
1000.0,862163.5,-81.92041,68.0571
2154.4,453037.5,-81.04803,68.0573
4641.6,214536.6,-84.89877,68.0493
10000.0,121180.4,-89.39456,68.0707
