Frequency,Impedance,Phase Angle,Temperature (Dry Bath)
10.0,30148480.0,-9.065997,68.0542
21.5,32904660.0,-27.63749,68.0426
46.4,32422780.0,-58.0204,68.0543
100.0,9546905.0,-40.69225,68.0677
215.4,3421745.0,-75.79875,68.0579
464.2,2524864.0,-86.27476,68.047
1000.0,1038261.0,-78.76138,68.0542
2154.4,510871.0,-80.55052,68.0356
4641.6,259208.5,-78.33818,68.0543
10000.0,138186.1,-91.33269,68.0361
