Frequency,Impedance,Phase Angle,Temperature (Dry Bath)
10.0,130337.4,-24.97273,67.2981
21.5,108918.4,-22.10195,67.2888
46.4,93195.81,-19.27206,67.2876
100.0,78869.49,-15.97397,67.2995
215.4,70080.31,11.26439,67.2849
464.2,68293.73,-14.49107,67.2938
1000.0,60825.64,-16.12784,67.2965
2154.4,55387.5,-18.13135,67.3027
4641.6,48900.05,-24.73586,67.3008
10000.0,40151.52,-36.07863,67.2901
