Frequency,Impedance,Phase Angle,Temperature (Dry Bath)
10.0,34153350.0,-6.633215,67.4821
21.5,21355260.0,-52.25561,67.4958
46.4,14357690.0,-66.81162,67.4887
100.0,24217430.0,87.72345,67.4886
215.4,148154.2,-95.86146,67.4868
464.2,2185682.0,-75.05475,67.4937
1000.0,816549.6,-77.02584,67.4792
2154.4,414134.1,-74.37281,67.4969
4641.6,232997.3,-79.06185,67.4782
10000.0,119882.8,-80.00187,67.4704
