Frequency,Impedance,Phase Angle,Temperature (Dry Bath)
10.0,17812110.0,-31.73506,68.1258
21.5,13815250.0,-35.51493,68.1029
46.4,11583740.0,-54.76882,68.107
100.0,8080109.0,-33.75146,68.1122
215.4,3806875.0,-57.15758,68.1138
464.2,2317492.0,-93.70506,68.1125
1000.0,1055247.0,-79.16,68.1064
2154.4,539709.7,-89.87114,68.0962
4641.6,254247.8,-90.33231,68.1085
10000.0,117363.5,-94.81721,68.1096
