Frequency,Impedance,Phase Angle,Temperature (Dry Bath)
10.0,588948.0,-11.15044,68.1212
21.5,537370.4,-10.91636,68.1371
46.4,491055.7,-11.75353,68.1168
100.0,446970.8,-13.21762,68.1068
215.4,408052.2,-18.98381,68.1191
464.2,346891.6,-23.24666,68.1338
1000.0,288531.3,-28.14741,68.1107
2154.4,216450.7,-38.97444,68.1251
4641.6,159537.6,-47.13952,68.121
10000.0,114147.4,-62.61914,68.1323
