Frequency,Impedance,Phase Angle,Temperature (Dry Bath)
10.0,7683.97,-35.82611,71.5012
21.544346900318832,5800.176,-31.40536,71.4705
46.41588833612777,4542.045,-27.10057,71.4812
100.0,3701.42,-22.74235,71.48
215.44346900318823,3108.87,-19.10173,71.482
464.15888336127773,2702.581,-15.90278,71.4856
1000.0,2385.612,-13.27725,71.4791
2154.4346900318824,2185.048,-11.22534,71.4859
4641.588833612777,2005.581,-9.895111,71.4828
10000.0,1873.202,-9.131244,71.4896
