Frequency,Impedance,Phase Angle,Temperature (Dry Bath)
10.0,5916690.0,29.60544,70.6111
21.544346900318832,4369147.0,-29.59236,70.5871
46.41588833612777,4723271.0,-40.31333,70.5897
100.0,815187.7,-56.85744,70.5941
215.44346900318823,3030868.0,-151.5468,70.5986
464.15888336127773,692105.8,-34.33367,70.6069
1000.0,564707.1,-125.0772,70.5861
2154.4346900318824,352681.1,-88.59831,70.6024
4641.588833612777,132673.7,-79.83471,70.61
10000.0,56012.51,-86.92991,70.5823
