Frequency,Impedance,Phase Angle,Temperature (Dry Bath)
10.0,38304020.0,-20.87223,67.7566
21.5,33480830.0,-37.6936,67.7653
46.4,10280500.0,-63.44613,67.7684
100.0,5249621.0,-51.14335,67.766
215.4,4126616.0,-77.71237,67.7589
464.2,1717491.0,-74.75254,67.7552
1000.0,1040886.0,-73.38962,67.7712
2154.4,516152.1,-83.23668,67.7595
4641.6,254820.2,-83.59542,67.7571
10000.0,115725.1,-92.46507,67.7714
