Frequency,Impedance,Phase Angle,Temperature (Dry Bath)
10.0,27440540.0,-18.96738,67.9009
21.5,32520430.0,-39.73693,67.8903
46.4,20633670.0,-60.98697,67.8903
100.0,7747256.0,-86.33616,67.9013
215.4,4681022.0,-54.7085,67.8899
464.2,1547511.0,-87.99589,67.8846
1000.0,931645.2,-76.94375,67.8914
2154.4,518435.9,-79.23925,67.9089
4641.6,284153.1,-80.86636,67.8936
10000.0,151630.3,-89.87475,67.8834
