Frequency,Impedance,Phase Angle,Temperature (Dry Bath)
10.0,29112270.0,-28.10452,67.4179
21.5,18719920.0,-33.64118,67.4248
46.4,16318290.0,-92.59664,67.4265
100.0,3560932.0,-48.47052,67.4394
215.4,207919.2,-63.60863,67.4286
464.2,1333764.0,-82.95801,67.4256
1000.0,726731.6,-71.68881,67.4385
2154.4,427179.6,-77.57037,67.4196
4641.6,229254.7,-77.82214,67.4312
10000.0,117690.1,-79.98942,67.4273
