Frequency,Impedance,Phase Angle,Temperature (Dry Bath)
10.0,307587.4,-7.691711,67.279
21.5,291886.9,-7.755417,67.2642
46.4,275289.9,-7.901884,67.2859
100.0,257036.7,-8.034726,67.2779
215.4,241646.4,-12.77742,67.2859
464.2,241646.4,-12.75636,67.2841
1000.0,219238.2,-16.392,67.2935
2154.4,183728.6,-30.40853,67.2752
4641.6,141774.9,-43.27482,67.2902
10000.0,89053.81,-59.18006,67.2833
