Frequency,Impedance,Phase Angle,Temperature (Dry Bath)
10.0,7056581.0,-23.25831,65.6701
21.544346900318832,3936570.0,-25.43745,65.6733
46.41588833612777,4301648.0,-18.82951,65.6738
100.0,767536.4,-150.8703,65.6371
215.44346900318823,17802.36,42.07932,65.6615
464.15888336127773,795050.3,-106.2012,65.6762
1000.0,400188.2,-98.83821,65.6629
2154.4346900318824,260509.1,-64.21355,65.6675
4641.588833612777,160420.9,-92.91162,65.6711
10000.0,69565.17,-79.84845,65.6675
