Frequency,Impedance,Phase Angle,Temperature (Dry Bath)
10.0,27858920.0,-0.3254937,67.3256
21.5,28639380.0,-23.36033,67.3374
46.4,13880720.0,-60.87307,67.3298
100.0,13381530.0,-108.173,67.3274
215.4,2853247.0,-32.49887,67.3507
464.2,1601310.0,-86.43187,67.331
1000.0,872337.9,-78.98364,67.3361
2154.4,464128.5,-85.60962,67.3427
4641.6,229183.3,-80.79563,67.3363
10000.0,111462.4,-83.48248,67.3441
