Frequency,Impedance,Phase Angle,Temperature (Dry Bath)
10.0,26000260.0,-18.5826,67.3669
21.5,29717670.0,-37.74996,67.3878
46.4,20205470.0,-55.4035,67.3878
100.0,5833999.0,20.5937,67.3798
215.4,9444072.0,-5.419533,67.3797
464.2,2321864.0,-83.44222,67.388
1000.0,1133928.0,-95.89566,67.3661
2154.4,599752.2,-88.21833,67.3835
4641.6,274373.1,-84.88128,67.3696
10000.0,129706.7,-86.24909,67.373
