Frequency,Impedance,Phase Angle,Temperature (Dry Bath)
10.0,21046700.0,-15.68757,68.0838
21.5,25241460.0,-15.07473,68.0798
46.4,23479630.0,-44.10608,68.0957
100.0,4454366.0,-79.99781,68.1065
215.4,12352490.0,-146.6916,68.0685
464.2,2921867.0,-87.42001,68.0862
1000.0,1422933.0,-87.59168,68.0969
2154.4,668098.4,-89.10414,68.0947
4641.6,314305.8,-87.33406,68.0693
10000.0,151118.6,-92.3171,68.0715
