Frequency,Impedance,Phase Angle,Temperature (Dry Bath)
10.0,41762830.0,-45.23942,67.9365
21.5,41478330.0,-27.36252,67.9244
46.4,25665290.0,-55.09974,67.9372
100.0,15669070.0,-20.05142,67.9409
215.4,4039698.0,-72.28256,67.9085
464.2,2281764.0,-89.90331,67.9231
1000.0,1028938.0,-86.1296,67.9343
2154.4,527971.1,-80.08351,67.9333
4641.6,270466.8,-78.09536,67.9292
10000.0,148538.7,-90.83909,67.9409
