Frequency,Impedance,Phase Angle,Temperature (Dry Bath)
10.0,2050030.0,-10.66264,67.3232
21.5,1919679.0,-12.58086,67.3178
46.4,1750174.0,-18.85797,67.2954
100.0,1928518.0,-31.51987,67.2853
215.4,327839.8,-60.63617,67.297
464.2,928677.6,-37.06071,67.311
1000.0,630224.6,-51.74858,67.3044
2154.4,369097.1,-68.24476,67.3087
4641.6,198209.4,-71.7078,67.3145
10000.0,106613.3,-73.62892,67.3042
