Frequency,Impedance,Phase Angle,Temperature (Dry Bath)
10.0,1307268.0,-10.76966,67.9468
21.5,1202718.0,-10.44951,67.9432
46.4,1036273.0,-12.25064,67.9424
100.0,849638.3,-16.8274,67.9676
215.4,792160.3,-20.1977,67.9538
464.2,654145.7,-30.19989,67.9648
1000.0,562437.6,-39.67384,67.9472
2154.4,374244.8,-46.97223,67.9485
4641.6,240171.1,-61.08777,67.9391
10000.0,139890.0,-71.66497,67.952
