Frequency,Impedance,Phase Angle,Temperature (Dry Bath)
10.0,139488.9,-5.731267,67.4563
21.5,134541.8,-4.778672,67.4559
46.4,130709.5,-5.000229,67.4475
100.0,122846.4,-5.992363,67.4527
215.4,159984.3,16.20828,67.4695
464.2,122993.4,-7.492,67.4569
1000.0,112889.3,-11.81366,67.465
2154.4,106495.2,-19.42528,67.443
4641.6,88903.92,-31.96745,67.4321
10000.0,62861.02,-50.64911,67.4434
