Frequency,Impedance,Phase Angle,Temperature (Dry Bath)
10.0,1234319.0,-10.9494,68.3447
21.5,1192784.0,-11.1286,68.3419
46.4,1107047.0,-13.01263,68.345
100.0,865274.4,-17.81394,68.3331
215.4,847963.0,-20.55081,68.3363
464.2,693024.1,-29.91244,68.3304
1000.0,526212.0,-40.91559,68.3418
2154.4,352169.4,-50.96983,68.3419
4641.6,217269.2,-60.76348,68.3445
10000.0,129469.8,-72.56496,68.3428
