Frequency,Impedance,Phase Angle,Temperature (Dry Bath)
10.0,7722.868,-27.72173,70.8385
21.544346900318832,6110.128,-26.4699,70.8423
46.41588833612777,4891.969,-24.68585,70.838
100.0,3954.714,-21.92757,70.8502
215.44346900318823,3321.739,-19.46582,70.8483
464.15888336127773,2863.009,-16.56556,70.8433
1000.0,2503.236,-14.3052,70.8592
2154.4346900318824,2258.059,-12.2388,70.8579
4641.588833612777,2077.041,-11.08949,70.8629
10000.0,1915.405,-10.66584,70.8654
