Frequency,Impedance,Phase Angle,Temperature (Dry Bath)
10.0,74744.53,-14.55913,71.4816
21.544346900318832,66952.53,-13.46296,71.4741
46.41588833612777,60898.53,-11.76171,71.4825
100.0,51003.8,-9.151779,71.4765
215.44346900318823,51135.6,-12.83733,71.4944
464.15888336127773,50132.32,-7.51833,71.4832
1000.0,45240.75,-10.59577,71.4886
2154.4346900318824,40652.52,-12.46653,71.4804
4641.588833612777,39471.16,-16.83571,71.4942
10000.0,33911.45,-23.215,71.4882
