Frequency,Impedance,Phase Angle,Temperature (Dry Bath)
10.0,23813280.0,-35.00122,67.4817
21.5,27234490.0,-42.31765,67.4862
46.4,13680100.0,-58.76828,67.4845
100.0,1610764.0,63.58559,67.4829
215.4,125881.0,-36.59225,67.4777
464.2,2409577.0,-75.24017,67.4789
1000.0,747868.5,-69.09237,67.4669
2154.4,462803.8,-76.13225,67.4806
4641.6,233831.8,-79.79081,67.4862
10000.0,120012.0,-80.86475,67.4591
