Frequency,Impedance,Phase Angle,Temperature (Dry Bath)
10.0,31687280.0,-31.87883,67.2288
21.5,23181110.0,-31.963,67.2041
46.4,18190780.0,-46.00862,67.2057
100.0,5445900.0,-80.00195,67.2268
215.4,83317.49,177.7345,67.2197
464.2,4284467.0,-63.34376,67.218
1000.0,1157018.0,-89.94463,67.2152
2154.4,576115.0,-88.46901,67.2335
4641.6,270567.5,-87.10689,67.2187
10000.0,128751.6,-87.31262,67.2248
