Frequency,Impedance,Phase Angle,Temperature (Dry Bath)
10.0,5451441.0,6.922373,65.6984
21.544346900318832,6513086.0,-9.374679,65.6993
46.41588833612777,6276234.0,-21.79618,65.6893
100.0,82800.82,-16.74084,65.695
215.44346900318823,466003.7,-171.6325,65.6928
464.15888336127773,737502.4,-49.27995,65.691
1000.0,493343.8,1.085319,65.6905
2154.4346900318824,520196.7,-77.34232,65.699
4641.588833612777,206073.9,-75.07073,65.6938
10000.0,78518.27,-97.62048,65.6908
