Frequency,Impedance,Phase Angle,Temperature (Dry Bath)
10.0,32194950.0,3.064804,67.8443
21.5,30826480.0,-29.1953,67.8493
46.4,32715990.0,-49.90073,67.8362
100.0,7603666.0,-43.94408,67.861
215.4,4066971.0,-82.66112,67.849
464.2,2968478.0,-94.78217,67.8554
1000.0,1323520.0,-83.4391,67.8537
2154.4,672799.1,-92.32164,67.8534
4641.6,351035.5,-95.43326,67.8562
10000.0,166410.5,-96.16865,67.8538
