Frequency,Impedance,Phase Angle,Temperature (Dry Bath)
10.0,43448660.0,-11.70693,68.0529
21.5,45059910.0,-35.44462,68.0387
46.4,21768370.0,-61.71342,68.0378
100.0,5382873.0,-66.12756,68.0543
215.4,2768795.0,-82.84346,68.0431
464.2,1333938.0,-67.05758,68.0403
1000.0,940075.0,-79.61376,68.0404
2154.4,521557.0,-79.05398,68.0357
4641.6,277487.0,-85.03915,68.0341
10000.0,132862.2,-90.93935,68.0427
