Frequency,Impedance,Phase Angle,Temperature (Dry Bath)
10.0,19070340.0,-26.00523,17.6289
21.5,24702920.0,-42.73968,17.6366
46.4,17274230.0,-60.78402,17.6007
100.0,4746845.0,-53.61162,17.6144
215.4,3054824.0,-70.21191,17.6238
464.2,1489847.0,-88.58118,17.6227
1000.0,790852.4,-75.85197,17.6148
2154.4,449465.3,-76.64233,17.6232
4641.6,280370.0,-77.57534,17.6296
10000.0,132714.3,-87.20577,17.6203
