Frequency,Impedance,Phase Angle,Temperature (Dry Bath)
10.0,22867930.0,-20.26,67.3953
21.5,20841240.0,-28.49231,67.4
46.4,13237320.0,-58.71694,67.3883
100.0,6058261.0,20.76164,67.4013
215.4,3975965.0,-76.47758,67.3941
464.2,2235724.0,-76.75674,67.3899
1000.0,965408.9,-84.71966,67.3966
2154.4,459728.0,-85.24645,67.3835
4641.6,234784.9,-82.77882,67.3906
10000.0,113562.7,-83.81152,67.3868
