Frequency,Impedance,Phase Angle,Temperature (Dry Bath)
10.0,46908320.0,-27.03354,67.9097
21.5,46377630.0,-26.02062,67.9135
46.4,13988770.0,-54.86138,67.9145
100.0,6054021.0,-61.63617,67.9112
215.4,3351555.0,-73.1615,67.9191
464.2,1647323.0,-81.53547,67.9091
1000.0,1082889.0,-78.14908,67.9053
2154.4,540012.1,-80.38877,67.8984
4641.6,272531.2,-84.398,67.9189
10000.0,126837.3,-92.40351,67.9047
