Frequency,Impedance,Phase Angle,Temperature (Dry Bath)
10.0,9698401.0,11.53363,71.3027
21.544346900318832,4311532.0,-13.52392,71.3005
46.41588833612777,3398877.0,-34.41441,71.3047
100.0,1153988.0,-130.011,71.2971
215.44346900318823,13650.86,-9.760448,71.3053
464.15888336127773,1115582.0,4.672929,71.2991
1000.0,805012.0,-66.84675,71.3039
2154.4346900318824,265589.4,-108.4448,71.3115
4641.588833612777,160143.0,-99.03233,71.304
10000.0,69596.85,-90.90766,71.3015
