Frequency,Impedance,Phase Angle,Temperature (Dry Bath)
10.0,21305490.0,-17.7076,68.0521
21.5,23302320.0,-29.80244,68.0521
46.4,20768550.0,-59.8733,68.0521
100.0,5419331.0,-49.56162,68.0521
215.4,4254131.0,-85.25528,68.0521
464.2,1833266.0,-78.32559,68.0521
1000.0,994823.2,-72.4232,68.0521
2154.4,540258.6,-80.42112,68.0521
4641.6,260488.2,-81.32171,68.0521
10000.0,144263.8,-87.27417,68.0521
