Frequency,Impedance,Phase Angle,Temperature (Dry Bath)
10.0,573472.4,-11.20414,68.184
21.5,530643.2,-11.03476,68.1878
46.4,486922.3,-11.74706,68.184
100.0,436006.8,-13.22985,68.1905
215.4,390504.7,-18.07117,68.1888
464.2,344345.9,-19.53783,68.1972
1000.0,290689.3,-27.15047,68.1691
2154.4,224789.9,-37.10989,68.1967
4641.6,163621.3,-47.22941,68.2011
10000.0,107093.8,-59.57327,68.1924
