Frequency,Impedance,Phase Angle,Temperature (Dry Bath)
10.0,4502841.0,-0.9086593,71.4775
21.544346900318832,5757120.0,11.46579,71.498
46.41588833612777,4810782.0,-25.82737,71.4804
100.0,289980.9,57.96232,71.4848
215.44346900318823,1042781.0,178.6156,71.5013
464.15888336127773,503746.7,-87.15848,71.4795
1000.0,1380559.0,-112.3171,71.4828
2154.4346900318824,271423.9,-80.02635,71.4965
4641.588833612777,298338.9,-86.26289,71.4959
10000.0,94720.2,-90.14841,71.4859
