Frequency,Impedance,Phase Angle,Temperature (Dry Bath)
10.0,33552850.0,-20.01819,68.3588
21.5,17076770.0,-31.34929,68.372
46.4,11358150.0,-47.20238,68.359
100.0,5749744.0,-11.86652,68.3604
215.4,2711979.0,-68.87677,68.3755
464.2,2008858.0,-73.26325,68.3828
1000.0,827564.9,-77.7984,68.3847
2154.4,457260.6,-83.83083,68.372
4641.6,226457.3,-84.3906,68.3875
10000.0,114166.3,-87.38875,68.3718
