Frequency,Impedance,Phase Angle,Temperature (Dry Bath)
10.0,134744.1,-6.36321,67.0575
21.5,128964.4,-5.386478,67.0581
46.4,124652.4,-5.071999,67.0674
100.0,121790.3,-4.462379,67.0701
215.4,116023.6,-6.718954,67.0669
464.2,112980.0,-8.465948,67.085
1000.0,103790.1,-13.85057,67.0762
2154.4,98734.93,-18.99413,67.0737
4641.6,83808.37,-33.17074,67.0699
10000.0,59093.92,-49.90729,67.0793
