Frequency,Impedance,Phase Angle,Temperature (Dry Bath)
10.0,16854230.0,-37.71417,68.0852
21.5,23856730.0,-36.95118,68.0768
46.4,27338120.0,-61.37388,68.0787
100.0,8797357.0,-44.76593,68.0862
215.4,3240708.0,-82.21447,68.0876
464.2,1794708.0,-70.55136,68.0866
1000.0,949008.1,-79.8774,68.0745
2154.4,523283.7,-87.93321,68.079
4641.6,262265.2,-85.84407,68.0707
10000.0,118396.8,-90.89148,68.0837
