Frequency,Impedance,Phase Angle,Temperature (Dry Bath)
10.0,240324.6,-15.42932,66.6
21.544346900318832,231676.6,-17.4596,66.6
46.41588833612777,202620.3,-17.11921,66.6
100.0,127295.1,-11.45987,66.6
215.44346900318823,179690.8,-30.71062,66.6
464.15888336127773,131572.0,-9.872169,66.6
1000.0,113359.5,-1.299588,66.6
2154.4346900318824,114269.4,-14.47723,66.6
4641.588833612777,110090.7,-19.18071,66.6
10000.0,71379.09,-37.28097,66.6
