Frequency,Impedance,Phase Angle,Temperature (Dry Bath)
10.0,31807980.0,-11.28728,67.3231
21.5,30392670.0,-58.16885,67.3162
46.4,17015810.0,-53.05599,67.3301
100.0,6934410.0,-64.29565,67.3186
215.4,3184593.0,-95.93857,67.3352
464.2,1561340.0,-75.18419,67.3336
1000.0,905420.1,-87.78305,67.3385
2154.4,483820.7,-85.33066,67.317
4641.6,233213.9,-85.70675,67.3113
10000.0,110000.5,-82.85134,67.3203
