Frequency,Impedance,Phase Angle,Temperature (Dry Bath)
10.0,22705540.0,-19.24596,67.3256
21.5,23382110.0,-39.34797,67.3202
46.4,12877820.0,-50.30116,67.3149
100.0,5896435.0,-51.89951,67.3174
215.4,369478.2,48.75967,67.3249
464.2,1489738.0,-82.31952,67.3296
1000.0,894811.4,-78.67127,67.3
2154.4,483229.5,-82.37477,67.3131
4641.6,232401.9,-82.58404,67.3018
10000.0,110208.3,-83.77657,67.3021
