Frequency,Impedance,Phase Angle,Temperature (Dry Bath)
10.0,14464.82,-19.70056,71.3677
21.544346900318832,12467.57,-16.8525,71.3706
46.41588833612777,10980.41,-14.71812,71.3733
100.0,9797.656,-12.15597,71.3841
215.44346900318823,9024.889,-11.31108,71.3859
464.15888336127773,8237.506,-10.2104,71.3717
1000.0,7468.184,-9.945528,71.3768
2154.4346900318824,7093.238,-10.27308,71.3895
4641.588833612777,6534.299,-9.813224,71.3697
10000.0,6192.522,-12.3966,71.3861
