Frequency,Impedance,Phase Angle,Temperature (Dry Bath)
10.0,27954750.0,-15.54317,67.217
21.5,21026150.0,-26.7611,67.2171
46.4,13982960.0,-61.20013,67.2098
100.0,6231725.0,-37.30661,67.2317
215.4,26403250.0,-115.4428,67.213
464.2,1584315.0,-85.04898,67.2063
1000.0,896833.9,-85.83261,67.2195
2154.4,444838.4,-82.73202,67.2058
4641.6,227475.8,-80.51684,67.208
10000.0,107287.5,-83.73338,67.1967
