Frequency,Impedance,Phase Angle,Temperature (Dry Bath)
10.0,26533070.0,-11.9234,67.2362
21.5,22386930.0,-36.17106,67.2365
46.4,12780110.0,-56.56495,67.2277
100.0,4477520.0,-57.66946,67.2431
215.4,4513846.0,-80.41075,67.2469
464.2,1332912.0,-83.29112,67.2595
1000.0,891261.1,-73.77614,67.2375
2154.4,419528.8,-81.53085,67.254
4641.6,210476.4,-81.50691,67.2427
10000.0,109602.1,-85.06513,67.2468
