Frequency,Impedance,Phase Angle,Temperature (Dry Bath)
10.0,131419.9,-25.26752,67.1137
21.5,109065.0,-22.08615,67.1011
46.4,93743.58,-18.9383,67.0903
100.0,81576.26,-15.57125,67.1074
215.4,74406.07,-15.27752,67.101
464.2,67506.54,-13.49711,67.1107
1000.0,61459.13,-14.78058,67.127
2154.4,55912.77,-17.95003,67.1188
4641.6,48455.97,-24.97889,67.0934
10000.0,39986.35,-37.0528,67.1067
