Frequency,Impedance,Phase Angle,Temperature (Dry Bath)
10.0,7428074.0,-16.68569,66.3448
21.544346900318832,7595397.0,1.396895,66.3424
46.41588833612777,6635578.0,-22.06772,66.3449
100.0,1012704.0,97.21104,66.3578
215.44346900318823,376575.5,-136.4744,66.348
464.15888336127773,1144843.0,-16.51158,66.3734
1000.0,413983.2,-88.52535,66.3643
2154.4346900318824,405449.0,-77.25516,66.3571
4641.588833612777,144685.6,-82.48963,66.3584
10000.0,62684.88,-82.08009,66.3578
