Frequency,Impedance,Phase Angle,Temperature (Dry Bath)
10.0,46504010.0,-32.60921,68.2813
21.5,37927720.0,-37.95057,68.2813
46.4,16899730.0,-61.46582,68.2813
100.0,15764660.0,-63.85329,68.2813
215.4,7651749.0,-88.70615,68.2813
464.2,2482326.0,-75.41001,68.2813
1000.0,1063074.0,-84.9827,68.2813
2154.4,479589.9,-85.65194,68.2813
4641.6,228600.5,-88.25875,68.2813
10000.0,114374.0,-90.99568,68.2813
