Frequency,Impedance,Phase Angle,Temperature (Dry Bath)
10.0,4017922.0,-6.367424,71.3549
21.544346900318832,4321532.0,-25.00015,71.382
46.41588833612777,4378279.0,-20.84335,71.3733
100.0,1628994.0,-1.636594,71.375
215.44346900318823,404527.3,-111.6549,71.3676
464.15888336127773,3087833.0,-122.7312,71.3564
1000.0,543926.3,-53.82001,71.3545
2154.4346900318824,216834.2,-75.79508,71.3514
4641.588833612777,108115.0,-91.50755,71.35
10000.0,57775.57,-83.61242,71.3565
