Frequency,Impedance,Phase Angle,Temperature (Dry Bath)
10.0,1434419.0,-7.72591,67.2995
21.5,1356619.0,-8.967092,67.3232
46.4,1260323.0,-11.45911,67.3231
100.0,875307.6,-19.45062,67.3281
215.4,1258986.0,-17.24636,67.3063
464.2,1091689.0,-27.38987,67.3232
1000.0,608482.1,-47.0637,67.3321
2154.4,353695.1,-65.73424,67.3341
4641.6,199283.4,-69.44165,67.3148
10000.0,101426.2,-74.39814,67.3213
