Frequency,Impedance,Phase Angle,Temperature (Dry Bath)
10.0,131879.9,-17.58545,65.6861
21.544346900318832,113759.8,-16.76876,65.6936
46.41588833612777,99405.4,-16.16259,65.6823
100.0,108171.6,-10.59751,65.6943
215.44346900318823,110008.8,-21.29559,65.6867
464.15888336127773,74106.69,-15.11357,65.6989
1000.0,55577.27,-25.55528,65.6799
2154.4346900318824,56614.89,-29.30126,65.6716
4641.588833612777,42198.89,-32.8092,65.6857
10000.0,32305.67,-44.92273,65.6967
