Frequency,Impedance,Phase Angle,Temperature (Dry Bath)
10.0,349811.9,-6.666406,67.1594
21.5,334017.3,-6.163202,67.1418
46.4,322321.8,-6.797864,67.1587
100.0,321783.5,-4.186714,67.1641
215.4,292452.5,9.113843,67.1608
464.2,281625.4,-11.28648,67.1643
1000.0,257290.6,-20.56218,67.1492
2154.4,237810.0,-31.59547,67.1594
4641.6,168977.6,-47.37509,67.1506
10000.0,96565.98,-63.9183,67.1656
