Frequency,Impedance,Phase Angle,Temperature (Dry Bath)
10.0,3930666.0,-12.08072,65.7122
21.544346900318832,9684414.0,21.6347,65.716
46.41588833612777,4987472.0,-5.418591,65.7318
100.0,3169435.0,-97.86181,65.7126
215.44346900318823,15178.17,-18.81527,65.7317
464.15888336127773,573219.8,-37.94101,65.7078
1000.0,338530.6,-63.98598,65.7272
2154.4346900318824,206068.8,-91.2655,65.7225
4641.588833612777,139165.1,-98.40625,65.7299
10000.0,69733.36,-91.5003,65.7223
