Frequency,Impedance,Phase Angle,Temperature (Dry Bath)
10.0,4359040.0,19.6974,71.5055
21.544346900318832,4790995.0,10.85262,71.5104
46.41588833612777,3831531.0,-36.17455,71.5032
100.0,454513.8,97.94319,71.5062
215.44346900318823,841551.4,-102.3633,71.5067
464.15888336127773,1369110.0,-92.25882,71.4945
1000.0,530528.3,-155.1607,71.5128
2154.4346900318824,267939.7,-91.83376,71.4978
4641.588833612777,142122.8,-81.24528,71.5069
10000.0,57241.57,-96.47622,71.5032
