Frequency,Impedance,Phase Angle,Temperature (Dry Bath)
10.0,20317090.0,-6.954439,67.9144
21.5,35120610.0,-30.33737,67.9154
46.4,29055960.0,-35.14847,67.9225
100.0,5749839.0,-30.73287,67.9249
215.4,6604426.0,-91.98602,67.9315
464.2,5149529.0,-109.4097,67.9319
1000.0,1514920.0,-79.52342,67.9303
2154.4,749173.8,-96.56331,67.9197
4641.6,315635.4,-91.36884,67.9115
10000.0,152772.4,-92.97221,67.9087
