Frequency,Impedance,Phase Angle,Temperature (Dry Bath)
10.0,12328.18,-4.281482,67.133
21.5,12043.89,-3.701684,67.1213
46.4,11722.44,-2.946822,67.1299
100.0,11654.09,-3.373611,67.1297
215.4,11450.37,-3.103252,67.1294
464.2,11280.84,-3.352643,67.1322
1000.0,11003.45,-3.658418,67.1045
2154.4,10788.37,-4.256763,67.1397
4641.6,10577.4,-6.060231,67.1229
10000.0,10294.75,-9.506777,67.1375
