Frequency,Impedance,Phase Angle,Temperature (Dry Bath)
10.0,4060274.0,5.207675,67.3
21.544346900318832,6611553.0,21.37853,67.3
46.41588833612777,7151259.0,0.8944377,67.3
100.0,4595089.0,-12.20898,67.3
215.44346900318823,2949444.0,51.39573,67.3
464.15888336127773,3572926.0,-0.4035804,67.3
1000.0,1945514.0,-53.41007,67.3
2154.4346900318824,3021167.0,-46.3515,67.3
4641.588833612777,9925812.0,-83.52086,67.3
10000.0,8236607.0,-40.23422,67.3
