Frequency,Impedance,Phase Angle,Temperature (Dry Bath)
10.0,26174780.0,-22.52148,67.4667
21.5,22081370.0,-32.46525,67.4635
46.4,15241210.0,-58.72601,67.4524
100.0,8845217.0,-113.9572,67.4444
215.4,24814280.0,-165.6275,67.4652
464.2,1724814.0,-77.63857,67.4568
1000.0,982378.2,-74.79704,67.4523
2154.4,536208.1,-79.59871,67.448
4641.6,229167.4,-82.87124,67.4654
10000.0,111789.8,-84.22448,67.4633
