Frequency,Impedance,Phase Angle,Temperature (Dry Bath)
10.0,3273155.0,-14.68655,71.198
21.544346900318832,3066212.0,-18.58024,71.1921
46.41588833612777,2605259.0,-19.39976,71.2
100.0,818821.2,-28.87445,71.2046
215.44346900318823,633829.7,-93.67215,71.201
464.15888336127773,999602.9,-118.9859,71.1955
1000.0,815189.9,-23.45892,71.1834
2154.4346900318824,329306.0,-70.02467,71.1945
4641.588833612777,186889.4,-91.63527,71.2062
10000.0,96913.63,-86.97781,71.2028
