Frequency,Impedance,Phase Angle,Temperature (Dry Bath)
10.0,7366429.0,-9.625542,70.9117
21.544346900318832,6112173.0,-6.206767,70.9097
46.41588833612777,3542633.0,-22.4285,70.9193
100.0,583500.2,-128.665,70.9166
215.44346900318823,1889820.0,-95.80616,70.9121
464.15888336127773,6737793.0,109.2401,70.9097
1000.0,414256.4,-61.98514,70.9137
2154.4346900318824,378909.4,-98.55348,70.9171
4641.588833612777,154334.9,-109.7595,70.9045
10000.0,69718.77,-86.16024,70.9196
