Frequency,Impedance,Phase Angle,Temperature (Dry Bath)
10.0,22665.42,-23.7587,70.9156
21.544346900318832,18570.96,-23.56373,70.9337
46.41588833612777,15222.03,-23.18168,70.925
100.0,12625.8,-22.61333,70.9471
215.44346900318823,10514.9,-21.56063,70.9446
464.15888336127773,8879.528,-21.09374,70.957
1000.0,7453.923,-20.10194,70.9353
2154.4346900318824,6273.244,-19.63569,70.9398
4641.588833612777,5334.449,-19.02947,70.9265
10000.0,4530.189,-17.93188,70.9225
