Frequency,Impedance,Phase Angle,Temperature (Dry Bath)
10.0,31878590.0,-11.98092,66.9577
21.5,31065250.0,-44.4752,66.9729
46.4,16580840.0,-56.52983,66.9776
100.0,3768239.0,-39.15104,66.9608
215.4,2738447.0,-46.36708,66.9604
464.2,1807597.0,-78.30267,66.96
1000.0,980101.5,-85.8366,66.9476
2154.4,463273.7,-85.46611,66.9548
4641.6,232427.2,-79.70872,66.9653
10000.0,116162.0,-79.06851,66.9586
