Frequency,Impedance,Phase Angle,Temperature (Dry Bath)
10.0,4851377.0,7.112571,71.6761
21.544346900318832,4441386.0,-18.7124,71.6882
46.41588833612777,5729580.0,-13.00343,71.6821
100.0,543808.9,116.0061,71.6789
215.44346900318823,1315814.0,-51.47008,71.6897
464.15888336127773,2317325.0,-63.434,71.6771
1000.0,1830756.0,21.78192,71.68
2154.4346900318824,341516.3,-64.45604,71.6891
4641.588833612777,332425.7,-62.54201,71.6812
10000.0,101894.3,-80.11158,71.6907
