Frequency,Impedance,Phase Angle,Temperature (Dry Bath)
10.0,156313.6,-6.535315,68.0153
21.5,149958.6,-5.153793,67.9992
46.4,144899.7,-4.771803,68.0273
100.0,138091.1,-5.792285,68.0166
215.4,135260.4,-6.599777,68.0154
464.2,131075.3,-8.231266,68.0271
1000.0,123816.7,-12.41129,68.0297
2154.4,116944.2,-19.02006,68.0169
4641.6,102898.0,-31.85452,68.0212
10000.0,74784.64,-56.36114,68.0168
