Frequency,Impedance,Phase Angle,Temperature (Dry Bath)
10.0,25468190.0,-25.11195,67.3168
21.5,35758350.0,-42.92176,67.3117
46.4,15109460.0,-51.68313,67.3173
100.0,5974858.0,-48.44214,67.3097
215.4,271629.9,-20.25912,67.3136
464.2,2013973.0,-68.07376,67.3088
1000.0,864823.7,-82.92884,67.3035
2154.4,508988.1,-84.13333,67.299
4641.6,228595.3,-80.82183,67.3162
10000.0,121693.8,-79.38976,67.3024
