Frequency,Impedance,Phase Angle,Temperature (Dry Bath)
10.0,24137.35,-19.77573,71.2806
21.544346900318832,20677.99,-17.7059,71.2737
46.41588833612777,17981.96,-15.67364,71.2786
100.0,15321.32,-12.02436,71.2633
215.44346900318823,14261.09,-11.97924,71.2557
464.15888336127773,13173.65,-10.58254,71.2608
1000.0,12058.31,-10.69783,71.2714
2154.4346900318824,11339.81,-9.391772,71.2681
4641.588833612777,10684.97,-10.81383,71.2473
10000.0,9959.174,-15.97709,71.2707
