Frequency,Impedance,Phase Angle,Temperature (Dry Bath)
10.0,22522480.0,-35.06579,68.0235
21.5,28488430.0,-32.44217,68.0296
46.4,37810570.0,-53.87583,68.0197
100.0,8461134.0,-39.20839,68.0255
215.4,6153125.0,-55.40624,68.0253
464.2,3128525.0,-68.09483,68.0117
1000.0,1576138.0,-77.26919,68.0026
2154.4,614397.3,-86.99666,68.0269
4641.6,316083.7,-87.7831,68.013
10000.0,139074.4,-93.81781,68.027
