Frequency,Impedance,Phase Angle,Temperature (Dry Bath)
10.0,6189097.0,26.55953,65.743
21.544346900318832,4696229.0,-3.00206,65.7659
46.41588833612777,3921126.0,-41.81731,65.7573
100.0,1497182.0,-87.67414,65.744
215.44346900318823,20931.47,46.7629,65.751
464.15888336127773,911273.0,-58.78543,65.7442
1000.0,470840.7,-64.84073,65.745
2154.4346900318824,291469.5,-102.9164,65.7398
4641.588833612777,152135.9,-77.48426,65.7493
10000.0,66737.65,-83.02673,65.7411
