Frequency,Impedance,Phase Angle,Temperature (Dry Bath)
10.0,154997.3,-6.401959,68.1226
21.5,148736.4,-5.325275,68.1257
46.4,144217.7,-4.74529,68.1402
100.0,138464.4,-4.477981,68.1469
215.4,137167.2,-8.610934,68.1423
464.2,131773.1,-9.028825,68.151
1000.0,123349.1,-11.08875,68.1448
2154.4,115943.4,-20.305,68.1404
4641.6,100444.0,-33.42833,68.1338
10000.0,73829.51,-53.84414,68.135
