Frequency,Impedance,Phase Angle,Temperature (Dry Bath)
10.0,18972480.0,-21.71215,67.8889
21.5,22874740.0,-27.89632,67.8849
46.4,21858090.0,-57.47106,67.8877
100.0,6761775.0,-46.56567,67.8878
215.4,3429111.0,-83.03724,67.8753
464.2,2404379.0,-89.24647,67.8987
1000.0,1196074.0,-81.97319,67.8999
2154.4,480850.3,-89.21585,67.8823
4641.6,254395.5,-90.60186,67.8896
10000.0,111085.8,-94.86408,67.8937
