Frequency,Impedance,Phase Angle,Temperature (Dry Bath)
10.0,141047.0,-5.781328,67.2278
21.5,135507.3,-4.654798,67.2406
46.4,132230.6,-4.552935,67.2365
100.0,127572.3,-4.730039,67.2378
215.4,122048.3,-11.89818,67.2455
464.2,121256.7,-5.806679,67.2361
1000.0,113985.8,-11.48291,67.2342
2154.4,107321.8,-19.03779,67.2423
4641.6,90719.59,-33.18812,67.2347
10000.0,63736.83,-51.76876,67.2361
