Frequency,Impedance,Phase Angle,Temperature (Dry Bath)
10.0,130571.9,-25.07055,67.3055
21.5,107620.2,-22.04371,67.3113
46.4,92568.6,-18.87421,67.305
100.0,81877.39,-15.67515,67.3072
215.4,74235.87,-5.722937,67.3092
464.2,67980.06,-13.07863,67.3274
1000.0,61886.53,-14.70286,67.3152
2154.4,56393.01,-18.09835,67.3277
4641.6,49283.97,-25.51814,67.3127
10000.0,39752.48,-36.92154,67.3284
