Frequency,Impedance,Phase Angle,Temperature (Dry Bath)
10.0,15155.44,-25.81597,71.4002
21.544346900318832,12091.3,-26.5823,71.4167
46.41588833612777,9541.857,-26.87475,71.4023
100.0,7559.948,-26.58578,71.3974
215.44346900318823,6029.972,-24.32549,71.3885
464.15888336127773,4906.957,-22.4861,71.3698
1000.0,4118.691,-19.50864,71.3899
2154.4346900318824,3495.359,-17.71637,71.3797
4641.588833612777,3077.897,-15.36233,71.3819
10000.0,2733.383,-14.28661,71.38
