Frequency,Impedance,Phase Angle,Temperature (Dry Bath)
10.0,22853720.0,-34.37295,68.0946
21.5,23091710.0,-43.32019,68.0958
46.4,15284620.0,-64.17666,68.0989
100.0,6138121.0,-38.43257,68.1095
215.4,3113772.0,-89.97299,68.1048
464.2,1655170.0,-77.84286,68.1009
1000.0,1015883.0,-74.6668,68.0946
2154.4,506000.9,-77.14617,68.1104
4641.6,245383.6,-83.19365,68.0939
10000.0,123277.8,-97.78953,68.1032
