Frequency,Impedance,Phase Angle,Temperature (Dry Bath)
10.0,761533.0,-8.921671,67.3
21.544346900318832,893393.5,-7.502223,67.3
46.41588833612777,871131.2,-14.23056,67.3
100.0,823185.5,-15.44787,67.3
215.44346900318823,621112.5,-7.557111,67.3
464.15888336127773,541518.4,-24.24105,67.3
1000.0,593736.3,-3.582591,67.3
2154.4346900318824,439574.6,-37.34417,67.3
4641.588833612777,340712.8,-51.41119,67.3
10000.0,230722.1,-59.96573,67.3
