Frequency,Impedance,Phase Angle,Temperature (Dry Bath)
10.0,161812.1,-6.172738,68.0135
21.5,155840.3,-5.186511,68.0123
46.4,150673.1,-4.896706,68.0236
100.0,145163.4,-4.89906,67.9997
215.4,139922.4,-7.592537,68.0038
464.2,129804.6,-7.760502,68.0102
1000.0,130165.0,-11.56198,68.0184
2154.4,122263.9,-20.55232,68.006
4641.6,106634.4,-35.28419,67.9997
10000.0,75124.56,-59.45648,67.9913
