Frequency,Impedance,Phase Angle,Temperature (Dry Bath)
10.0,2099650.0,-6.309536,71.2306
21.544346900318832,2474739.0,-16.81127,71.2258
46.41588833612777,2358541.0,-15.36086,71.2327
100.0,2974662.0,123.7933,71.2174
215.44346900318823,450716.5,130.9597,71.2269
464.15888336127773,407936.4,-89.03724,71.2149
1000.0,633328.9,-120.0345,71.2224
2154.4346900318824,280410.1,-45.80938,71.2351
4641.588833612777,223942.9,-97.56425,71.2047
10000.0,101780.1,-92.64951,71.2367
