Frequency,Impedance,Phase Angle,Temperature (Dry Bath)
10.0,13282.68,-27.66996,71.1418
21.544346900318832,10613.58,-25.1146,71.1417
46.41588833612777,8681.991,-22.39528,71.1394
100.0,7255.406,-19.69629,71.1359
215.44346900318823,6310.866,-17.00909,71.1374
464.15888336127773,5512.467,-15.28176,71.1387
1000.0,4822.121,-13.54291,71.1418
2154.4346900318824,4441.314,-12.29922,71.1308
4641.588833612777,4002.196,-12.05726,71.1431
10000.0,3673.044,-12.70036,71.1392
