Frequency,Impedance,Phase Angle,Temperature (Dry Bath)
10.0,1540516.0,-11.27764,67.1364
21.5,1420412.0,-10.38407,67.1464
46.4,1327148.0,-11.53634,67.1402
100.0,931823.4,-19.10192,67.1321
215.4,134384.0,82.1787,67.136
464.2,798562.0,-42.16538,67.1412
1000.0,521090.9,-51.72361,67.1457
2154.4,351797.1,-64.26501,67.1022
4641.6,190974.1,-69.67619,67.1329
10000.0,102232.9,-72.30306,67.1315
