Frequency,Impedance,Phase Angle,Temperature (Dry Bath)
10.0,24395630.0,-22.43105,67.9457
21.5,20852140.0,-40.53292,67.9457
46.4,31589960.0,-58.37169,67.9457
100.0,5233570.0,-56.56398,67.9457
215.4,4088237.0,-73.12921,67.9457
464.2,1875974.0,-87.67751,67.9457
1000.0,970126.5,-80.93745,67.9457
2154.4,504324.5,-83.65761,67.9457
4641.6,273657.7,-77.11862,67.9457
10000.0,145117.1,-91.40153,67.9457
