Frequency,Impedance,Phase Angle,Temperature (Dry Bath)
10.0,24014130.0,-28.85057,67.8653
21.5,22042210.0,-18.38056,67.8765
46.4,28579910.0,-50.18435,67.8616
100.0,6499259.0,-58.70374,67.8672
215.4,3560513.0,-68.42948,67.882
464.2,3336561.0,-66.68776,67.889
1000.0,1339802.0,-87.84216,67.8659
2154.4,617953.6,-93.14062,67.8616
4641.6,287960.7,-88.21876,67.8646
10000.0,142536.7,-94.40861,67.8704
