Frequency,Impedance,Phase Angle,Temperature (Dry Bath)
10.0,21263690.0,2.770147,67.9814
21.5,20823510.0,-33.60745,67.9814
46.4,20754810.0,-59.06978,67.9814
100.0,9667237.0,-59.69159,67.9814
215.4,5819185.0,-65.90603,67.9814
464.2,2423758.0,-82.45596,67.9814
1000.0,1017401.0,-80.99401,67.9814
2154.4,538936.0,-81.12238,67.9814
4641.6,270326.4,-81.77746,67.9814
10000.0,150128.1,-88.71801,67.9814
