Frequency,Impedance,Phase Angle,Temperature (Dry Bath)
10.0,26229060.0,-20.33083,68.2887
21.5,25181670.0,-25.09334,68.2969
46.4,30016450.0,-63.13945,68.2999
100.0,4118190.0,-50.90551,68.291
215.4,3078370.0,-65.92207,68.3014
464.2,1508949.0,-74.14638,68.2929
1000.0,1009432.0,-82.23776,68.2925
2154.4,562080.8,-80.20689,68.2898
4641.6,250362.4,-88.3577,68.2943
10000.0,123804.3,-93.7688,68.2862
