Frequency,Impedance,Phase Angle,Temperature (Dry Bath)
10.0,19070440.0,-15.65923,67.9711
21.5,15628600.0,-51.74094,67.9793
46.4,19427960.0,-54.11166,67.9796
100.0,8825593.0,-24.75712,67.9732
215.4,3145195.0,-74.58524,67.9715
464.2,2127806.0,-68.493,67.9836
1000.0,963979.5,-76.39077,67.9751
2154.4,462812.9,-77.73874,67.9736
4641.6,239567.8,-83.63542,67.9847
10000.0,138765.2,-93.77665,67.9792
