Frequency,Impedance,Phase Angle,Temperature (Dry Bath)
10.0,3723627.0,-5.274032,71.4178
21.544346900318832,4973149.0,-27.00372,71.3973
46.41588833612777,6747271.0,-27.91243,71.402
100.0,466869.2,-25.12735,71.398
215.44346900318823,1131787.0,61.16072,71.3972
464.15888336127773,10829120.0,54.75026,71.406
1000.0,3762944.0,128.8976,71.3945
2154.4346900318824,328516.4,-107.0328,71.3796
4641.588833612777,386737.0,-83.9978,71.4004
10000.0,154911.8,-72.58685,71.3805
