Frequency,Impedance,Phase Angle,Temperature (Dry Bath)
10.0,248606.8,-5.587726,67.3014
21.5,240543.2,-5.490684,67.3029
46.4,232945.3,-5.867159,67.3121
100.0,228800.1,-7.475227,67.293
215.4,224742.3,-8.397731,67.3145
464.2,203375.5,-13.88746,67.2963
1000.0,181018.2,-24.73961,67.2955
2154.4,146779.8,-38.00969,67.3178
4641.6,100542.5,-52.58686,67.3
10000.0,57403.24,-61.99344,67.2882
