Frequency,Impedance,Phase Angle,Temperature (Dry Bath)
10.0,19358320.0,2.805682,67.9814
21.5,18580540.0,-26.4742,67.9814
46.4,17824450.0,-43.2512,67.9814
100.0,5744322.0,-43.66582,67.9814
215.4,4894340.0,-92.00746,67.9814
464.2,2093731.0,-84.26276,67.9814
1000.0,1004107.0,-82.90999,67.9814
2154.4,454027.9,-87.00961,67.9814
4641.6,218138.6,-84.01579,67.9814
10000.0,107724.2,-89.87129,67.9814
