Frequency,Impedance,Phase Angle,Temperature (Dry Bath)
10.0,3755213.0,-38.50069,71.295
21.544346900318832,7344943.0,-23.2701,71.2921
46.41588833612777,5324742.0,-36.53805,71.2949
100.0,409866.8,6.293537,71.2865
215.44346900318823,364175.9,-28.55502,71.2912
464.15888336127773,963688.4,-173.7225,71.298
1000.0,509581.0,-133.4161,71.294
2154.4346900318824,302890.6,-65.04415,71.3078
4641.588833612777,149377.3,-75.75304,71.3038
10000.0,64948.49,-91.50942,71.2947
