Frequency,Impedance,Phase Angle,Temperature (Dry Bath)
10.0,34412490.0,-4.206036,67.2853
21.5,32569500.0,-38.44327,67.2641
46.4,10439710.0,-62.15931,67.2819
100.0,4597149.0,-17.77571,67.2568
215.4,4294392.0,118.8241,67.2545
464.2,3549026.0,-94.12476,67.2497
1000.0,1107145.0,-81.51921,67.249
2154.4,487706.7,-80.16485,67.2632
4641.6,256430.7,-80.1629,67.2554
10000.0,132333.8,-79.44852,67.2498
