Frequency,Impedance,Phase Angle,Temperature (Dry Bath)
10.0,139726.9,-5.770324,67.0896
21.5,134962.7,-4.715066,67.0917
46.4,130633.1,-4.325635,67.0899
100.0,122976.4,-4.931671,67.0873
215.4,122084.3,-0.8701336,67.0916
464.2,117542.4,-7.695048,67.0832
1000.0,111094.9,-11.46688,67.0719
2154.4,107345.9,-20.17497,67.0853
4641.6,90705.0,-33.47103,67.0639
10000.0,63856.88,-50.62539,67.066
