Frequency,Impedance,Phase Angle,Temperature (Dry Bath)
10.0,262329.3,-24.90853,71.3235
21.544346900318832,220043.9,-21.77585,71.3247
46.41588833612777,178468.6,-19.77751,71.3278
100.0,166233.5,-18.94495,71.3141
215.44346900318823,138620.8,-23.03899,71.3194
464.15888336127773,115793.6,-16.87038,71.3187
1000.0,91211.26,-25.86972,71.3413
2154.4346900318824,98527.2,-32.05417,71.3168
4641.588833612777,61884.98,-45.93424,71.3253
10000.0,43941.41,-57.47478,71.3342
