Frequency,Impedance,Phase Angle,Temperature (Dry Bath)
10.0,7107.081,-25.56652,70.4673
21.544346900318832,5813.892,-22.44693,70.4824
46.41588833612777,4893.257,-19.5516,70.4813
100.0,4242.532,-16.24383,70.4879
215.44346900318823,3721.779,-14.73887,70.4735
464.15888336127773,3332.55,-12.53207,70.4795
1000.0,2971.966,-11.03551,70.4866
2154.4346900318824,2794.732,-9.217214,70.4707
4641.588833612777,2608.446,-8.553624,70.4731
10000.0,2479.52,-8.605695,70.4842
