Frequency,Impedance,Phase Angle,Temperature (Dry Bath)
10.0,39417640.0,-19.1152,67.3092
21.5,20823610.0,-45.88073,67.2985
46.4,15310300.0,-69.34772,67.3177
100.0,5649469.0,-56.28283,67.3221
215.4,184095.2,-127.6302,67.315
464.2,1851219.0,-79.50494,67.2987
1000.0,850956.1,-75.25495,67.3068
2154.4,488649.6,-82.51402,67.3056
4641.6,225185.9,-85.81239,67.3139
10000.0,109184.3,-84.16052,67.3115
