Frequency,Impedance,Phase Angle,Temperature (Dry Bath)
10.0,138046.5,-5.900615,67.3506
21.5,133020.2,-4.895862,67.3675
46.4,128750.3,-4.080358,67.3418
100.0,123448.2,-5.019734,67.3623
215.4,136907.2,-6.620671,67.3534
464.2,120419.0,-8.187011,67.3781
1000.0,112202.9,-11.29464,67.3505
2154.4,104063.8,-18.23738,67.36
4641.6,88968.73,-32.96642,67.3552
10000.0,63292.71,-50.54401,67.3539
