Frequency,Impedance,Phase Angle,Temperature (Dry Bath)
10.0,140108.6,-5.812397,67.3531
21.5,134862.5,-4.795274,67.3523
46.4,130722.4,-4.379375,67.3694
100.0,126130.0,-6.107567,67.3533
215.4,123369.4,-8.733154,67.3653
464.2,119384.4,-8.392379,67.3609
1000.0,111631.0,-11.80091,67.354
2154.4,105515.2,-20.23855,67.3541
4641.6,88873.14,-34.22516,67.3682
10000.0,62856.16,-51.12564,67.3624
