Frequency,Impedance,Phase Angle,Temperature (Dry Bath)
10.0,19388.59,-19.44932,67.7721
21.5,16656.07,-16.07711,67.7732
46.4,14852.7,-12.69658,67.7593
100.0,13651.59,-10.22329,67.7673
215.4,12790.45,-7.843956,67.7659
464.2,11967.85,-6.661903,67.7851
1000.0,11665.69,-5.590585,67.7715
2154.4,11177.17,-5.967865,67.7657
4641.6,10990.34,-6.801846,67.7701
10000.0,10722.41,-10.65767,67.7744
