Frequency,Impedance,Phase Angle,Temperature (Dry Bath)
10.0,4251514.0,-5.206157,71.2012
21.544346900318832,5054626.0,-23.13261,71.2031
46.41588833612777,6409007.0,-21.56387,71.1966
100.0,1854198.0,-141.7354,71.2189
215.44346900318823,898156.9,-97.18251,71.2102
464.15888336127773,3868065.0,173.7683,71.2092
1000.0,430947.3,-115.4878,71.219
2154.4346900318824,258153.1,-112.9892,71.2164
4641.588833612777,178308.8,-78.26462,71.2323
10000.0,65913.57,-87.60564,71.226
