Frequency,Impedance,Phase Angle,Temperature (Dry Bath)
10.0,4092087.0,3.148022,71.4584
21.544346900318832,3971919.0,-16.6854,71.4725
46.41588833612777,4457900.0,-11.83889,71.4745
100.0,369016.6,-95.558,71.4799
215.44346900318823,561439.5,-92.62338,71.468
464.15888336127773,294592.0,-83.98319,71.4522
1000.0,224269.5,-18.39248,71.464
2154.4346900318824,178415.4,-81.17967,71.4679
4641.588833612777,97471.83,-96.85878,71.4617
10000.0,51412.3,-86.25611,71.4623
