Frequency,Impedance,Phase Angle,Temperature (Dry Bath)
10.0,2458279.0,-9.677364,67.3284
21.5,2245463.0,-10.71683,67.3175
46.4,1986767.0,-15.42359,67.3088
100.0,1565539.0,-21.76923,67.3198
215.4,1195171.0,-45.38183,67.3081
464.2,1048997.0,-45.94839,67.3185
1000.0,657747.2,-61.8755,67.3193
2154.4,366741.4,-67.9611,67.3084
4641.6,206474.8,-69.72688,67.3166
10000.0,109890.0,-71.89273,67.3226
