Frequency,Impedance,Phase Angle,Temperature (Dry Bath)
10.0,30134940.0,10.32362,67.2606
21.5,30711380.0,-28.60239,67.2532
46.4,15741260.0,-51.79594,67.2566
100.0,4720510.0,-54.3411,67.251
215.4,332758.0,-136.6281,67.2575
464.2,1669151.0,-87.98654,67.2389
1000.0,1057873.0,-78.64144,67.2348
2154.4,530648.7,-77.02214,67.2422
4641.6,276281.1,-75.22757,67.2484
10000.0,142635.5,-80.26141,67.2289
