Frequency,Impedance,Phase Angle,Temperature (Dry Bath)
10.0,30795600.0,-0.3863962,67.4331
21.5,23467390.0,-52.27353,67.4284
46.4,17310860.0,-65.40972,67.4166
100.0,2787555.0,-31.62082,67.4354
215.4,302363.9,-131.9395,67.4177
464.2,1452563.0,-82.9864,67.4222
1000.0,1008196.0,-79.36759,67.4314
2154.4,471057.3,-84.81061,67.4264
4641.6,238252.5,-79.24737,67.4226
10000.0,125880.2,-77.68455,67.4285
