Frequency,Impedance,Phase Angle,Temperature (Dry Bath)
10.0,19236.54,-18.37552,67.9802
21.5,16819.11,-14.94222,67.9777
46.4,15185.92,-11.95843,67.9839
100.0,13932.64,-9.851826,67.9772
215.4,13112.7,-6.965501,67.9752
464.2,12506.16,-6.742678,67.9842
1000.0,12120.32,-5.673102,67.9831
2154.4,11658.35,-6.157761,67.9782
4641.6,11522.16,-7.333689,67.9695
10000.0,11160.13,-11.85268,67.9797
