Frequency,Impedance,Phase Angle,Temperature (Dry Bath)
10.0,585112.6,-11.12165,68.1168
21.5,539122.1,-10.66473,68.1106
46.4,492139.9,-11.76471,68.1018
100.0,422237.3,-15.53492,68.117
215.4,412354.9,-17.1281,68.0977
464.2,353309.7,-21.04024,68.1075
1000.0,296075.4,-27.75678,68.0953
2154.4,224956.0,-37.11554,68.1013
4641.6,159620.3,-49.56792,68.0931
10000.0,113393.3,-60.89736,68.0982
