Frequency,Impedance,Phase Angle,Temperature (Dry Bath)
10.0,27023090.0,-33.13581,68.2251
21.5,25326330.0,-34.18602,68.2202
46.4,30199200.0,-53.00469,68.2428
100.0,4421732.0,-31.21113,68.2444
215.4,7085532.0,-70.0526,68.238
464.2,2287389.0,-85.99842,68.2297
1000.0,1504457.0,-92.44551,68.2316
2154.4,692175.5,-87.67733,68.2402
4641.6,314167.3,-90.48543,68.2194
10000.0,147112.6,-95.92124,68.2327
