Frequency,Impedance,Phase Angle,Temperature (Dry Bath)
10.0,12291.95,-4.307745,67.2968
21.5,12012.45,-3.70163,67.2866
46.4,11800.78,-3.480763,67.3039
100.0,11584.18,-3.242203,67.2983
215.4,10944.55,-1.218499,67.3046
464.2,11281.35,-3.366104,67.2965
1000.0,10997.65,-3.682796,67.3104
2154.4,10803.63,-4.234683,67.2764
4641.6,10579.44,-5.775002,67.2931
10000.0,10292.22,-9.490701,67.2904
