Frequency,Impedance,Phase Angle,Temperature (Dry Bath)
10.0,30658800.0,-3.392742,67.6611
21.5,41492290.0,-38.35831,67.6682
46.4,31713760.0,-58.19864,67.6642
100.0,5802569.0,-37.41885,67.6735
215.4,5450757.0,-61.06444,67.6702
464.2,2201030.0,-77.143,67.6723
1000.0,1139368.0,-82.46366,67.682
2154.4,531695.4,-79.50205,67.6744
4641.6,276625.2,-81.37228,67.6823
10000.0,143267.2,-92.16362,67.6869
