Frequency,Impedance,Phase Angle,Temperature (Dry Bath)
10.0,1068046.0,-11.75297,68.0726
21.5,995949.4,-11.56429,68.0668
46.4,903367.3,-12.05474,68.0758
100.0,729790.3,-15.68485,68.0884
215.4,717571.4,-21.25541,68.0816
464.2,577271.3,-26.93959,68.0585
1000.0,468492.1,-34.51088,68.0926
2154.4,344439.0,-45.78267,68.0803
4641.6,233037.1,-55.00065,68.0649
10000.0,153628.2,-70.71665,68.0684
