Frequency,Impedance,Phase Angle,Temperature (Dry Bath)
10.0,12310.2,-4.278011,67.4127
21.5,12025.59,-3.677255,67.4158
46.4,11729.94,-2.991204,67.4225
100.0,11603.85,-3.061383,67.4246
215.4,11475.09,-0.7390492,67.4361
464.2,11272.97,-3.372639,67.4325
1000.0,11012.6,-3.589491,67.4173
2154.4,10797.38,-4.123534,67.4162
4641.6,10572.68,-5.618688,67.423
10000.0,10322.85,-9.508894,67.4265
