Frequency,Impedance,Phase Angle,Temperature (Dry Bath)
10.0,130504.9,-6.665062,67.4961
21.5,124933.5,-5.687477,67.4966
46.4,120695.2,-5.041117,67.5074
100.0,116356.2,-5.415102,67.4924
215.4,63938.38,17.40094,67.5006
464.2,109264.4,-8.115972,67.4802
1000.0,103398.1,-12.36715,67.4887
2154.4,98600.07,-19.14973,67.4949
4641.6,81464.89,-30.33923,67.4923
10000.0,60871.5,-47.48904,67.4931
