Frequency,Impedance,Phase Angle,Temperature (Dry Bath)
10.0,12678690.0,9.919651,71.5129
21.544346900318832,6230059.0,-7.014911,71.5151
46.41588833612777,5194833.0,4.819022,71.5113
100.0,1121404.0,-37.80775,71.5105
215.44346900318823,2267419.0,140.2701,71.5157
464.15888336127773,501707.2,-154.3809,71.5175
1000.0,2468248.0,-82.66223,71.5209
2154.4346900318824,915278.6,-97.76988,71.5149
4641.588833612777,190982.4,-73.5054,71.5183
10000.0,161298.6,-71.16832,71.516
