Frequency,Impedance,Phase Angle,Temperature (Dry Bath)
10.0,19324.48,-19.61021,67.9902
21.5,16616.03,-16.14746,67.9729
46.4,14777.12,-12.69743,67.9948
100.0,13525.69,-9.746347,67.9797
215.4,12899.62,-8.260326,67.9753
464.2,12178.88,-7.366862,67.9857
1000.0,11532.45,-6.085405,68.0004
2154.4,11186.86,-5.415612,68.0051
4641.6,10818.0,-7.670964,67.9939
10000.0,10613.58,-12.34368,67.9987
