Frequency,Impedance,Phase Angle,Temperature (Dry Bath)
10.0,12355.38,-8.233997,67.3077
21.5,11769.36,-4.681332,67.2981
46.4,11605.65,-4.542535,67.3097
100.0,11505.78,-5.074325,67.3063
215.4,11514.24,-9.839219,67.3019
464.2,11280.64,-5.809034,67.3065
1000.0,10924.57,-5.754853,67.303
2154.4,10606.1,-5.854729,67.2976
4641.6,10274.57,-6.716948,67.2866
10000.0,9943.13,-9.748917,67.2946
