Frequency,Impedance,Phase Angle,Temperature (Dry Bath)
10.0,6345614.0,-18.43855,65.705
21.544346900318832,5710139.0,3.480136,65.7028
46.41588833612777,4565079.0,-10.18286,65.6949
100.0,1594800.0,-41.50317,65.7006
215.44346900318823,92227.14,-140.6874,65.6932
464.15888336127773,539229.1,-58.49072,65.6997
1000.0,613695.1,-58.59288,65.6982
2154.4346900318824,257762.9,-74.12131,65.7112
4641.588833612777,114597.4,-84.67917,65.7152
10000.0,64540.47,-82.18408,65.714
