Frequency,Impedance,Phase Angle,Temperature (Dry Bath)
10.0,21025.56,-20.87693,71.082
21.544346900318832,17566.44,-22.09987,71.0796
46.41588833612777,14428.93,-23.31205,71.0782
100.0,12173.83,-23.0102,71.0845
215.44346900318823,9700.284,-24.67374,71.0876
464.15888336127773,7750.414,-23.90379,71.0727
1000.0,6182.01,-22.05971,71.0807
2154.4346900318824,5081.395,-22.80193,71.0772
4641.588833612777,4200.225,-21.39758,71.0649
10000.0,3541.155,-19.4695,71.0787
