Frequency,Impedance,Phase Angle,Temperature (Dry Bath)
10.0,4861291.0,17.24637,70.6721
21.544346900318832,5607857.0,-1.12418,70.6796
46.41588833612777,5859132.0,-23.72903,70.6699
100.0,338787.0,-11.1036,70.6739
215.44346900318823,532202.4,-140.7918,70.6689
464.15888336127773,915280.8,-24.80477,70.6779
1000.0,564240.8,-102.7946,70.6852
2154.4346900318824,259691.1,-83.09772,70.6788
4641.588833612777,130146.3,-101.8083,70.6651
10000.0,72591.55,-83.60088,70.6749
