Frequency,Impedance,Phase Angle,Temperature (Dry Bath)
10.0,13685.8,-19.86916,70.9094
21.544346900318832,11772.82,-17.11708,70.9102
46.41588833612777,10337.95,-15.07603,70.9291
100.0,9275.267,-12.20927,70.9272
215.44346900318823,8417.271,-11.53295,70.9234
464.15888336127773,7639.518,-10.206,70.9146
1000.0,7130.434,-10.08358,70.925
2154.4346900318824,6517.783,-10.21486,70.9253
4641.588833612777,6205.796,-9.49333,70.9113
10000.0,5689.258,-11.8462,70.8988
