Frequency,Impedance,Phase Angle,Temperature (Dry Bath)
10.0,22552.12,-21.56728,65.7909
21.544346900318832,18994.71,-18.46206,65.8052
46.41588833612777,16461.89,-15.3939,65.7902
100.0,14789.81,-12.66908,65.7885
215.44346900318823,3821.375,-6.472353,65.79
464.15888336127773,12685.85,-8.057604,65.7917
1000.0,11964.67,-8.207066,65.7921
2154.4346900318824,11206.95,-8.085145,65.7846
4641.588833612777,10594.15,-8.711951,65.7784
10000.0,10014.36,-13.97714,65.7887
