Frequency,Impedance,Phase Angle,Temperature (Dry Bath)
10.0,2089236.0,-8.915961,67.3404
21.5,1879031.0,-10.40708,67.3193
46.4,1732022.0,-11.54575,67.3347
100.0,1175663.0,-26.52384,67.3343
215.4,311308.5,-117.1752,67.3364
464.2,701045.1,-50.14433,67.318
1000.0,664994.8,-54.71375,67.3206
2154.4,363934.2,-66.71681,67.3096
4641.6,184204.5,-72.65592,67.3155
10000.0,103250.4,-73.32173,67.3203
