Frequency,Impedance,Phase Angle,Temperature (Dry Bath)
10.0,5825110.0,-24.55034,70.9655
21.544346900318832,4819040.0,-22.76145,70.9658
46.41588833612777,4269669.0,-44.0455,70.9603
100.0,694145.5,26.10141,70.9693
215.44346900318823,1196603.0,123.3504,70.9654
464.15888336127773,588405.9,-55.26035,70.9698
1000.0,256832.7,-92.05465,70.9826
2154.4346900318824,329667.6,-74.28408,70.9701
4641.588833612777,114067.5,-84.44569,70.9743
10000.0,56452.34,-93.85589,70.983
