Frequency,Impedance,Phase Angle,Temperature (Dry Bath)
10.0,754452.7,-10.25412,68.0129
21.5,699994.3,-10.14357,68.0133
46.4,655749.2,-10.97444,68.0207
100.0,613638.8,-15.65093,68.02
215.4,536120.1,-18.41205,68.0162
464.2,478360.6,-25.28545,68.0173
1000.0,377281.2,-35.34824,68.0222
2154.4,287473.4,-43.50925,68.0036
4641.6,185402.4,-52.65567,68.0261
10000.0,114409.7,-63.39153,68.0199
