Frequency,Impedance,Phase Angle,Temperature (Dry Bath)
10.0,19436.75,-18.53503,68.1471
21.5,16907.14,-15.18704,68.16
46.4,15264.07,-12.12544,68.1727
100.0,13879.5,-10.0307,68.1627
215.4,13225.15,-7.843314,68.1582
464.2,12478.22,-6.204399,68.1783
1000.0,12055.53,-5.019238,68.1757
2154.4,11711.93,-5.439205,68.1639
4641.6,11305.12,-7.903091,68.1579
10000.0,11071.91,-11.97982,68.1578
