Frequency,Impedance,Phase Angle,Temperature (Dry Bath)
10.0,4021315.0,5.120428,71.3564
21.544346900318832,4487967.0,-21.98686,71.3578
46.41588833612777,3223390.0,-12.42008,71.3698
100.0,501785.2,-4.111749,71.3602
215.44346900318823,45023.87,-73.0477,71.3757
464.15888336127773,640254.4,-99.56943,71.3516
1000.0,306150.2,-68.49777,71.361
2154.4346900318824,305408.7,-44.4949,71.3514
4641.588833612777,133147.0,-85.66761,71.3547
10000.0,76099.16,-81.94909,71.36
