Frequency,Impedance,Phase Angle,Temperature (Dry Bath)
10.0,28709110.0,-17.71717,67.2322
21.5,23365300.0,-28.22285,67.2389
46.4,16812820.0,-55.16128,67.2269
100.0,5032445.0,-67.64613,67.219
215.4,277586.6,-114.7881,67.2322
464.2,2312025.0,-92.14817,67.2269
1000.0,1152175.0,-91.33054,67.2313
2154.4,580025.2,-92.34603,67.2246
4641.6,268983.9,-89.94953,67.2364
10000.0,127880.0,-87.10769,67.2206
