Frequency,Impedance,Phase Angle,Temperature (Dry Bath)
10.0,233440.1,-22.89518,71.3193
21.544346900318832,194763.9,-20.90621,71.3104
46.41588833612777,161724.2,-21.26392,71.3155
100.0,138313.9,-33.15203,71.3207
215.44346900318823,31992.3,-151.2745,71.3134
464.15888336127773,102872.5,-22.94941,71.3329
1000.0,103191.9,-33.13519,71.3195
2154.4346900318824,80154.07,-40.52276,71.3142
4641.588833612777,58507.65,-38.68895,71.3219
10000.0,37296.23,-57.04369,71.3063
