Frequency,Impedance,Phase Angle,Temperature (Dry Bath)
10.0,1513565.0,-7.021367,67.4305
21.5,1427949.0,-9.62011,67.4301
46.4,1323540.0,-11.76925,67.4198
100.0,1514792.0,-38.66476,67.412
215.4,1212812.0,-19.29501,67.4228
464.2,935905.5,-39.91953,67.4189
1000.0,569945.4,-52.51433,67.3977
2154.4,363594.8,-67.0165,67.4004
4641.6,196297.5,-68.93487,67.4033
10000.0,102680.8,-72.43077,67.4085
