Frequency,Impedance,Phase Angle,Temperature (Dry Bath)
10.0,12300.14,-4.580807,67.1555
21.5,11992.92,-3.870399,67.1706
46.4,11767.27,-3.506823,67.1536
100.0,11571.29,-3.305404,67.156
215.4,11396.11,-3.671387,67.1801
464.2,11238.87,-3.63384,67.1755
1000.0,10963.16,-3.830271,67.174
2154.4,10738.52,-4.35518,67.1727
4641.6,10490.72,-6.030735,67.1775
10000.0,10212.89,-9.57592,67.1779
