Frequency,Impedance,Phase Angle,Temperature (Dry Bath)
10.0,152913.3,-6.294257,67.9053
21.5,147095.1,-5.339732,67.9211
46.4,142024.4,-4.896909,67.8955
100.0,135141.1,-3.323007,67.8898
215.4,133724.9,-5.018433,67.8968
464.2,130359.6,-7.83775,67.8978
1000.0,121144.7,-12.28134,67.9159
2154.4,114714.8,-18.59667,67.9063
4641.6,100551.3,-36.38861,67.9112
10000.0,78526.68,-51.86958,67.9174
