Frequency,Impedance,Phase Angle,Temperature (Dry Bath)
10.0,139586.5,-5.813792,67.1219
21.5,134298.6,-4.882103,67.1317
46.4,129959.2,-4.682779,67.1256
100.0,123939.0,-4.336303,67.1326
215.4,118675.9,-5.144831,67.1189
464.2,118354.0,-7.700042,67.1328
1000.0,112052.8,-12.12077,67.1255
2154.4,106127.1,-20.57149,67.1222
4641.6,88740.59,-33.58894,67.1297
10000.0,61577.22,-51.77108,67.1311
