Frequency,Impedance,Phase Angle,Temperature (Dry Bath)
10.0,12384.45,-8.609778,67.4941
21.5,11809.13,-4.999624,67.5073
46.4,11629.51,-4.75538,67.4997
100.0,11520.25,-4.949503,67.4965
215.4,11260.22,-1.739462,67.5127
464.2,11342.55,-6.059022,67.4986
1000.0,10969.39,-5.814922,67.5127
2154.4,10620.97,-5.865624,67.4921
4641.6,10290.6,-6.832416,67.5055
10000.0,9942.025,-9.769621,67.5024
