Frequency,Impedance,Phase Angle,Temperature (Dry Bath)
10.0,1295491.0,-10.86184,67.7443
21.5,1155934.0,-11.28832,67.758
46.4,1039649.0,-12.43988,67.7349
100.0,862220.2,-17.03751,67.7415
215.4,862224.2,-24.28036,67.7455
464.2,684546.4,-31.42672,67.7503
1000.0,499922.7,-38.48972,67.738
2154.4,343778.4,-52.90698,67.7511
4641.6,233491.5,-62.70856,67.7252
10000.0,124215.5,-71.09074,67.7321
