Frequency,Impedance,Phase Angle,Temperature (Dry Bath)
10.0,24249700.0,-26.59455,68.0024
21.5,21453190.0,-47.01335,68.0036
46.4,22275470.0,-61.43085,68.0437
100.0,4422517.0,-59.34267,68.0024
215.4,4225767.0,-89.82543,68.0185
464.2,1811514.0,-72.04884,68.0255
1000.0,883812.1,-81.72315,68.0111
2154.4,495310.3,-80.37339,68.0216
4641.6,263745.9,-89.57393,68.0199
10000.0,120538.1,-89.67491,68.0235
