Frequency,Impedance,Phase Angle,Temperature (Dry Bath)
10.0,6463698.0,-21.7966,71.29
21.544346900318832,5234070.0,-9.447587,71.3112
46.41588833612777,4582069.0,-4.557067,71.2935
100.0,345820.5,50.81163,71.2854
215.44346900318823,5485114.0,84.92642,71.2936
464.15888336127773,1059458.0,-74.14982,71.2965
1000.0,635951.2,-9.38394,71.3119
2154.4346900318824,473517.0,-80.54538,71.2987
4641.588833612777,428019.4,-91.08941,71.306
10000.0,149097.7,-90.06554,71.3042
