Frequency,Impedance,Phase Angle,Temperature (Dry Bath)
10.0,1301298.0,-11.26551,67.8587
21.5,1141035.0,-11.41223,67.8693
46.4,1025428.0,-12.38323,67.8589
100.0,846900.9,-15.53979,67.856
215.4,832637.1,-18.95001,67.8562
464.2,666994.6,-31.03039,67.8599
1000.0,519646.9,-40.34553,67.8569
2154.4,370780.1,-49.28575,67.8663
4641.6,214849.4,-60.38002,67.8608
10000.0,138440.5,-75.20518,67.8582
