Frequency,Impedance,Phase Angle,Temperature (Dry Bath)
10.0,17939540.0,-3.880324,67.6897
21.5,24498410.0,-31.46554,67.6946
46.4,24634300.0,-59.36953,67.7155
100.0,4733029.0,-72.13968,67.7113
215.4,6730143.0,-96.07446,67.708
464.2,1944775.0,-65.77906,67.7014
1000.0,1025086.0,-84.82678,67.731
2154.4,519174.6,-76.95406,67.7184
4641.6,283711.0,-81.09637,67.7304
10000.0,147348.2,-86.46067,67.7161
