Frequency,Impedance,Phase Angle,Temperature (Dry Bath)
10.0,37507450.0,-40.32729,67.7327
21.5,31984180.0,-41.71371,67.7351
46.4,14438910.0,-51.48531,67.7255
100.0,8083019.0,-55.16816,67.7186
215.4,4826572.0,-64.99553,67.7246
464.2,1813646.0,-82.56396,67.7088
1000.0,1054672.0,-81.95458,67.7091
2154.4,552176.3,-82.96279,67.7166
4641.6,285477.1,-80.0638,67.7297
10000.0,147144.3,-86.84497,67.7202
