Frequency,Impedance,Phase Angle,Temperature (Dry Bath)
10.0,146947.9,-6.306646,68.1421
21.5,141350.6,-5.473334,68.1421
46.4,136680.3,-4.971456,68.1421
100.0,127446.1,-3.086876,68.1421
215.4,128659.3,-5.58861,68.1421
464.2,122121.3,-7.261587,68.1421
1000.0,116111.0,-10.98267,68.1421
2154.4,110379.3,-18.34778,68.1421
4641.6,95585.81,-30.62003,68.1421
10000.0,73121.52,-53.47194,68.1421
