Frequency,Impedance,Phase Angle,Temperature (Dry Bath)
10.0,140723.8,-5.612475,67.3211
21.5,135427.7,-4.685334,67.3306
46.4,131377.7,-3.886564,67.2952
100.0,128397.2,-4.715372,67.311
215.4,113500.7,-9.556398,67.3251
464.2,121158.7,-7.341107,67.3236
1000.0,111485.5,-11.24207,67.3375
2154.4,104602.3,-19.91408,67.3119
4641.6,89680.15,-33.24719,67.3349
10000.0,62933.75,-51.65342,67.3268
