Frequency,Impedance,Phase Angle,Temperature (Dry Bath)
10.0,26740720.0,-26.29086,68.1123
21.5,14296000.0,-45.62362,68.1094
46.4,13520680.0,-61.50675,68.1009
100.0,8895693.0,-71.6788,68.1145
215.4,3157259.0,-90.55374,68.1103
464.2,1609889.0,-84.06368,68.1055
1000.0,987265.2,-73.58536,68.1012
2154.4,544334.8,-77.30502,68.1083
4641.6,267111.8,-82.49837,68.1078
10000.0,142175.7,-92.79954,68.1195
