Frequency,Impedance,Phase Angle,Temperature (Dry Bath)
10.0,24441270.0,-10.55488,68.2573
21.5,21636080.0,-29.72848,68.2798
46.4,21661440.0,-54.55281,68.2761
100.0,4910414.0,-37.62665,68.2722
215.4,3955660.0,-51.17913,68.2477
464.2,2186470.0,-85.34423,68.2726
1000.0,1083382.0,-79.9382,68.2604
2154.4,485854.0,-85.0045,68.2731
4641.6,242736.9,-89.64429,68.2653
10000.0,114998.4,-93.73507,68.2785
