Frequency,Impedance,Phase Angle,Temperature (Dry Bath)
10.0,29947110.0,-21.02849,68.161
21.5,27885370.0,-38.18296,68.178
46.4,22625700.0,-58.61581,68.1911
100.0,4580640.0,-65.52545,68.1782
215.4,3737534.0,-81.18055,68.1925
464.2,1704976.0,-75.51743,68.1808
1000.0,954233.2,-79.80528,68.178
2154.4,520393.7,-78.61771,68.1908
4641.6,276455.3,-82.07368,68.183
10000.0,137132.0,-90.28684,68.1808
