Frequency,Impedance,Phase Angle,Temperature (Dry Bath)
10.0,3744970.0,-13.57014,70.6165
21.544346900318832,4469306.0,-31.19085,70.6092
46.41588833612777,4193621.0,-24.72355,70.6152
100.0,4725715.0,-34.80715,70.6122
215.44346900318823,576672.1,-99.23226,70.6027
464.15888336127773,476856.8,-60.48317,70.6194
1000.0,108614.4,-98.89753,70.6244
2154.4346900318824,191267.8,-80.83937,70.6175
4641.588833612777,100071.6,-85.98153,70.6352
10000.0,52642.36,-76.06206,70.6251
