Frequency,Impedance,Phase Angle,Temperature (Dry Bath)
10.0,5869503.0,9.842347,25.5573
21.544346900318832,3907019.0,-24.05021,25.6225
46.41588833612777,6168076.0,-32.81589,25.6821
100.0,1397104.0,-171.5849,25.6756
215.44346900318823,1935331.0,-170.6518,25.5263
464.15888336127773,1393759.0,-5.480057,25.6995
1000.0,892885.5,-63.949,25.7111
2154.4346900318824,358342.8,-74.60411,25.6328
4641.588833612777,348013.4,-82.34963,25.7145
10000.0,130992.1,-89.98484,25.6585
