Frequency,Impedance,Phase Angle,Temperature (Dry Bath)
10.0,42980920.0,-12.82636,67.1418
21.5,23778310.0,-38.64779,67.1385
46.4,12852130.0,-67.76932,67.1206
100.0,3256513.0,-50.52812,67.1286
215.4,443100.9,-142.8105,67.1404
464.2,1626352.0,-72.15774,67.1462
1000.0,791675.2,-75.54655,67.151
2154.4,444990.9,-81.71331,67.1361
4641.6,222576.0,-82.63621,67.1563
10000.0,108027.2,-83.48628,67.1512
