Frequency,Impedance,Phase Angle,Temperature (Dry Bath)
10.0,31990010.0,-5.101903,67.0027
21.5,29477270.0,-39.78042,67.0054
46.4,17772120.0,-61.88366,67.0086
100.0,49617440.0,-128.1935,67.0054
215.4,230096.2,-72.67403,67.0228
464.2,1963744.0,-78.82646,67.0153
1000.0,970098.9,-72.43941,67.0004
2154.4,449358.9,-83.14257,67.033
4641.6,229624.8,-82.47596,67.033
10000.0,116082.1,-79.30664,67.0299
