Frequency,Impedance,Phase Angle,Temperature (Dry Bath)
10.0,557461.4,-8.219336,66.9609
21.5,522309.1,-8.464645,66.9734
46.4,489154.7,-9.849086,66.9747
100.0,469108.6,-12.01431,66.9816
215.4,421048.4,-16.96517,66.9782
464.2,374886.9,-21.39044,66.9685
1000.0,317877.1,-29.78782,66.9633
2154.4,237780.6,-40.845,66.9739
4641.6,157911.1,-53.25142,66.9776
10000.0,91370.03,-64.09242,66.9849
