Frequency,Impedance,Phase Angle,Temperature (Dry Bath)
10.0,4839762.0,2.436556,71.3071
21.544346900318832,5602022.0,-23.74004,71.3062
46.41588833612777,13395850.0,-1.397013,71.2937
100.0,1140629.0,70.30823,71.2948
215.44346900318823,75910.16,5.777683,71.2866
464.15888336127773,970936.6,17.45892,71.284
1000.0,467763.2,-57.9886,71.2894
2154.4346900318824,287836.6,-78.39649,71.2881
4641.588833612777,128619.6,-80.24619,71.2942
10000.0,72643.07,-85.57729,71.3008
