Frequency,Impedance,Phase Angle,Temperature (Dry Bath)
10.0,2916097.0,0.08520186,71.3295
21.544346900318832,6801223.0,2.339981,71.3141
46.41588833612777,4302004.0,-8.040528,71.3214
100.0,242387.0,3.954079,71.3402
215.44346900318823,689863.5,-152.3168,71.3278
464.15888336127773,818689.3,-99.1838,71.3271
1000.0,504316.3,-106.3716,71.3293
2154.4346900318824,244161.4,-83.78635,71.3254
4641.588833612777,103459.4,-79.0636,71.3392
10000.0,60033.98,-86.8076,71.3339
