Frequency,Impedance,Phase Angle,Temperature (Dry Bath)
10.0,3963524.0,-1.430945,66.5
21.544346900318832,5696884.0,-25.49436,66.5
46.41588833612777,4380785.0,-15.24109,66.5
100.0,1997255.0,23.14383,66.5
215.44346900318823,3335522.0,-15.15425,66.5
464.15888336127773,762152.1,-52.22069,66.5
1000.0,1182554.0,-166.3179,66.5
2154.4346900318824,477888.5,-59.83968,66.5
4641.588833612777,571510.3,-71.92194,66.5
10000.0,312929.7,-61.44319,66.5
