Frequency,Impedance,Phase Angle,Temperature (Dry Bath)
10.0,542475.1,-11.82793,68.3241
21.5,509043.2,-10.67423,68.3361
46.4,470843.4,-11.22716,68.3358
100.0,411073.7,-12.74715,68.3505
215.4,387317.4,-16.28046,68.3393
464.2,350445.0,-23.1945,68.3565
1000.0,276010.7,-27.34207,68.3519
2154.4,224575.2,-35.83841,68.3568
4641.6,157155.3,-47.76515,68.3467
10000.0,108908.2,-62.95655,68.3377
