Frequency,Impedance,Phase Angle,Temperature (Dry Bath)
10.0,37291160.0,-16.14015,67.1543
21.5,24917990.0,-47.54537,67.1618
46.4,12992420.0,-57.18294,67.1576
100.0,966661.0,-86.03804,67.1547
215.4,5673323.0,-56.978,67.1493
464.2,1834671.0,-76.19854,67.1426
1000.0,743778.2,-78.55671,67.1626
2154.4,473488.7,-81.27519,67.1474
4641.6,224392.7,-83.30559,67.1589
10000.0,108257.2,-84.05296,67.1445
