Frequency,Impedance,Phase Angle,Temperature (Dry Bath)
10.0,23030.12,-21.31053,66.4029
21.544346900318832,19411.71,-18.39046,66.4161
46.41588833612777,16841.56,-15.40394,66.4159
100.0,15243.94,-11.60573,66.4049
215.44346900318823,14016.34,-6.362738,66.4125
464.15888336127773,12834.07,-9.252862,66.4139
1000.0,11793.05,-8.725783,66.4081
2154.4346900318824,11287.13,-9.217446,66.4131
4641.588833612777,10870.02,-9.609001,66.4088
10000.0,10166.86,-15.7565,66.4147
