Frequency,Impedance,Phase Angle,Temperature (Dry Bath)
10.0,20589.06,-20.18311,70.983
21.544346900318832,17663.07,-17.61019,70.9888
46.41588833612777,15432.58,-15.53128,70.9821
100.0,13700.36,-15.24023,70.9772
215.44346900318823,12259.13,-13.62521,70.9848
464.15888336127773,11281.11,-12.26795,70.9692
1000.0,10242.25,-10.59844,70.9603
2154.4346900318824,9413.758,-9.70873,70.967
4641.588833612777,9008.299,-9.978369,70.9901
10000.0,8469.581,-14.19955,70.9792
