Frequency,Impedance,Phase Angle,Temperature (Dry Bath)
10.0,46692130.0,-24.20616,67.2618
21.5,20963460.0,-44.51425,67.255
46.4,13085300.0,-61.12305,67.2553
100.0,5660685.0,-32.26713,67.2605
215.4,6318288.0,-83.29015,67.2822
464.2,1729214.0,-90.56399,67.274
1000.0,830944.3,-75.96383,67.2671
2154.4,459401.8,-80.37466,67.2691
4641.6,222544.2,-82.85102,67.2627
10000.0,110330.8,-82.59379,67.2907
