Frequency,Impedance,Phase Angle,Temperature (Dry Bath)
10.0,1001873.0,-15.63419,67.3
21.544346900318832,942376.6,-12.30775,67.3
46.41588833612777,867444.5,-9.445018,67.3
100.0,878164.7,-17.38931,67.3
215.44346900318823,749685.7,-19.12808,67.3
464.15888336127773,612973.2,-19.7752,67.3
1000.0,428741.0,-24.09303,67.3
2154.4346900318824,582760.8,-33.926,67.3
4641.588833612777,308707.5,-56.813,67.3
10000.0,237152.4,-61.88484,67.3
