Frequency,Impedance,Phase Angle,Temperature (Dry Bath)
10.0,4790444.0,-2.267063,71.2711
21.544346900318832,6286628.0,31.71999,71.2679
46.41588833612777,3722174.0,-30.30531,71.2716
100.0,493319.0,52.36449,71.2757
215.44346900318823,1160461.0,-42.61914,71.276
464.15888336127773,597225.5,-126.0257,71.2679
1000.0,708506.7,-51.26304,71.2796
2154.4346900318824,288520.7,-81.40024,71.2745
4641.588833612777,121077.6,-88.84209,71.2715
10000.0,58446.52,-81.09951,71.2671
