Frequency,Impedance,Phase Angle,Temperature (Dry Bath)
10.0,2384462.0,-8.912509,67.2073
21.5,2291218.0,-13.15186,67.2054
46.4,2232084.0,-11.615,67.2088
100.0,1585527.0,-27.21962,67.2269
215.4,2110307.0,-98.9227,67.2199
464.2,1482622.0,-40.74995,67.239
1000.0,683090.0,-55.78692,67.2168
2154.4,411596.3,-65.96154,67.208
4641.6,221807.1,-68.07317,67.2028
10000.0,123929.3,-71.53819,67.2045
