Frequency,Impedance,Phase Angle,Temperature (Dry Bath)
10.0,30182000.0,-12.75658,68.149
21.5,26598490.0,-34.30115,68.131
46.4,20776200.0,-41.48271,68.1385
100.0,8485936.0,-44.09978,68.1393
215.4,3126576.0,-83.76266,68.1484
464.2,3671307.0,-76.9232,68.1237
1000.0,1530000.0,-87.26826,68.1385
2154.4,726558.2,-89.72378,68.1423
4641.6,319828.0,-93.11981,68.1327
10000.0,149231.1,-92.97847,68.1434
