Frequency,Impedance,Phase Angle,Temperature (Dry Bath)
10.0,148814.0,-6.366773,68.3157
21.5,143076.2,-5.289858,68.3157
46.4,138505.6,-4.776559,68.3157
100.0,131811.6,-4.925104,68.3157
215.4,129579.0,-5.588903,68.3157
464.2,121214.0,-8.464693,68.3157
1000.0,120887.7,-11.45909,68.3157
2154.4,110928.4,-18.00795,68.3157
4641.6,95555.49,-30.60296,68.3157
10000.0,72034.13,-51.68092,68.3157
