Frequency,Impedance,Phase Angle,Temperature (Dry Bath)
10.0,18339020.0,3.80055,67.654
21.5,41353480.0,-36.06412,67.652
46.4,25406120.0,-51.7519,67.6523
100.0,5201056.0,-51.12618,67.6448
215.4,3796510.0,-65.81679,67.6635
464.2,1678976.0,-92.14312,67.6769
1000.0,1022102.0,-80.58087,67.6546
2154.4,491687.2,-83.95707,67.6592
4641.6,243677.4,-83.29607,67.6535
10000.0,124518.4,-88.90179,67.6526
