Frequency,Impedance,Phase Angle,Temperature (Dry Bath)
10.0,6587093.0,-35.83227,71.4363
21.544346900318832,3554568.0,-22.15196,71.441
46.41588833612777,5866968.0,-36.24804,71.4459
100.0,703757.9,43.1709,71.4562
215.44346900318823,665348.0,-84.56572,71.4538
464.15888336127773,504650.4,-19.08274,71.4443
1000.0,457566.2,-89.94825,71.4623
2154.4346900318824,385919.7,-73.16539,71.4541
4641.588833612777,150721.5,-78.91741,71.4474
10000.0,78648.18,-86.60291,71.4409
