Frequency,Impedance,Phase Angle,Temperature (Dry Bath)
10.0,139363.0,-25.56659,66.6674
21.5,114000.3,-22.46809,66.6582
46.4,98741.98,-19.30796,66.6598
100.0,85864.79,-17.17361,66.6674
215.4,58010.02,-2.622076,66.6862
464.2,70008.0,-14.25949,66.6764
1000.0,62138.52,-14.86299,66.6889
2154.4,57240.11,-18.48096,66.6714
4641.6,49977.31,-26.21374,66.6852
10000.0,39426.59,-37.81544,66.6792
