Frequency,Impedance,Phase Angle,Temperature (Dry Bath)
10.0,12324.65,-8.260794,67.2845
21.5,11763.36,-4.832157,67.2937
46.4,11534.01,-4.360656,67.2627
100.0,11439.82,-5.033576,67.3002
215.4,11394.69,-6.084718,67.2762
464.2,11250.23,-5.827711,67.2724
1000.0,10896.04,-5.76741,67.2761
2154.4,10557.06,-5.800226,67.295
4641.6,10230.34,-6.954524,67.274
10000.0,9891.937,-9.629907,67.2782
