Frequency,Impedance,Phase Angle,Temperature (Dry Bath)
10.0,1303368.0,-9.155223,65.716
21.544346900318832,1234958.0,-6.859376,65.7073
46.41588833612777,1205078.0,-13.9713,65.713
100.0,795674.3,-16.07792,65.7095
215.44346900318823,11972.16,-103.6359,65.7168
464.15888336127773,519105.8,22.14862,65.7288
1000.0,422456.3,-65.68318,65.7307
2154.4346900318824,357076.6,-87.98144,65.708
4641.588833612777,156510.1,-86.44619,65.6989
10000.0,59141.91,-77.56984,65.7161
