Frequency,Impedance,Phase Angle,Temperature (Dry Bath)
10.0,19135780.0,-22.74935,67.7824
21.5,16990200.0,-41.36223,67.7769
46.4,14134410.0,-53.19098,67.7739
100.0,7870387.0,-37.57922,67.7668
215.4,4506788.0,-51.99471,67.7689
464.2,2012811.0,-76.07809,67.771
1000.0,975855.1,-79.66717,67.7711
2154.4,492800.9,-81.51155,67.7753
4641.6,242152.4,-88.41664,67.7593
10000.0,129338.0,-91.2623,67.7753
