Frequency,Impedance,Phase Angle,Temperature (Dry Bath)
10.0,39134590.0,-17.05525,67.2755
21.5,25335420.0,-48.1272,67.273
46.4,19594990.0,-51.76987,67.2594
100.0,8952880.0,-128.3651,67.2778
215.4,3085451.0,-27.34899,67.2698
464.2,1956491.0,-95.74776,67.2765
1000.0,1007689.0,-82.97699,67.2505
2154.4,444810.8,-82.21253,67.2733
4641.6,218669.5,-80.62821,67.2702
10000.0,119967.8,-79.61825,67.2672
