Frequency,Impedance,Phase Angle,Temperature (Dry Bath)
10.0,12295.3,-4.640779,67.1329
21.5,11976.69,-3.932372,67.1423
46.4,11671.82,-3.215618,67.1337
100.0,11515.44,-3.311053,67.142
215.4,10688.64,-1.390023,67.135
464.2,11202.39,-3.633522,67.1446
1000.0,10936.31,-3.894822,67.1374
2154.4,10754.36,-4.431654,67.1276
4641.6,10509.75,-6.044287,67.137
10000.0,10209.24,-9.63585,67.14
