Frequency,Impedance,Phase Angle,Temperature (Dry Bath)
10.0,163723.0,-6.168987,67.7649
21.5,157544.6,-5.323094,67.76
46.4,152063.0,-4.7669,67.7655
100.0,145283.6,-4.479312,67.7628
215.4,141738.3,-3.594027,67.7681
464.2,139779.8,-6.613951,67.7743
1000.0,131395.0,-11.83358,67.7698
2154.4,117018.3,-20.3089,67.7762
4641.6,102702.6,-35.1559,67.7872
10000.0,76618.83,-56.25275,67.7687
