Frequency,Impedance,Phase Angle,Temperature (Dry Bath)
10.0,13279.97,-23.86151,71.5479
21.544346900318832,10829.36,-24.08087,71.5525
46.41588833612777,8786.374,-23.73774,71.5442
100.0,7200.827,-21.73614,71.5516
215.44346900318823,6055.879,-19.6141,71.545
464.15888336127773,5223.297,-17.82306,71.5482
1000.0,4494.863,-16.35921,71.5567
2154.4346900318824,3939.696,-15.04109,71.5503
4641.588833612777,3509.787,-13.46888,71.557
10000.0,3137.614,-12.76471,71.5748
