Frequency,Impedance,Phase Angle,Temperature (Dry Bath)
10.0,23728090.0,-41.40189,67.3241
21.5,25138840.0,-61.0785,67.3288
46.4,14647770.0,-58.76741,67.3169
100.0,3570549.0,-63.55239,67.313
215.4,2347629.0,-63.74644,67.3038
464.2,1685513.0,-71.81323,67.3186
1000.0,964505.5,-75.82522,67.3057
2154.4,494079.5,-82.72696,67.2937
4641.6,226843.8,-84.6444,67.295
10000.0,112165.2,-84.6637,67.3058
