Frequency,Impedance,Phase Angle,Temperature (Dry Bath)
10.0,3960760.0,-25.82678,71.3384
21.544346900318832,4388080.0,-25.87547,71.3437
46.41588833612777,2987293.0,-71.11993,71.3462
100.0,967073.2,37.20251,71.3547
215.44346900318823,132140.1,144.6084,71.3556
464.15888336127773,898715.3,-142.438,71.3419
1000.0,901489.7,-66.07851,71.3539
2154.4346900318824,467453.6,-109.4688,71.3335
4641.588833612777,232988.7,-79.57577,71.3525
10000.0,62888.06,-83.83055,71.343
