Frequency,Impedance,Phase Angle,Temperature (Dry Bath)
10.0,15664.77,-20.30745,70.9817
21.544346900318832,13476.95,-17.37591,71.0005
46.41588833612777,11821.84,-15.21789,70.9962
100.0,10436.8,-11.22973,70.9793
215.44346900318823,9607.687,-12.3971,70.9653
464.15888336127773,8626.147,-10.54125,70.9732
1000.0,7996.313,-10.37973,70.9961
2154.4346900318824,7430.599,-9.083285,70.9906
4641.588833612777,7057.377,-9.879374,70.9806
10000.0,6654.489,-11.90925,70.9658
