Frequency,Impedance,Phase Angle,Temperature (Dry Bath)
10.0,7811.186,-25.76655,70.8521
21.544346900318832,6482.727,-20.77449,70.8539
46.41588833612777,5596.627,-16.74957,70.8399
100.0,4968.13,-13.44846,70.8606
215.44346900318823,4487.194,-11.72084,70.8424
464.15888336127773,4196.081,-9.742173,70.8518
1000.0,3841.61,-8.656129,70.8397
2154.4346900318824,3623.758,-7.43716,70.8425
4641.588833612777,3483.203,-6.771275,70.8509
10000.0,3315.778,-8.135918,70.8578
