Frequency,Impedance,Phase Angle,Temperature (Dry Bath)
10.0,25583310.0,0.9438199,67.3823
21.5,28958060.0,-41.25366,67.3713
46.4,18174780.0,-50.6243,67.3669
100.0,11593140.0,-19.29705,67.3763
215.4,196449.5,131.9633,67.3723
464.2,3004491.0,-97.82443,67.3709
1000.0,1486046.0,-94.90399,67.3736
2154.4,641344.0,-85.54829,67.366
4641.6,286279.1,-86.43326,67.3782
10000.0,133620.1,-86.85673,67.3712
