Frequency,Impedance,Phase Angle,Temperature (Dry Bath)
10.0,2821612.0,-3.726951,71.5389
21.544346900318832,6365622.0,5.86667,71.5248
46.41588833612777,3676639.0,-13.79576,71.5314
100.0,388619.8,-20.13003,71.5289
215.44346900318823,1571815.0,32.53618,71.5267
464.15888336127773,526870.3,-43.94246,71.5206
1000.0,1689362.0,-53.01482,71.5355
2154.4346900318824,466913.3,-74.9162,71.5228
4641.588833612777,233106.7,-91.05473,71.5174
10000.0,97911.25,-89.09781,71.519
