Frequency,Impedance,Phase Angle,Temperature (Dry Bath)
10.0,137174.4,-6.360486,67.2679
21.5,131591.2,-5.435898,67.2675
46.4,126905.3,-5.037434,67.2911
100.0,123733.4,-5.384696,67.2862
215.4,116618.4,-5.478413,67.2626
464.2,113438.3,-7.852076,67.2668
1000.0,110205.6,-12.71027,67.2502
2154.4,104565.4,-19.86298,67.2549
4641.6,86900.58,-32.16964,67.2594
10000.0,61722.83,-49.50225,67.2695
