Frequency,Impedance,Phase Angle,Temperature (Dry Bath)
10.0,5983371.0,8.27462,71.8448
21.544346900318832,4539363.0,-13.31699,71.8474
46.41588833612777,4416641.0,-19.08699,71.8484
100.0,5932147.0,102.4637,71.8433
215.44346900318823,442367.2,-114.4956,71.8374
464.15888336127773,512254.3,-77.19678,71.8439
1000.0,564514.9,-66.59797,71.8489
2154.4346900318824,4366776.0,-7.310315,71.8547
4641.588833612777,334173.3,-61.11823,71.8569
10000.0,134094.0,-100.7128,71.854
