Frequency,Impedance,Phase Angle,Temperature (Dry Bath)
10.0,5720518.0,6.43618,66.2199
21.544346900318832,23965910.0,48.65445,66.2405
46.41588833612777,5286210.0,-39.9909,66.23
100.0,759629.7,-96.60051,66.2381
215.44346900318823,1484848.0,-100.4961,66.2189
464.15888336127773,519473.5,-64.604,66.2248
1000.0,444039.8,-73.748,66.2351
2154.4346900318824,353460.3,-75.53581,66.2301
4641.588833612777,146820.4,-81.70542,66.2349
10000.0,64367.87,-86.51659,66.2307
