Frequency,Impedance,Phase Angle,Temperature (Dry Bath)
10.0,14787.55,-23.9781,71.3761
21.544346900318832,12027.26,-24.15758,71.3726
46.41588833612777,9774.153,-23.74316,71.3552
100.0,8065.189,-21.70785,71.3505
215.44346900318823,6741.731,-20.12893,71.3627
464.15888336127773,5762.217,-18.32132,71.3582
1000.0,4939.262,-16.75085,71.363
2154.4346900318824,4340.168,-15.39109,71.3676
4641.588833612777,3804.07,-14.52274,71.3637
10000.0,3385.788,-13.72279,71.3545
