Frequency,Impedance,Phase Angle,Temperature (Dry Bath)
10.0,160164.2,-7.958419,65.8388
21.544346900318832,151073.6,-6.892942,65.8356
46.41588833612777,141926.6,-7.824253,65.8218
100.0,123826.9,0.2540968,65.8356
215.44346900318823,4039.327,55.33944,65.8311
464.15888336127773,133705.8,-17.42355,65.8307
1000.0,115690.5,-21.15833,65.8397
2154.4346900318824,82152.87,-30.83353,65.8472
4641.588833612777,69116.35,-49.45509,65.8486
10000.0,46020.46,-60.52979,65.8434
