Frequency,Impedance,Phase Angle,Temperature (Dry Bath)
10.0,27835640.0,-11.19245,68.2409
21.5,17042030.0,-13.06847,68.2458
46.4,15438340.0,-54.13197,68.2513
100.0,4849382.0,-3.899587,68.2607
215.4,3569094.0,-86.11938,68.2303
464.2,3310172.0,-96.9078,68.2533
1000.0,1266699.0,-83.32084,68.2516
2154.4,680016.5,-88.24388,68.255
4641.6,341976.6,-83.71084,68.2484
10000.0,137901.8,-92.82667,68.2383
