Frequency,Impedance,Phase Angle,Temperature (Dry Bath)
10.0,6723089.0,-18.39525,71.0312
21.544346900318832,4757156.0,-36.87698,71.0295
46.41588833612777,4163667.0,13.49329,71.0318
100.0,1003965.0,10.91366,71.0355
215.44346900318823,2699658.0,131.0719,71.0339
464.15888336127773,760535.4,-95.79771,71.0306
1000.0,490324.3,-57.69275,71.0237
2154.4346900318824,1583817.0,63.52999,71.0355
4641.588833612777,297759.5,-32.7623,71.0296
10000.0,171909.4,-95.81533,71.0322
