Frequency,Impedance,Phase Angle,Temperature (Dry Bath)
10.0,13312.17,-20.72735,71.3682
21.544346900318832,11350.95,-17.94646,71.3442
46.41588833612777,9891.787,-15.50056,71.3707
100.0,8817.96,-13.13557,71.3614
215.44346900318823,7883.976,-11.05117,71.3442
464.15888336127773,7337.746,-9.972815,71.3826
1000.0,6774.933,-9.628438,71.3776
2154.4346900318824,6419.446,-8.218551,71.3716
4641.588833612777,6090.831,-8.877401,71.3696
10000.0,5788.748,-11.65485,71.3889
