Frequency,Impedance,Phase Angle,Temperature (Dry Bath)
10.0,4967224.0,-8.870539,70.9284
21.544346900318832,7186641.0,2.067271,70.9138
46.41588833612777,4357297.0,-36.50604,70.9274
100.0,2309334.0,-123.2547,70.9307
215.44346900318823,2072984.0,-68.21935,70.9339
464.15888336127773,634939.6,-66.67484,70.927
1000.0,262093.8,-107.5272,70.9317
2154.4346900318824,291647.8,-100.93,70.9348
4641.588833612777,128802.6,-85.80739,70.9295
10000.0,72137.59,-83.05978,70.9204
