Frequency,Impedance,Phase Angle,Temperature (Dry Bath)
10.0,3928277.0,-14.12825,65.7856
21.544346900318832,7983486.0,19.93448,65.777
46.41588833612777,8016055.0,-16.30524,65.782
100.0,846289.4,-99.34122,65.7714
215.44346900318823,18960.7,-23.77384,65.7738
464.15888336127773,1374836.0,-24.16292,65.7912
1000.0,773203.8,-77.37887,65.7879
2154.4346900318824,249082.8,-70.0325,65.7827
4641.588833612777,132134.7,-87.60736,65.7871
10000.0,77730.35,-84.10962,65.7664
