Frequency,Impedance,Phase Angle,Temperature (Dry Bath)
10.0,39940.51,-22.37023,71.0878
21.544346900318832,33324.86,-21.94349,71.101
46.41588833612777,27961.13,-22.09311,71.128
100.0,22833.93,-23.44966,71.1032
215.44346900318823,19111.57,-23.92733,71.1123
464.15888336127773,15774.84,-24.03317,71.096
1000.0,12737.23,-28.85763,71.0888
2154.4346900318824,10709.71,-26.42164,71.0954
4641.588833612777,8397.4,-23.87015,71.1052
10000.0,6904.169,-21.47913,71.1051
