Frequency,Impedance,Phase Angle,Temperature (Dry Bath)
10.0,6047571.0,-3.264818,70.865
21.544346900318832,6446423.0,-27.23831,70.8523
46.41588833612777,4539961.0,-26.27952,70.8676
100.0,633972.1,-89.71294,70.8507
215.44346900318823,1182881.0,-162.6627,70.8718
464.15888336127773,643518.0,-88.04957,70.8765
1000.0,386548.9,-113.0084,70.8479
2154.4346900318824,336336.8,-68.56436,70.8652
4641.588833612777,133896.2,-93.6386,70.8617
10000.0,63644.82,-90.1626,70.8459
