Frequency,Impedance,Phase Angle,Temperature (Dry Bath)
10.0,28997980.0,-30.30309,67.4269
21.5,24611420.0,-36.16132,67.4342
46.4,17901800.0,-55.52482,67.3999
100.0,6899079.0,-48.77713,67.4217
215.4,107947.8,144.3434,67.4186
464.2,1986043.0,-79.40876,67.4212
1000.0,972967.0,-84.36993,67.4043
2154.4,478891.7,-81.62867,67.4165
4641.6,237231.5,-83.26986,67.4105
10000.0,111033.2,-84.79062,67.429
