Frequency,Impedance,Phase Angle,Temperature (Dry Bath)
10.0,18059900.0,-29.59394,68.2509
21.5,15048150.0,-39.93601,68.2417
46.4,14900820.0,-56.91384,68.243
100.0,5108345.0,-47.08089,68.2465
215.4,3946227.0,-57.27793,68.2416
464.2,1976028.0,-72.22529,68.2578
1000.0,928178.0,-77.67496,68.2473
2154.4,480899.9,-79.61793,68.2533
4641.6,280532.7,-81.21417,68.2577
10000.0,148339.4,-88.50431,68.2558
