Frequency,Impedance,Phase Angle,Temperature (Dry Bath)
10.0,138851.7,-5.850929,67.1938
21.5,133490.8,-4.798717,67.1973
46.4,129748.3,-4.326081,67.2018
100.0,125197.4,-4.873497,67.2038
215.4,72648.31,-11.70712,67.1997
464.2,120365.1,-6.823722,67.2025
1000.0,110304.7,-11.03925,67.1976
2154.4,105373.7,-19.60079,67.1904
4641.6,90625.2,-31.62741,67.1949
10000.0,63754.84,-50.5591,67.1939
