Frequency,Impedance,Phase Angle,Temperature (Dry Bath)
10.0,139789.8,-5.740395,67.1732
21.5,134488.5,-4.750318,67.1726
46.4,129624.2,-4.263789,67.1834
100.0,125103.5,-4.768391,67.1724
215.4,174410.0,-26.84702,67.1623
464.2,119704.5,-7.019494,67.1709
1000.0,113448.5,-12.01355,67.1648
2154.4,107173.9,-19.81048,67.1576
4641.6,89108.43,-32.82037,67.1598
10000.0,63223.25,-51.3889,67.1606
