Frequency,Impedance,Phase Angle,Temperature (Dry Bath)
10.0,34566570.0,-6.481268,67.7266
21.5,27901300.0,-16.92141,67.708
46.4,31487960.0,-41.31379,67.7142
100.0,4701572.0,-74.31747,67.7196
215.4,9907709.0,-81.42852,67.7072
464.2,3328783.0,-85.65707,67.6952
1000.0,1298423.0,-91.92845,67.7043
2154.4,699508.6,-91.9229,67.7082
4641.6,310410.0,-93.88978,67.6981
10000.0,144630.5,-97.01264,67.6923
