Frequency,Impedance,Phase Angle,Temperature (Dry Bath)
10.0,2414801.0,-11.14715,67.3983
21.5,2260643.0,-11.64977,67.3726
46.4,2167670.0,-12.84101,67.3854
100.0,1970232.0,-21.47706,67.3844
215.4,1055703.0,49.94163,67.3665
464.2,927524.0,-50.53472,67.3901
1000.0,706547.5,-65.37074,67.3758
2154.4,372879.0,-66.8857,67.3821
4641.6,195918.0,-71.06023,67.377
10000.0,110500.9,-72.1445,67.3905
