Frequency,Impedance,Phase Angle,Temperature (Dry Bath)
10.0,2263094.0,-7.538353,26.0113
21.544346900318832,2596947.0,-3.52669,25.7615
46.41588833612777,2261172.0,-26.10384,25.8288
100.0,517369.0,-8.773228,25.8836
215.44346900318823,1348911.0,-60.0446,25.9869
464.15888336127773,1019145.0,-127.4454,26.0899
1000.0,305567.8,-45.87672,26.1165
2154.4346900318824,371508.0,-74.44829,25.978
4641.588833612777,230294.1,-70.07618,26.1878
10000.0,103779.3,-79.14068,26.212
