Frequency,Impedance,Phase Angle,Temperature (Dry Bath)
10.0,1372511.0,-11.53743,67.9061
21.5,1244569.0,-11.22797,67.8953
46.4,1140758.0,-12.44712,67.8957
100.0,862654.7,-27.34607,67.8892
215.4,922402.9,-14.89532,67.8952
464.2,678539.3,-40.22397,67.9153
1000.0,595039.0,-43.70702,67.915
2154.4,349277.9,-58.91835,67.9091
4641.6,206634.7,-71.47784,67.9148
10000.0,110344.4,-78.88383,67.8985
