Frequency,Impedance,Phase Angle,Temperature (Dry Bath)
10.0,12320.55,-4.324517,67.1753
21.5,12026.2,-3.597604,67.1661
46.4,11759.82,-3.132476,67.1753
100.0,11578.06,-3.209249,67.1809
215.4,11446.02,-3.213465,67.1876
464.2,11241.52,-3.346717,67.1893
1000.0,10990.24,-3.580942,67.1742
2154.4,10799.59,-4.063073,67.1814
4641.6,10613.92,-5.770524,67.1815
10000.0,10277.46,-9.362184,67.1854
