Frequency,Impedance,Phase Angle,Temperature (Dry Bath)
10.0,19276590.0,-20.41772,68.1951
21.5,17895210.0,-13.12072,68.1877
46.4,17430660.0,-53.61014,68.1962
100.0,12832610.0,-73.60268,68.1857
215.4,6989721.0,-120.1775,68.183
464.2,3317409.0,-82.44528,68.1822
1000.0,1357464.0,-80.22595,68.1897
2154.4,659084.7,-93.01456,68.1838
4641.6,306071.1,-97.63576,68.1843
10000.0,155396.0,-95.34815,68.1728
