Frequency,Impedance,Phase Angle,Temperature (Dry Bath)
10.0,154020.8,-6.374247,68.1883
21.5,147632.0,-5.134186,68.1664
46.4,142528.1,-4.752021,68.1773
100.0,134844.9,-4.277024,68.1769
215.4,134436.7,-6.097494,68.1819
464.2,129282.5,-7.819481,68.1845
1000.0,123094.4,-11.91836,68.1992
2154.4,116220.0,-19.72836,68.1769
4641.6,98355.16,-32.87436,68.1706
10000.0,73054.6,-53.35514,68.1891
