Frequency,Impedance,Phase Angle,Temperature (Dry Bath)
10.0,24094610.0,-11.15471,67.5201
21.5,18250700.0,-38.90357,67.5316
46.4,15539720.0,-52.89256,67.5324
100.0,4965789.0,0.6898533,67.5058
215.4,240660.1,-20.28247,67.5227
464.2,2257901.0,-97.16688,67.5221
1000.0,943004.8,-80.99027,67.5168
2154.4,515286.9,-81.13209,67.5218
4641.6,243748.6,-78.90061,67.5216
10000.0,130675.8,-80.05404,67.5359
