Frequency,Impedance,Phase Angle,Temperature (Dry Bath)
10.0,31898220.0,-11.56396,67.0939
21.5,25791660.0,-48.90499,67.0538
46.4,13564270.0,-63.42179,67.0747
100.0,4318690.0,-60.32088,67.0721
215.4,2055997.0,-54.24212,67.0521
464.2,1437337.0,-82.56031,67.0638
1000.0,935832.2,-78.25123,67.0645
2154.4,455612.5,-80.5764,67.0556
4641.6,218868.7,-83.40001,67.0507
10000.0,107589.4,-84.17612,67.0737
