Frequency,Impedance,Phase Angle,Temperature (Dry Bath)
10.0,19837030.0,-23.41763,67.9916
21.5,15233940.0,-39.70958,68.0026
46.4,14100930.0,-66.70546,67.9891
100.0,4244504.0,-14.19225,68.0003
215.4,5586867.0,-53.41419,67.9926
464.2,1839610.0,-67.95855,68.0006
1000.0,982517.0,-72.02747,67.9941
2154.4,563455.0,-79.81711,68.0114
4641.6,283558.1,-82.88117,68.0108
10000.0,138837.5,-89.22907,67.9991
