Frequency,Impedance,Phase Angle,Temperature (Dry Bath)
10.0,3001276.0,-16.41668,68.0298
21.5,2834179.0,-20.16067,68.0378
46.4,2992935.0,-26.23887,68.0356
100.0,2359935.0,-31.76548,68.0335
215.4,1826292.0,-49.88985,68.0284
464.2,1486272.0,-45.99501,68.0295
1000.0,725265.2,-58.85182,68.0176
2154.4,418661.0,-70.78182,68.0339
4641.6,238992.4,-81.12883,68.0364
10000.0,116381.1,-87.13462,68.04
