Frequency,Impedance,Phase Angle,Temperature (Dry Bath)
10.0,22730.5,-21.39558,65.841
21.544346900318832,19124.89,-18.42069,65.8574
46.41588833612777,16615.7,-15.3033,65.8537
100.0,14391.74,-16.78475,65.8428
215.44346900318823,117429.3,43.23841,65.8545
464.15888336127773,12596.35,-9.356581,65.8403
1000.0,11720.06,-9.251648,65.8441
2154.4346900318824,11105.24,-8.5359,65.8436
4641.588833612777,10799.62,-10.63124,65.8488
10000.0,10186.56,-14.60433,65.8504
