Frequency,Impedance,Phase Angle,Temperature (Dry Bath)
10.0,164093.3,-9.127662,71.2653
21.544346900318832,153477.3,-9.222599,71.2666
46.41588833612777,143300.1,-8.088302,71.2666
100.0,143146.6,-12.7107,71.2482
215.44346900318823,108835.3,6.460446,71.2733
464.15888336127773,117978.5,-20.15728,71.2659
1000.0,97782.19,-28.5952,71.2755
2154.4346900318824,95615.75,-27.65637,71.2803
4641.588833612777,63780.64,-50.49323,71.2856
10000.0,44004.1,-63.68457,71.2952
