Frequency,Impedance,Phase Angle,Temperature (Dry Bath)
10.0,32014500.0,-27.20844,68.0473
21.5,19150330.0,-42.41172,68.0516
46.4,19001430.0,-52.72525,68.0337
100.0,7182078.0,-27.28236,68.0436
215.4,4086276.0,-71.08964,68.0353
464.2,2457387.0,-88.80937,68.0431
1000.0,1097985.0,-88.49052,68.0472
2154.4,515933.9,-81.20489,68.0557
4641.6,285481.5,-80.47427,68.0371
10000.0,141025.1,-89.79009,68.0381
