Frequency,Impedance,Phase Angle,Temperature (Dry Bath)
10.0,12340.21,-4.300965,67.3145
21.5,12069.51,-3.735265,67.2916
46.4,11849.17,-3.490738,67.3059
100.0,11630.94,-3.411649,67.295
215.4,11028.82,-0.7066875,67.3123
464.2,11261.97,-3.34653,67.309
1000.0,11032.92,-3.513804,67.3145
2154.4,10840.27,-4.10788,67.3058
4641.6,10609.54,-5.622187,67.3153
10000.0,10315.03,-9.416425,67.3148
