Frequency,Impedance,Phase Angle,Temperature (Dry Bath)
10.0,23516330.0,-26.76672,68.0326
21.5,27806790.0,-34.97825,68.0326
46.4,30906060.0,-58.65622,68.0326
100.0,4531551.0,-47.62487,68.0326
215.4,4332150.0,-81.81895,68.0326
464.2,2009568.0,-75.39117,68.0326
1000.0,1110433.0,-76.11565,68.0326
2154.4,619805.3,-75.43083,68.0326
4641.6,341127.9,-86.86184,68.0326
10000.0,164481.6,-90.69311,68.0326
