Frequency,Impedance,Phase Angle,Temperature (Dry Bath)
10.0,4480363.0,-29.49197,70.6223
21.544346900318832,5523705.0,-25.49672,70.6361
46.41588833612777,5344983.0,-1.530576,70.6285
100.0,872338.8,-26.13095,70.6218
215.44346900318823,672170.5,-102.8903,70.6129
464.15888336127773,669613.6,-162.5403,70.622
1000.0,337077.1,-129.2998,70.6295
2154.4346900318824,262543.4,-65.58117,70.6211
4641.588833612777,161239.3,-89.75186,70.6358
10000.0,66466.96,-93.51078,70.6211
