Frequency,Impedance,Phase Angle,Temperature (Dry Bath)
10.0,6416979.0,-14.03356,66.3633
21.544346900318832,4820966.0,-10.73616,66.3697
46.41588833612777,4271783.0,-29.71871,66.3517
100.0,572518.5,-47.66034,66.3669
215.44346900318823,248762.8,-177.8328,66.3629
464.15888336127773,1765690.0,-61.44137,66.3653
1000.0,488346.4,-65.67211,66.3528
2154.4346900318824,251059.1,-86.35307,66.3583
4641.588833612777,114010.7,-84.77655,66.3732
10000.0,67989.01,-83.58623,66.3642
