Frequency,Impedance,Phase Angle,Temperature (Dry Bath)
10.0,17936.92,-24.19343,71.5324
21.544346900318832,14540.58,-24.21918,71.5473
46.41588833612777,11848.31,-23.77586,71.5298
100.0,9653.383,-22.44507,71.5387
215.44346900318823,8119.334,-20.86853,71.5485
464.15888336127773,6941.596,-19.44483,71.5548
1000.0,5842.289,-18.36267,71.5364
2154.4346900318824,5062.327,-17.48241,71.5417
4641.588833612777,4386.159,-16.48158,71.5629
10000.0,3840.071,-15.33239,71.5463
