Frequency,Impedance,Phase Angle,Temperature (Dry Bath)
10.0,18783850.0,-10.19527,68.2407
21.5,17437170.0,-49.986,68.2407
46.4,15288680.0,-53.56248,68.2407
100.0,5805557.0,-53.45218,68.2407
215.4,3660840.0,-72.25469,68.2407
464.2,2661191.0,-74.70134,68.2407
1000.0,1092255.0,-88.36791,68.2407
2154.4,524239.4,-89.17688,68.2407
4641.6,245448.9,-89.99391,68.2407
10000.0,112771.3,-94.2867,68.2407
