Frequency,Impedance,Phase Angle,Temperature (Dry Bath)
10.0,7481936.0,-0.7877934,70.9109
21.544346900318832,4351292.0,-18.37144,70.8825
46.41588833612777,4844487.0,-12.78498,70.8811
100.0,1419919.0,157.8744,70.8913
215.44346900318823,3294876.0,-87.95205,70.8894
464.15888336127773,1210695.0,-31.8615,70.9012
1000.0,529892.9,-53.90345,70.898
2154.4346900318824,210212.5,-90.15479,70.909
4641.588833612777,119840.4,-79.6132,70.9147
10000.0,57401.67,-86.36256,70.9087
