Frequency,Impedance,Phase Angle,Temperature (Dry Bath)
10.0,193461.5,-26.39259,65.834
21.544346900318832,156303.3,-24.49228,65.841
46.41588833612777,125851.8,-22.55296,65.8227
100.0,90462.62,-20.61596,65.837
215.44346900318823,17745.7,90.22539,65.8377
464.15888336127773,84622.41,-17.35607,65.8418
1000.0,85154.02,-22.28554,65.8384
2154.4346900318824,62041.64,-28.16583,65.833
4641.588833612777,44386.95,-37.11838,65.8483
10000.0,36533.8,-50.80115,65.8418
