Frequency,Impedance,Phase Angle,Temperature (Dry Bath)
10.0,2057111.0,-10.2237,67.4845
21.5,1926946.0,-11.05455,67.4737
46.4,1779969.0,-15.09977,67.4884
100.0,1687457.0,-22.01925,67.4872
215.4,204800.2,-150.8292,67.4796
464.2,1050759.0,-46.6753,67.4921
1000.0,648474.2,-52.31521,67.4824
2154.4,356357.7,-61.4882,67.4949
4641.6,196153.2,-70.60129,67.4806
10000.0,105773.3,-71.72888,67.4983
