Frequency,Impedance,Phase Angle,Temperature (Dry Bath)
10.0,138611.4,-5.899763,67.1016
21.5,133119.7,-5.075492,67.1196
46.4,128915.8,-4.803377,67.1397
100.0,125570.4,-5.13007,67.13
215.4,123529.3,-7.965861,67.0972
464.2,118053.2,-8.804829,67.1068
1000.0,108976.0,-13.00989,67.1265
2154.4,100045.3,-20.44824,67.139
4641.6,85892.26,-33.51158,67.1099
10000.0,60437.96,-50.27869,67.13
