Frequency,Impedance,Phase Angle,Temperature (Dry Bath)
10.0,26803930.0,-12.17054,68.1428
21.5,20075320.0,-35.39942,68.1528
46.4,9579146.0,-48.21497,68.1589
100.0,11209820.0,-81.54824,68.1399
215.4,5202205.0,-98.26557,68.1498
464.2,1788296.0,-83.30332,68.1512
1000.0,951306.7,-83.46643,68.1379
2154.4,454024.8,-84.53583,68.1383
4641.6,244170.7,-87.49333,68.1573
10000.0,114003.0,-90.76643,68.1489
