Frequency,Impedance,Phase Angle,Temperature (Dry Bath)
10.0,33628780.0,-2.026861,67.165
21.5,28569300.0,-19.22097,67.1705
46.4,18497460.0,-53.23269,67.1491
100.0,10130530.0,-82.94016,67.1354
215.4,114127.5,81.21693,67.1468
464.2,2951195.0,-98.61404,67.1492
1000.0,1045893.0,-84.08484,67.1535
2154.4,567193.6,-88.03118,67.1542
4641.6,271642.1,-85.80739,67.1495
10000.0,130850.2,-86.81553,67.1452
