Frequency,Impedance,Phase Angle,Temperature (Dry Bath)
10.0,23012470.0,3.823796,67.3996
21.5,29428970.0,-30.24556,67.3928
46.4,20959690.0,-54.14406,67.3977
100.0,9205898.0,-28.92615,67.3825
215.4,8114352.0,105.8892,67.3956
464.2,2054604.0,-107.5269,67.4019
1000.0,1411101.0,-77.14969,67.4114
2154.4,577323.4,-92.86415,67.4078
4641.6,284150.7,-85.13725,67.3899
10000.0,132739.1,-88.2944,67.3906
