Frequency,Impedance,Phase Angle,Temperature (Dry Bath)
10.0,23252360.0,-19.40765,68.1777
21.5,35591480.0,-28.10941,68.161
46.4,21634340.0,-53.40682,68.181
100.0,3512166.0,-34.05105,68.1978
215.4,2754344.0,-54.97843,68.1642
464.2,1794626.0,-75.81715,68.193
1000.0,986479.0,-87.12429,68.1626
2154.4,407391.8,-83.44629,68.1829
4641.6,242371.0,-86.86487,68.1746
10000.0,113793.3,-86.8815,68.1758
