Frequency,Impedance,Phase Angle,Temperature (Dry Bath)
10.0,19255.64,-24.07952,71.3843
21.544346900318832,15649.39,-24.02976,71.361
46.41588833612777,12787.82,-23.52996,71.3876
100.0,10491.36,-22.6708,71.37
215.44346900318823,8841.771,-21.81066,71.3894
464.15888336127773,7464.72,-20.10567,71.3771
1000.0,6339.735,-18.64151,71.3746
2154.4346900318824,5423.623,-18.4032,71.3749
4641.588833612777,4668.422,-17.47287,71.3711
10000.0,4004.443,-16.45084,71.3897
