Frequency,Impedance,Phase Angle,Temperature (Dry Bath)
10.0,23153550.0,-12.38182,68.0
21.5,14655690.0,-23.93405,68.002
46.4,13377160.0,-54.96191,68.0128
100.0,4531915.0,-29.35622,68.0206
215.4,8633230.0,-111.6869,68.0166
464.2,1974226.0,-81.77523,68.0095
1000.0,991427.1,-86.04987,68.0083
2154.4,588799.6,-81.12828,68.0088
4641.6,288572.5,-81.09113,68.0049
10000.0,158072.3,-84.07822,68.0155
