Frequency,Impedance,Phase Angle,Temperature (Dry Bath)
10.0,511889.2,-12.64982,71.2736
21.544346900318832,436633.0,-13.65268,71.2677
46.41588833612777,386521.6,-15.10775,71.2683
100.0,189041.7,-42.44998,71.2662
215.44346900318823,319883.6,-2.040952,71.2659
464.15888336127773,220704.3,-14.47022,71.2615
1000.0,288131.4,-27.35902,71.271
2154.4346900318824,226398.8,-41.78916,71.2551
4641.588833612777,117251.1,-62.34124,71.2603
10000.0,50018.82,-71.85702,71.2536
