Frequency,Impedance,Phase Angle,Temperature (Dry Bath)
10.0,23861110.0,-51.81678,67.2141
21.5,20435870.0,-38.02304,67.2034
46.4,11589180.0,-52.24775,67.2113
100.0,4994588.0,-9.115771,67.2344
215.4,424310.9,109.2082,67.2263
464.2,1781054.0,-72.43627,67.2257
1000.0,848646.1,-75.5411,67.2211
2154.4,407532.5,-74.0034,67.24
4641.6,223119.8,-76.78532,67.2156
10000.0,115721.6,-80.18012,67.2363
