Frequency,Impedance,Phase Angle,Temperature (Dry Bath)
10.0,31931.9,-30.0898,71.4911
21.544346900318832,24946.14,-28.31621,71.5043
46.41588833612777,19627.06,-26.41558,71.4806
100.0,15767.52,-23.27098,71.4874
215.44346900318823,13222.41,-20.7783,71.4909
464.15888336127773,11097.81,-18.90961,71.4979
1000.0,9300.162,-16.77394,71.4925
2154.4346900318824,8661.235,-14.442,71.4882
4641.588833612777,7715.81,-13.07246,71.4982
10000.0,7164.509,-15.6003,71.4948
