Frequency,Impedance,Phase Angle,Temperature (Dry Bath)
10.0,12387.43,-8.289289,67.4499
21.5,11817.06,-4.849088,67.4594
46.4,11679.35,-4.715874,67.4422
100.0,11581.74,-5.237299,67.4505
215.4,11413.93,-5.296459,67.4586
464.2,11334.64,-5.814229,67.4641
1000.0,10965.92,-5.715589,67.4609
2154.4,10633.99,-5.773556,67.4506
4641.6,10299.74,-6.876738,67.4399
10000.0,9965.704,-9.768194,67.4505
