Frequency,Impedance,Phase Angle,Temperature (Dry Bath)
10.0,6695.635,-28.33092,70.4088
21.544346900318832,5292.218,-26.16789,70.4142
46.41588833612777,4282.34,-23.44172,70.4123
100.0,3561.622,-20.32221,70.4037
215.44346900318823,3044.909,-18.05445,70.4045
464.15888336127773,2666.028,-14.60745,70.4146
1000.0,2371.751,-12.60639,70.4153
2154.4346900318824,2151.674,-11.04368,70.4031
4641.588833612777,1991.615,-10.00459,70.3936
10000.0,1861.232,-10.30997,70.3842
