Frequency,Impedance,Phase Angle,Temperature (Dry Bath)
10.0,25990940.0,-36.09505,68.1538
21.5,12808270.0,-39.56017,68.1628
46.4,11061430.0,-51.49174,68.1465
100.0,6068804.0,-45.35045,68.1455
215.4,2949862.0,-87.70715,68.1545
464.2,1870093.0,-78.14959,68.1535
1000.0,967308.3,-76.2724,68.1625
2154.4,543985.9,-73.92584,68.1554
4641.6,273147.4,-83.70317,68.1432
10000.0,131383.2,-92.05937,68.1523
