Frequency,Impedance,Phase Angle,Temperature (Dry Bath)
10.0,17032150.0,-20.10202,67.9537
21.5,25347820.0,-45.86185,67.9483
46.4,20655780.0,-57.21687,67.9309
100.0,4858594.0,-46.92641,67.9445
215.4,3607393.0,-76.59101,67.941
464.2,2144262.0,-81.97315,67.9532
1000.0,1037793.0,-78.92802,67.9532
2154.4,556769.2,-78.71111,67.9498
4641.6,246303.1,-85.29823,67.9506
10000.0,124663.0,-91.43606,67.9503
