Frequency,Impedance,Phase Angle,Temperature (Dry Bath)
10.0,473171.2,-8.238942,67.0982
21.5,442748.9,-9.035174,67.1117
46.4,415055.9,-10.05924,67.1204
100.0,376561.8,-13.32903,67.1086
215.4,358034.0,-16.9673,67.1133
464.2,328636.6,-19.63773,67.114
1000.0,278464.9,-26.1385,67.0998
2154.4,226960.3,-38.11138,67.1138
4641.6,147538.9,-48.74754,67.1108
10000.0,88840.47,-60.68567,67.1032
