Frequency,Impedance,Phase Angle,Temperature (Dry Bath)
10.0,3708204.0,-27.37314,71.1943
21.544346900318832,3746970.0,5.538102,71.2344
46.41588833612777,4032428.0,-20.10595,71.2139
100.0,575135.2,28.39843,71.227
215.44346900318823,5467410.0,-85.65524,71.2261
464.15888336127773,389153.1,-3.375945,71.2151
1000.0,534227.1,-69.04167,71.2171
2154.4346900318824,315451.5,-91.07784,71.2319
4641.588833612777,112391.6,-100.3822,71.2287
10000.0,51892.82,-84.00086,71.2207
