Frequency,Impedance,Phase Angle,Temperature (Dry Bath)
10.0,21718.06,-21.80175,28.4552
21.544346900318832,17970.58,-23.38459,28.5561
46.41588833612777,14515.33,-24.71918,28.6064
100.0,11805.98,-25.40462,28.5672
215.44346900318823,9369.772,-25.44355,28.56
464.15888336127773,7499.934,-24.61711,28.6233
1000.0,6038.254,-23.81555,28.058
2154.4346900318824,4927.887,-22.65955,28.0358
4641.588833612777,4101.754,-20.5866,28.1153
10000.0,3496.238,-19.02341,28.0946
