Frequency,Impedance,Phase Angle,Temperature (Dry Bath)
10.0,19643090.0,-15.67571,67.7259
21.5,38600540.0,-30.74845,67.7253
46.4,32570380.0,-52.03442,67.726
100.0,12965300.0,-20.3208,67.7146
215.4,7211965.0,-93.96792,67.7283
464.2,2393710.0,-87.76541,67.7232
1000.0,1376691.0,-85.21726,67.7182
2154.4,662014.8,-93.35957,67.7092
4641.6,307431.6,-91.49025,67.7192
10000.0,141888.3,-91.40081,67.7148
