Frequency,Impedance,Phase Angle,Temperature (Dry Bath)
10.0,25049250.0,-26.74359,68.1661
21.5,21826650.0,-34.82394,68.1882
46.4,21682530.0,-59.36809,68.1743
100.0,6458711.0,-42.45157,68.1857
215.4,3845181.0,-64.08316,68.1645
464.2,2374068.0,-81.07116,68.1716
1000.0,1026680.0,-74.04324,68.1661
2154.4,516006.4,-80.88374,68.1852
4641.6,240627.1,-89.92359,68.1762
10000.0,120636.7,-93.25074,68.187
