Frequency,Impedance,Phase Angle,Temperature (Dry Bath)
10.0,23256580.0,-16.49079,67.1023
21.5,26480430.0,-47.31204,67.1149
46.4,13464440.0,-61.31145,67.1082
100.0,3495398.0,-19.63037,67.0939
215.4,1179346.0,-138.8028,67.1097
464.2,1537340.0,-71.38324,67.1138
1000.0,781140.6,-74.22107,67.0902
2154.4,445982.4,-86.3072,67.1028
4641.6,218115.2,-82.08202,67.1067
10000.0,108243.4,-84.30474,67.1169
