Frequency,Impedance,Phase Angle,Temperature (Dry Bath)
10.0,12369.38,-4.307539,67.1523
21.5,12100.26,-3.751135,67.1595
46.4,11882.21,-3.545491,67.1603
100.0,11639.88,-3.174138,67.1595
215.4,11490.31,-3.482398,67.1679
464.2,11298.51,-3.463013,67.1741
1000.0,11010.32,-3.556481,67.182
2154.4,10832.24,-4.16177,67.1781
4641.6,10612.9,-5.75469,67.1691
10000.0,10292.75,-9.524593,67.1607
