Frequency,Impedance,Phase Angle,Temperature (Dry Bath)
10.0,177357.0,-21.10814,65.6876
21.544346900318832,150861.6,-20.4994,65.7185
46.41588833612777,127823.9,-19.20559,65.6923
100.0,108453.2,-12.4532,65.6919
215.44346900318823,7360.328,155.3499,65.6768
464.15888336127773,82167.29,-18.99206,65.707
1000.0,69239.3,-29.45042,65.7081
2154.4346900318824,64736.42,-32.28039,65.7159
4641.588833612777,45134.55,-34.91493,65.7165
10000.0,35303.25,-49.76556,65.7116
