Frequency,Impedance,Phase Angle,Temperature (Dry Bath)
10.0,120970.8,-24.69343,67.4258
21.5,101085.8,-21.48804,67.41
46.4,87039.86,-18.26956,67.3984
100.0,77574.66,-16.20724,67.4146
215.4,68576.57,-15.8841,67.407
464.2,63164.3,-12.47299,67.405
1000.0,57853.05,-13.29576,67.4102
2154.4,53406.46,-16.7214,67.4109
4641.6,47713.8,-23.55505,67.4102
10000.0,39273.21,-34.88702,67.421
