Frequency,Impedance,Phase Angle,Temperature (Dry Bath)
10.0,24552.51,-20.89483,71.2508
21.544346900318832,20751.83,-18.19774,71.2478
46.41588833612777,18021.83,-15.74563,71.2452
100.0,15386.53,-14.19989,71.2372
215.44346900318823,14676.83,-13.86053,71.2481
464.15888336127773,13679.28,-9.682687,71.2418
1000.0,11931.23,-7.99016,71.2424
2154.4346900318824,11798.96,-8.321799,71.2531
4641.588833612777,10941.66,-10.98466,71.2539
10000.0,10405.74,-15.3949,71.2375
