Frequency,Impedance,Phase Angle,Temperature (Dry Bath)
10.0,5275681.0,7.31701,70.9735
21.544346900318832,3730122.0,-23.37271,70.9708
46.41588833612777,4018748.0,-14.73762,70.9676
100.0,539189.8,98.4122,70.978
215.44346900318823,1976362.0,51.19605,70.9707
464.15888336127773,537159.6,-58.71401,70.9601
1000.0,420852.0,-88.04986,70.955
2154.4346900318824,286908.6,-79.63579,70.9615
4641.588833612777,144387.5,-72.9203,70.9552
10000.0,68138.63,-86.82616,70.9749
