Frequency,Impedance,Phase Angle,Temperature (Dry Bath)
10.0,110524.7,-24.66817,67.6515
21.5,92328.4,-21.83937,67.6713
46.4,80146.09,-19.03185,67.6525
100.0,69322.54,-16.34516,67.6496
215.4,62563.39,-14.05447,67.6575
464.2,57429.31,-13.22445,67.6698
1000.0,52941.28,-14.16144,67.6645
2154.4,48853.73,-17.05054,67.6496
4641.6,44732.86,-21.4194,67.6663
10000.0,38337.35,-35.59087,67.6545
