Frequency,Impedance,Phase Angle,Temperature (Dry Bath)
10.0,1450678.0,-9.088399,67.4777
21.5,1393701.0,-8.783805,67.4776
46.4,1299350.0,-11.36051,67.4686
100.0,1293075.0,-10.67122,67.4765
215.4,1082360.0,-30.44452,67.4732
464.2,796517.5,-30.75737,67.4915
1000.0,578952.3,-53.11482,67.4973
2154.4,361346.2,-63.93725,67.4893
4641.6,200295.7,-69.85286,67.4838
10000.0,104630.0,-74.15153,67.4815
