Frequency,Impedance,Phase Angle,Temperature (Dry Bath)
10.0,30856520.0,4.526046,67.1927
21.5,25176170.0,-34.79651,67.1977
46.4,17794170.0,-49.5609,67.1758
100.0,5083262.0,-64.49091,67.1933
215.4,290044.0,-20.29197,67.1774
464.2,1984231.0,-95.07712,67.1998
1000.0,1276170.0,-86.66163,67.1867
2154.4,633522.3,-94.78158,67.1687
4641.6,269032.3,-84.97598,67.1779
10000.0,129978.9,-86.67894,67.1927
