Frequency,Impedance,Phase Angle,Temperature (Dry Bath)
10.0,12119.34,-4.269037,67.1784
21.5,11859.13,-3.694235,67.1655
46.4,11651.14,-3.453843,67.1656
100.0,11427.43,-3.111742,67.1625
215.4,10963.07,-0.2883849,67.1724
464.2,11090.49,-3.190781,67.165
1000.0,10839.32,-3.379695,67.1679
2154.4,10663.68,-4.13334,67.161
4641.6,10444.1,-5.789493,67.1591
10000.0,10152.74,-9.23477,67.1739
