Frequency,Impedance,Phase Angle,Temperature (Dry Bath)
10.0,158401.1,-8.230186,65.7369
21.544346900318832,149266.8,-7.941865,65.7278
46.41588833612777,141336.4,-8.038415,65.7203
100.0,122081.3,-23.79455,65.7205
215.44346900318823,19623.73,16.26921,65.7279
464.15888336127773,139167.2,-7.302124,65.7029
1000.0,95121.45,-20.30742,65.7035
2154.4346900318824,87405.29,-18.20881,65.716
4641.588833612777,75925.89,-44.11382,65.697
10000.0,50886.57,-62.3081,65.7133
