Frequency,Impedance,Phase Angle,Temperature (Dry Bath)
10.0,22627950.0,-21.31314,68.1949
21.5,17065620.0,-25.42361,68.1949
46.4,21924300.0,-59.71601,68.1949
100.0,5510992.0,-58.59531,68.1949
215.4,4066677.0,-66.97191,68.1949
464.2,2087912.0,-72.17716,68.1949
1000.0,954561.0,-85.92916,68.1949
2154.4,414235.1,-81.71056,68.1949
4641.6,208241.4,-80.79518,68.1949
10000.0,121470.9,-91.5762,68.1949
