Frequency,Impedance,Phase Angle,Temperature (Dry Bath)
10.0,19030880.0,-8.546291,68.0147
21.5,22808080.0,-32.84487,68.0147
46.4,25894140.0,-50.79263,68.0147
100.0,6806149.0,-31.2092,68.0147
215.4,4754736.0,-70.78625,68.0147
464.2,2125721.0,-99.15952,68.0147
1000.0,1036473.0,-84.68159,68.0147
2154.4,483330.2,-86.00003,68.0147
4641.6,243762.5,-92.34535,68.0147
10000.0,116277.3,-97.61358,68.0147
