Frequency,Impedance,Phase Angle,Temperature (Dry Bath)
10.0,4989453.0,-19.11148,71.4481
21.544346900318832,8573934.0,-23.52349,71.4402
46.41588833612777,4651850.0,-21.08339,71.4512
100.0,543460.5,30.30505,71.4419
215.44346900318823,23957.25,-16.90953,71.4422
464.15888336127773,826004.9,-74.65584,71.4497
1000.0,511227.8,-79.56439,71.4598
2154.4346900318824,340471.7,-82.76118,71.4539
4641.588833612777,124921.1,-83.74318,71.4619
10000.0,60452.36,-87.40715,71.4446
