Frequency,Impedance,Phase Angle,Temperature (Dry Bath)
10.0,31237320.0,-34.28295,67.8935
21.5,41230550.0,-35.67954,67.8866
46.4,20213820.0,-58.93991,67.904
100.0,4377561.0,-38.3075,67.9051
215.4,4020493.0,-79.52694,67.8932
464.2,2103998.0,-73.75804,67.8971
1000.0,895833.4,-77.89486,67.8931
2154.4,505242.3,-74.1048,67.8889
4641.6,273962.5,-84.40358,67.8976
10000.0,134918.8,-87.39527,67.9071
