Frequency,Impedance,Phase Angle,Temperature (Dry Bath)
10.0,32527310.0,-20.73935,67.9827
21.5,22425330.0,-47.43675,67.9788
46.4,27320060.0,-54.56302,67.9652
100.0,9474224.0,-25.41322,67.9733
215.4,3868590.0,-102.7777,67.9617
464.2,1816421.0,-84.34408,67.973
1000.0,994364.3,-77.84642,67.9823
2154.4,522597.3,-84.75496,67.9847
4641.6,272396.9,-84.42934,67.9689
10000.0,140758.2,-90.49635,67.9683
