Frequency,Impedance,Phase Angle,Temperature (Dry Bath)
10.0,34827920.0,-33.25307,67.473
21.5,26520390.0,-26.76431,67.4813
46.4,15135760.0,-56.98029,67.4643
100.0,4936518.0,-47.77667,67.4786
215.4,2365126.0,-105.2824,67.4515
464.2,1915306.0,-82.72237,67.4651
1000.0,830340.5,-79.32367,67.4797
2154.4,469948.4,-85.70201,67.4906
4641.6,236792.5,-83.49159,67.4719
10000.0,112592.3,-81.4196,67.4911
