Frequency,Impedance,Phase Angle,Temperature (Dry Bath)
10.0,38097230.0,-24.42446,68.0303
21.5,42533460.0,-43.69166,68.0217
46.4,32721380.0,-52.06789,68.0313
100.0,11827890.0,-36.95815,68.0274
215.4,6112436.0,-102.7319,68.0202
464.2,2317634.0,-101.6139,68.0222
1000.0,1281230.0,-79.60748,68.0314
2154.4,633441.9,-87.9275,68.021
4641.6,299232.3,-93.25629,68.0464
10000.0,149612.7,-93.93369,68.0227
