Frequency,Impedance,Phase Angle,Temperature (Dry Bath)
10.0,32328950.0,-23.6042,67.0012
21.5,22715490.0,-49.59764,67.0031
46.4,13247930.0,-57.21145,67.0236
100.0,6718273.0,-94.49201,67.0086
215.4,3987047.0,-65.10934,67.0056
464.2,1516000.0,-84.90364,67.0182
1000.0,864745.4,-79.24375,66.9972
2154.4,460895.7,-79.35381,67.0133
4641.6,221497.2,-81.78292,67.0073
10000.0,109428.1,-83.47179,67.0083
