Frequency,Impedance,Phase Angle,Temperature (Dry Bath)
10.0,19428.88,-18.58162,68.1492
21.5,16912.87,-15.28619,68.139
46.4,15215.28,-12.09874,68.1584
100.0,13828.29,-9.841422,68.1499
215.4,13155.19,-7.369906,68.1344
464.2,12488.6,-6.966914,68.1554
1000.0,11960.54,-6.098322,68.1534
2154.4,11565.5,-5.577402,68.1605
4641.6,11294.98,-8.01531,68.1558
10000.0,11057.56,-12.22205,68.1536
