Frequency,Impedance,Phase Angle,Temperature (Dry Bath)
10.0,11374.49,-5.149914,67.3637
21.5,11117.01,-4.177939,67.3787
46.4,10971.0,-3.907864,67.3682
100.0,10866.2,-4.00507,67.384
215.4,10975.04,-5.981216,67.3732
464.2,10510.63,-4.332117,67.3782
1000.0,10222.76,-4.166473,67.3781
2154.4,9978.402,-4.566705,67.3821
4641.6,9744.415,-5.742991,67.3898
10000.0,9471.789,-8.870981,67.3952
