Frequency,Impedance,Phase Angle,Temperature (Dry Bath)
10.0,12615.45,-23.38635,71.0964
21.544346900318832,10573.28,-19.74916,71.0729
46.41588833612777,9115.424,-16.75925,71.1
100.0,8009.993,-14.27256,71.0871
215.44346900318823,7286.218,-12.27077,71.078
464.15888336127773,6640.797,-10.71304,71.0692
1000.0,6066.812,-9.378692,71.0819
2154.4346900318824,5669.867,-9.018615,71.0637
4641.588833612777,5278.022,-8.954745,71.0787
10000.0,5045.945,-11.41034,71.0874
