Frequency,Impedance,Phase Angle,Temperature (Dry Bath)
10.0,139028.6,-5.925495,67.1042
21.5,133330.7,-5.062358,67.0958
46.4,129119.3,-4.834681,67.0866
100.0,126479.8,-4.959764,67.0917
215.4,122052.9,-7.181816,67.1019
464.2,117334.3,-8.638052,67.1049
1000.0,111974.5,-13.63242,67.0958
2154.4,102591.7,-21.21728,67.0987
4641.6,88214.83,-34.84399,67.1018
10000.0,61059.47,-51.09251,67.0963
