Frequency,Impedance,Phase Angle,Temperature (Dry Bath)
10.0,681931.2,-10.09759,67.0957
21.5,637651.9,-10.00822,67.1087
46.4,599258.0,-10.71434,67.1193
100.0,505645.7,-12.80143,67.1277
215.4,102400.4,56.98779,67.1095
464.2,464455.8,-19.24156,67.1262
1000.0,370562.8,-32.54208,67.133
2154.4,267591.0,-44.58969,67.1258
4641.6,163690.7,-57.91791,67.1294
10000.0,95646.23,-65.27002,67.129
