Frequency,Impedance,Phase Angle,Temperature (Dry Bath)
10.0,5262882.0,-20.59963,70.9376
21.544346900318832,5251790.0,-23.26502,70.943
46.41588833612777,6981212.0,-38.96715,70.948
100.0,771886.8,12.58274,70.9237
215.44346900318823,1539488.0,174.8249,70.9482
464.15888336127773,931823.9,-119.7986,70.9454
1000.0,306302.2,-50.17516,70.9559
2154.4346900318824,191797.9,-79.3995,70.9482
4641.588833612777,107387.7,-81.43705,70.9454
10000.0,59915.79,-96.64949,70.9516
