Frequency,Impedance,Phase Angle,Temperature (Dry Bath)
10.0,31873450.0,-19.03179,67.9852
21.5,41606670.0,-37.80259,67.9966
46.4,22491140.0,-60.86975,67.9792
100.0,4744290.0,-37.14768,67.9859
215.4,3847880.0,-94.21514,67.9923
464.2,2569722.0,-101.3472,67.9926
1000.0,1058282.0,-82.67618,67.9852
2154.4,610036.3,-82.54439,67.9949
4641.6,292210.6,-82.03748,67.9817
10000.0,157321.6,-87.75544,67.9854
