Frequency,Impedance,Phase Angle,Temperature (Dry Bath)
10.0,139973.8,-17.62066,71.3811
21.544346900318832,119478.7,-17.17378,71.3885
46.41588833612777,103690.4,-16.135,71.3735
100.0,81534.53,-17.10958,71.376
215.44346900318823,25492.35,-56.21674,71.3628
464.15888336127773,69798.58,-22.37338,71.3902
1000.0,66898.5,-9.313545,71.3986
2154.4346900318824,55718.72,-26.05488,71.3715
4641.588833612777,45836.94,-32.29608,71.3783
10000.0,30437.3,-48.59885,71.3815
