Frequency,Impedance,Phase Angle,Temperature (Dry Bath)
10.0,134791.5,-6.398963,67.097
21.5,129003.4,-5.399965,67.0882
46.4,124299.4,-5.045994,67.069
100.0,119862.5,-5.985374,67.0837
215.4,112017.4,-7.785392,67.0917
464.2,111385.2,-9.148982,67.0744
1000.0,106074.6,-12.75646,67.0859
2154.4,99468.49,-19.3682,67.0654
4641.6,84343.12,-32.04873,67.0834
10000.0,58572.08,-49.72757,67.068
