Frequency,Impedance,Phase Angle,Temperature (Dry Bath)
10.0,12358.39,-4.273939,67.1117
21.5,12052.57,-3.492054,67.1126
46.4,11770.69,-2.981127,67.1107
100.0,11615.87,-3.192886,67.1106
215.4,11441.53,-5.34049,67.1074
464.2,11276.82,-3.150028,67.1199
1000.0,10969.88,-3.507593,67.1027
2154.4,10848.38,-4.056273,67.1143
4641.6,10607.44,-5.848501,67.1091
10000.0,10350.49,-9.513753,67.105
