Frequency,Impedance,Phase Angle,Temperature (Dry Bath)
10.0,2244666.0,-11.59373,67.2243
21.5,2058618.0,-11.82694,67.245
46.4,1795199.0,-11.3546,67.2395
100.0,1704625.0,-4.564343,67.2426
215.4,247294.2,-14.17792,67.2335
464.2,1173836.0,-44.72008,67.2351
1000.0,630061.0,-55.42881,67.2281
2154.4,368166.6,-66.78741,67.238
4641.6,194559.3,-70.83478,67.2296
10000.0,107964.6,-71.87877,67.2408
