Frequency,Impedance,Phase Angle,Temperature (Dry Bath)
10.0,3648470.0,16.66951,71.4541
21.544346900318832,4477584.0,5.597922,71.4541
46.41588833612777,5065554.0,-30.25693,71.4577
100.0,2188775.0,-34.04635,71.4727
215.44346900318823,3244117.0,-80.46685,71.454
464.15888336127773,827495.4,-59.44959,71.4522
1000.0,240778.5,-64.0739,71.4589
2154.4346900318824,240821.5,-85.00633,71.445
4641.588833612777,126852.6,-92.47024,71.4466
10000.0,58000.95,-87.41394,71.4513
