Frequency,Impedance,Phase Angle,Temperature (Dry Bath)
10.0,11928.77,-4.397947,67.3844
21.5,11653.01,-3.726487,67.4024
46.4,11470.7,-3.599145,67.3857
100.0,11327.28,-3.588489,67.3723
215.4,11151.93,-3.755436,67.3756
464.2,11011.57,-3.76748,67.373
1000.0,10725.97,-3.743767,67.3749
2154.4,10516.03,-4.177439,67.3899
4641.6,10296.25,-5.820622,67.3711
10000.0,10020.8,-9.339061,67.402
