Frequency,Impedance,Phase Angle,Temperature (Dry Bath)
10.0,290595.4,-11.888,67.1
21.544346900318832,289799.0,-11.78634,67.1
46.41588833612777,268082.2,-14.14692,67.1
100.0,250600.4,-10.49796,67.1
215.44346900318823,241268.6,-16.51333,67.1
464.15888336127773,229299.5,-9.757847,67.1
1000.0,173600.2,-7.447947,67.1
2154.4346900318824,140276.9,-15.55772,67.1
4641.588833612777,142080.5,-25.88352,67.1
10000.0,114479.8,-27.60424,67.1
