Frequency,Impedance,Phase Angle,Temperature (Dry Bath)
10.0,240169.1,-5.631845,67.0907
21.5,232431.1,-5.378164,67.0924
46.4,224933.3,-5.810411,67.0771
100.0,216757.2,-5.260371,67.0977
215.4,211598.7,-8.992733,67.1052
464.2,189781.2,-12.49262,67.0876
1000.0,179863.4,-24.41341,67.0949
2154.4,137688.5,-35.92972,67.0869
4641.6,96293.58,-51.38356,67.0906
10000.0,58651.94,-62.79996,67.0797
