Frequency,Impedance,Phase Angle,Temperature (Dry Bath)
10.0,31064540.0,-6.386828,67.932
21.5,16015120.0,-26.80738,67.9303
46.4,25595850.0,-54.66789,67.9462
100.0,3985514.0,-34.87779,67.9272
215.4,5810984.0,-58.261,67.9288
464.2,1748103.0,-66.02825,67.9414
1000.0,973912.3,-73.5629,67.9309
2154.4,535888.0,-87.52065,67.9415
4641.6,254818.9,-81.36352,67.929
10000.0,122399.0,-93.86986,67.9282
