Frequency,Impedance,Phase Angle,Temperature (Dry Bath)
10.0,33561290.0,-17.83467,68.1923
21.5,26376090.0,-28.00784,68.2006
46.4,12805970.0,-52.28766,68.2001
100.0,6346580.0,-46.81168,68.2137
215.4,3955621.0,-95.25739,68.2297
464.2,2107346.0,-89.09063,68.1985
1000.0,1026401.0,-87.77554,68.2109
2154.4,518630.8,-87.92164,68.2153
4641.6,237855.3,-87.2236,68.2275
10000.0,112469.2,-94.34051,68.2227
