Frequency,Impedance,Phase Angle,Temperature (Dry Bath)
10.0,1501633.0,-8.230728,67.344
21.5,1427774.0,-9.206234,67.3518
46.4,1325083.0,-11.51534,67.33
100.0,904803.0,-21.98925,67.3396
215.4,1051368.0,-3.202629,67.3455
464.2,805915.5,-30.55572,67.3551
1000.0,511881.8,-47.50743,67.3524
2154.4,359772.7,-62.1092,67.3435
4641.6,193997.0,-67.74544,67.3675
10000.0,104350.4,-72.12194,67.3595
