Frequency,Impedance,Phase Angle,Temperature (Dry Bath)
10.0,128389.4,-25.09112,67.1283
21.5,105097.2,-21.83084,67.1309
46.4,91204.34,-18.70902,67.1416
100.0,79544.17,-15.53083,67.1459
215.4,72808.13,-13.59277,67.1441
464.2,66819.75,-13.15656,67.1494
1000.0,60020.82,-14.72066,67.143
2154.4,55983.66,-17.51572,67.1285
4641.6,48548.36,-24.4676,67.1259
10000.0,39713.96,-36.72601,67.1407
