Frequency,Impedance,Phase Angle,Temperature (Dry Bath)
10.0,24696.2,-20.67197,71.3516
21.544346900318832,20955.29,-17.98865,71.3428
46.41588833612777,18098.13,-15.53978,71.3457
100.0,16373.7,-12.76026,71.3425
215.44346900318823,12473.06,-10.25449,71.3393
464.15888336127773,13419.73,-10.52591,71.3475
1000.0,12586.55,-9.028115,71.3509
2154.4346900318824,11885.25,-8.470076,71.3408
4641.588833612777,10870.71,-9.964169,71.352
10000.0,10275.92,-16.83649,71.3419
