Frequency,Impedance,Phase Angle,Temperature (Dry Bath)
10.0,6813.725,-27.78016,70.8468
21.544346900318832,5551.509,-22.31689,70.8386
46.41588833612777,4753.153,-17.79477,70.8587
100.0,4211.395,-14.66763,70.8423
215.44346900318823,3776.863,-11.50451,70.8396
464.15888336127773,3501.916,-9.927903,70.8496
1000.0,3203.66,-8.206291,70.8478
2154.4346900318824,3051.356,-7.460536,70.8448
4641.588833612777,2929.747,-7.021093,70.8243
10000.0,2787.205,-7.575683,70.8504
