Frequency,Impedance,Phase Angle,Temperature (Dry Bath)
10.0,3455093.0,-11.06272,65.7024
21.544346900318832,3659838.0,-16.97259,65.7061
46.41588833612777,5469735.0,-32.10596,65.6922
100.0,367435.6,17.52382,65.6795
215.44346900318823,395972.2,175.5339,65.6623
464.15888336127773,498637.3,-110.0911,65.6568
1000.0,698147.6,-29.32406,65.6672
2154.4346900318824,601581.7,-83.03156,65.67
4641.588833612777,297179.6,-92.56894,65.6821
10000.0,74577.01,-80.10875,65.6564
