Frequency,Impedance,Phase Angle,Temperature (Dry Bath)
10.0,15226520.0,-12.303,68.0888
21.5,18757060.0,-37.7409,68.0783
46.4,11061630.0,-56.23188,68.0887
100.0,7163118.0,-31.87189,68.101
215.4,3417580.0,-86.9074,68.0888
464.2,2818605.0,-67.49864,68.0893
1000.0,1086791.0,-88.29125,68.1099
2154.4,481547.9,-86.77338,68.0843
4641.6,239579.1,-90.3931,68.1045
10000.0,114411.1,-90.86717,68.0956
