Frequency,Impedance,Phase Angle,Temperature (Dry Bath)
10.0,155871.9,-6.153784,68.0791
21.5,150270.3,-5.074087,68.063
46.4,144786.3,-4.817432,68.0686
100.0,139001.9,-6.283114,68.0698
215.4,139904.6,-5.610316,68.0658
464.2,133083.0,-11.39219,68.0465
1000.0,124371.8,-13.22329,68.0657
2154.4,114892.5,-22.25753,68.0523
4641.6,101356.0,-32.37341,68.0599
10000.0,70455.17,-55.98231,68.0568
