Frequency,Impedance,Phase Angle,Temperature (Dry Bath)
10.0,22577.91,-21.39564,65.8398
21.544346900318832,19066.12,-18.48349,65.8511
46.41588833612777,16545.88,-15.3781,65.8419
100.0,14734.52,-12.93513,65.8415
215.44346900318823,4457.105,29.23987,65.8543
464.15888336127773,12799.68,-7.717436,65.8554
1000.0,11766.08,-7.488864,65.8525
2154.4346900318824,11254.38,-7.605746,65.8379
4641.588833612777,10760.37,-8.80289,65.847
10000.0,10042.48,-13.45217,65.8525
