Frequency,Impedance,Phase Angle,Temperature (Dry Bath)
10.0,18709100.0,3.196333,68.2442
21.5,24651430.0,-21.01142,68.2459
46.4,31819730.0,-49.94295,68.2569
100.0,12801890.0,-52.55809,68.2563
215.4,5928958.0,-85.32571,68.2598
464.2,2679229.0,-85.7309,68.2517
1000.0,1407879.0,-79.07784,68.2683
2154.4,663270.5,-90.54927,68.2389
4641.6,321328.5,-94.30241,68.2478
10000.0,155498.2,-96.06217,68.2526
