Frequency,Impedance,Phase Angle,Temperature (Dry Bath)
10.0,27623520.0,-22.03999,67.9309
21.5,22587350.0,-31.19074,67.9339
46.4,32373870.0,-51.64074,67.937
100.0,5108224.0,-38.1295,67.9323
215.4,3252205.0,-91.02097,67.9204
464.2,1888389.0,-73.48813,67.9167
1000.0,1013443.0,-85.14002,67.9216
2154.4,534005.9,-78.62375,67.9407
4641.6,291927.7,-85.37171,67.9344
10000.0,139396.0,-88.36165,67.9485
