Frequency,Impedance,Phase Angle,Temperature (Dry Bath)
10.0,255624.6,-9.028447,67.145
21.5,242496.1,-8.080989,67.1523
46.4,230344.8,-8.007374,67.164
100.0,222872.9,-7.84167,67.1622
215.4,434987.1,79.09013,67.1447
464.2,201611.2,-14.89414,67.1726
1000.0,177450.2,-22.84736,67.1634
2154.4,148347.4,-33.76804,67.1583
4641.6,105023.5,-48.15973,67.1656
10000.0,63773.16,-58.13196,67.1472
