Frequency,Impedance,Phase Angle,Temperature (Dry Bath)
10.0,2074843.0,-9.821167,67.5141
21.5,1943610.0,-11.35018,67.5251
46.4,1804703.0,-14.82979,67.5134
100.0,1419661.0,-15.87721,67.5306
215.4,159383.0,-51.52464,67.5089
464.2,1022708.0,-37.60825,67.5325
1000.0,663083.5,-54.74642,67.5205
2154.4,379091.5,-65.12714,67.5066
4641.6,200364.2,-69.5543,67.5043
10000.0,105518.3,-72.02579,67.5188
