Frequency,Impedance,Phase Angle,Temperature (Dry Bath)
10.0,3451913.0,-15.59001,70.5073
21.544346900318832,4782270.0,-2.451456,70.4834
46.41588833612777,3947569.0,-24.13831,70.4951
100.0,408612.2,6.699301,70.4957
215.44346900318823,396830.2,-21.03118,70.5074
464.15888336127773,2096003.0,-113.2217,70.5105
1000.0,313402.2,-61.3492,70.4934
2154.4346900318824,373966.7,-86.20819,70.505
4641.588833612777,142036.7,-90.38807,70.4914
10000.0,71176.2,-80.35337,70.5097
