Frequency,Impedance,Phase Angle,Temperature (Dry Bath)
10.0,12045.74,-4.278099,67.3848
21.5,11794.79,-3.691304,67.3756
46.4,11523.34,-3.049772,67.3653
100.0,11414.52,-3.250834,67.3753
215.4,11222.54,-3.489567,67.3701
464.2,11060.4,-3.41439,67.3767
1000.0,10798.11,-3.512749,67.3759
2154.4,10580.75,-4.047898,67.3765
4641.6,10387.14,-5.762549,67.3782
10000.0,10109.7,-9.358536,67.3713
