Frequency,Impedance,Phase Angle,Temperature (Dry Bath)
10.0,116150.0,-24.46009,67.3189
21.5,96998.07,-21.40662,67.3115
46.4,84021.46,-18.22998,67.3174
100.0,73162.4,-15.75204,67.3216
215.4,67785.67,-12.37909,67.3127
464.2,60969.51,-12.36769,67.3034
1000.0,55117.45,-13.20547,67.312
2154.4,50818.09,-16.08069,67.3002
4641.6,45773.35,-22.94112,67.3156
10000.0,38384.03,-34.93292,67.3086
