Frequency,Impedance,Phase Angle,Temperature (Dry Bath)
10.0,21089.41,-21.98894,28.6578
21.544346900318832,17347.14,-23.63666,28.6526
46.41588833612777,14022.73,-25.01516,28.6863
100.0,11090.13,-25.70647,28.5655
215.44346900318823,9003.213,-25.1399,28.7287
464.15888336127773,7230.424,-23.66025,28.4771
1000.0,5855.856,-23.31163,28.7089
2154.4346900318824,4779.967,-21.97339,28.5249
4641.588833612777,3982.963,-20.07209,28.7796
10000.0,3415.233,-18.77025,28.7715
