Frequency,Impedance,Phase Angle,Temperature (Dry Bath)
10.0,23714520.0,-13.71587,68.0626
21.5,23112160.0,-22.12313,68.0874
46.4,14158430.0,-57.36148,68.0708
100.0,4850322.0,-66.04205,68.0733
215.4,4291870.0,-99.74938,68.0734
464.2,2317992.0,-78.28993,68.0636
1000.0,925955.5,-77.95435,68.0694
2154.4,540502.1,-82.60756,68.05
4641.6,290937.1,-85.81639,68.0571
10000.0,156523.8,-90.85095,68.0566
