Frequency,Impedance,Phase Angle,Temperature (Dry Bath)
10.0,25062050.0,-43.74008,67.1308
21.5,21509340.0,-46.33392,67.1207
46.4,16575120.0,-57.93609,67.1413
100.0,4880917.0,-54.85996,67.1459
215.4,170550.6,50.63226,67.1277
464.2,3145088.0,-92.87927,67.1344
1000.0,898196.0,-84.1298,67.1241
2154.4,458310.6,-85.09399,67.1244
4641.6,217705.7,-80.95117,67.1398
10000.0,116576.4,-79.0868,67.1353
