Frequency,Impedance,Phase Angle,Temperature (Dry Bath)
10.0,26094.74,-17.22917,71.489
21.544346900318832,22590.12,-16.19112,71.4922
46.41588833612777,19778.87,-15.29106,71.4731
100.0,17143.74,-15.53067,71.4847
215.44346900318823,16288.35,-13.47884,71.4797
464.15888336127773,14101.06,-12.46504,71.5084
1000.0,13145.84,-10.85703,71.49
2154.4346900318824,12248.2,-11.08965,71.4894
4641.588833612777,11174.39,-11.15223,71.4965
10000.0,10105.86,-13.30273,71.4706
