Frequency,Impedance,Phase Angle,Temperature (Dry Bath)
10.0,4137044.0,-14.15582,70.727
21.544346900318832,7240790.0,-14.64762,70.7328
46.41588833612777,4793131.0,-20.55072,70.7258
100.0,1137318.0,-99.09638,70.7248
215.44346900318823,1146799.0,-96.97801,70.719
464.15888336127773,374665.7,-58.93784,70.7254
1000.0,220029.0,-114.2574,70.7285
2154.4346900318824,151816.9,-76.19431,70.7358
4641.588833612777,117253.2,-73.76291,70.7266
10000.0,51560.18,-88.44842,70.72
