Frequency,Impedance,Phase Angle,Temperature (Dry Bath)
10.0,17850020.0,-15.07801,68.0472
21.5,15493020.0,-38.71192,68.0387
46.4,11779710.0,-50.69767,68.0356
100.0,5011089.0,-56.1896,68.0511
215.4,3959596.0,-79.7326,68.0479
464.2,1955235.0,-82.37255,68.047
1000.0,1042930.0,-76.68716,68.0271
2154.4,488042.5,-80.03002,68.051
4641.6,261109.5,-85.62703,68.053
10000.0,130407.0,-93.31153,68.0341
