Frequency,Impedance,Phase Angle,Temperature (Dry Bath)
10.0,1215878.0,-9.641145,67.9809
21.5,1126624.0,-10.88747,67.9692
46.4,1033889.0,-12.58585,67.9805
100.0,900614.1,-11.5817,67.9813
215.4,816348.9,-19.49679,67.9697
464.2,681238.2,-32.60352,67.9686
1000.0,563611.8,-32.63265,67.9714
2154.4,393224.0,-46.76268,67.9868
4641.6,267517.3,-59.88454,67.9802
10000.0,169606.4,-78.5429,67.9919
