Frequency,Impedance,Phase Angle,Temperature (Dry Bath)
10.0,47155560.0,-11.72973,67.9357
21.5,48833280.0,-13.00538,67.9382
46.4,28165290.0,-58.65625,67.924
100.0,6851062.0,-49.76544,67.9255
215.4,4672854.0,-56.07412,67.9296
464.2,3195991.0,-57.4995,67.9194
1000.0,1497950.0,-92.63158,67.9205
2154.4,652926.7,-90.22053,67.9148
4641.6,316207.7,-91.62838,67.9235
10000.0,142935.3,-96.64924,67.9285
