Frequency,Impedance,Phase Angle,Temperature (Dry Bath)
10.0,36935270.0,-6.185122,67.0544
21.5,31824070.0,-32.91998,67.0628
46.4,19125390.0,-55.85429,67.0564
100.0,10930110.0,-141.5526,67.0671
215.4,3118005.0,-89.56662,67.0605
464.2,2032677.0,-91.64075,67.07
1000.0,1313373.0,-83.58418,67.058
2154.4,572589.8,-91.88083,67.0768
4641.6,270551.0,-87.8105,67.0595
10000.0,132325.7,-86.67307,67.06
