Frequency,Impedance,Phase Angle,Temperature (Dry Bath)
10.0,4854467.0,-2.526232,71.5179
21.544346900318832,5505699.0,19.89094,71.5081
46.41588833612777,4602104.0,-10.69764,71.5062
100.0,1239116.0,-173.819,71.5068
215.44346900318823,2395485.0,21.25867,71.5277
464.15888336127773,1906426.0,-97.4242,71.5234
1000.0,785255.8,-97.5838,71.5143
2154.4346900318824,454934.5,-80.10615,71.5085
4641.588833612777,249528.2,-75.93909,71.5119
10000.0,117328.3,-85.69839,71.5227
