Frequency,Impedance,Phase Angle,Temperature (Dry Bath)
10.0,1291958.0,-11.11701,67.1412
21.5,1183724.0,-11.98895,67.1329
46.4,1069988.0,-14.13786,67.1483
100.0,879085.6,-14.29899,67.1346
215.4,848981.5,-2.450091,67.1415
464.2,729609.2,-34.68396,67.1372
1000.0,532990.1,-51.28675,67.1361
2154.4,341117.1,-56.62535,67.121
4641.6,183950.6,-65.64296,67.1363
10000.0,97637.66,-70.66603,67.1251
