Frequency,Impedance,Phase Angle,Temperature (Dry Bath)
10.0,22999150.0,-28.9536,67.2464
21.5,32138570.0,-23.98272,67.2536
46.4,11869610.0,-78.06789,67.2416
100.0,4016583.0,-62.89175,67.2562
215.4,1804426.0,139.0636,67.2487
464.2,1956755.0,-84.86457,67.2573
1000.0,911408.5,-79.81832,67.2514
2154.4,467904.0,-79.67504,67.2557
4641.6,248991.1,-76.86262,67.2641
10000.0,132624.6,-78.56095,67.2762
