Frequency,Impedance,Phase Angle,Temperature (Dry Bath)
10.0,24706320.0,-21.85218,68.0081
21.5,29018550.0,-40.87476,68.0174
46.4,28342980.0,-54.28766,68.0219
100.0,4019911.0,-33.6144,68.0171
215.4,3721553.0,-75.21292,68.0048
464.2,2066933.0,-92.18645,68.0255
1000.0,1003981.0,-82.61171,68.0156
2154.4,551368.2,-80.98808,67.9986
4641.6,255583.0,-83.13892,68.02
10000.0,120725.8,-90.9725,68.0042
