Frequency,Impedance,Phase Angle,Temperature (Dry Bath)
10.0,737926.3,-10.43235,68.123
21.5,681857.1,-10.09474,68.1178
46.4,648450.5,-10.78946,68.1249
100.0,562237.8,-13.00955,68.1101
215.4,540012.4,-18.37514,68.1185
464.2,460840.3,-22.90923,68.1115
1000.0,365490.2,-34.75752,68.1048
2154.4,273989.2,-43.47306,68.097
4641.6,180193.4,-53.35085,68.1158
10000.0,119312.4,-66.36213,68.1127
