Frequency,Impedance,Phase Angle,Temperature (Dry Bath)
10.0,137706.2,-25.76256,67.0683
21.5,112065.3,-22.51971,67.064
46.4,96718.66,-19.48638,67.0747
100.0,85446.47,-17.00796,67.0582
215.4,76678.88,-14.88068,67.0818
464.2,69557.05,-14.20714,67.0688
1000.0,63565.25,-16.09818,67.0797
2154.4,56734.71,-18.65664,67.0655
4641.6,48895.51,-26.22501,67.0536
10000.0,39294.9,-38.30267,67.0678
