Frequency,Impedance,Phase Angle,Temperature (Dry Bath)
10.0,21739430.0,-18.10284,67.9437
21.5,22720500.0,-38.55797,67.9603
46.4,21747360.0,-61.92802,67.9645
100.0,5279334.0,-61.37531,67.9521
215.4,3342339.0,-90.71165,67.9546
464.2,2184632.0,-79.29463,67.9443
1000.0,885497.8,-76.35695,67.9586
2154.4,517339.7,-74.62813,67.9522
4641.6,277334.8,-78.89117,67.9354
10000.0,138464.8,-87.77582,67.9574
