Frequency,Impedance,Phase Angle,Temperature (Dry Bath)
10.0,38313510.0,-30.34857,67.1096
21.5,22604280.0,-32.59551,67.1148
46.4,14616400.0,-61.26201,67.1114
100.0,4221715.0,-39.31206,67.1008
215.4,13430370.0,-103.0501,67.1162
464.2,2276894.0,-82.5626,67.1074
1000.0,890796.9,-81.09535,67.0994
2154.4,465999.4,-78.3552,67.1044
4641.6,221431.6,-81.65827,67.1114
10000.0,108131.8,-83.65031,67.1154
