Frequency,Impedance,Phase Angle,Temperature (Dry Bath)
10.0,27411400.0,-37.12369,67.2498
21.5,19320480.0,-48.6907,67.2598
46.4,13345790.0,-61.85522,67.2638
100.0,9744885.0,-5.00103,67.2766
215.4,16470850.0,39.59261,67.2618
464.2,1512737.0,-78.9745,67.2573
1000.0,745230.4,-77.89408,67.2467
2154.4,379559.9,-76.20404,67.259
4641.6,217192.1,-78.76694,67.2459
10000.0,111450.2,-80.56021,67.2269
