Frequency,Impedance,Phase Angle,Temperature (Dry Bath)
10.0,21418350.0,-16.81271,67.4166
21.5,27915840.0,-30.28461,67.4062
46.4,18983060.0,-54.55632,67.4268
100.0,10774570.0,26.55148,67.4211
215.4,1618663.0,-91.16257,67.4268
464.2,2072898.0,-91.46018,67.4227
1000.0,956135.5,-80.82665,67.4133
2154.4,470318.6,-85.22281,67.4176
4641.6,238783.8,-80.38255,67.4254
10000.0,117994.1,-80.58392,67.4267
