Frequency,Impedance,Phase Angle,Temperature (Dry Bath)
10.0,4099503.0,-4.203228,71.4285
21.544346900318832,5444664.0,-38.14036,71.4403
46.41588833612777,5533347.0,0.1191152,71.4443
100.0,283080.2,20.45658,71.4383
215.44346900318823,1790152.0,-11.3154,71.4514
464.15888336127773,1078959.0,13.58148,71.4438
1000.0,800081.5,-97.43819,71.4378
2154.4346900318824,255059.2,-75.97748,71.4637
4641.588833612777,127039.0,-93.81332,71.4511
10000.0,67489.91,-84.18296,71.4493
