Frequency,Impedance,Phase Angle,Temperature (Dry Bath)
10.0,4520480.0,-13.90691,71.3867
21.544346900318832,4047424.0,10.77137,71.3747
46.41588833612777,3796108.0,-4.428229,71.3723
100.0,1212450.0,-55.73222,71.392
215.44346900318823,741867.6,-5.727396,71.3681
464.15888336127773,1229062.0,4.675169,71.3695
1000.0,695306.7,12.69016,71.361
2154.4346900318824,403686.3,-54.17173,71.3749
4641.588833612777,204254.3,-87.85076,71.386
10000.0,99725.24,-87.18504,71.3586
