Frequency,Impedance,Phase Angle,Temperature (Dry Bath)
10.0,19761840.0,-14.79719,68.2528
21.5,22237500.0,-50.0495,68.2599
46.4,24020340.0,-54.61079,68.2579
100.0,4026790.0,-33.5803,68.2821
215.4,5455037.0,-63.50591,68.2653
464.2,2088650.0,-89.51848,68.2624
1000.0,1007932.0,-85.36791,68.2535
2154.4,518843.2,-82.52911,68.2641
4641.6,264514.0,-84.12244,68.2708
10000.0,138031.7,-88.59488,68.2698
