Frequency,Impedance,Phase Angle,Temperature (Dry Bath)
10.0,4193832.0,-0.7184366,71.3879
21.544346900318832,4192699.0,-19.09613,71.3851
46.41588833612777,1901601.0,-38.68946,71.3991
100.0,598877.6,-5.497503,71.3855
215.44346900318823,91057.75,70.5507,71.3906
464.15888336127773,657828.3,-30.48739,71.3893
1000.0,416835.9,-76.19723,71.3724
2154.4346900318824,217004.1,-92.75228,71.3831
4641.588833612777,132543.7,-79.01959,71.3807
10000.0,62830.48,-85.83499,71.3778
