Frequency,Impedance,Phase Angle,Temperature (Dry Bath)
10.0,22734010.0,-32.90731,68.0929
21.5,19875620.0,-43.94418,68.0756
46.4,11059880.0,-59.62215,68.0813
100.0,6000369.0,-67.15954,68.0821
215.4,4575287.0,-58.24647,68.0817
464.2,1675205.0,-82.35006,68.0962
1000.0,1015521.0,-70.52635,68.0611
2154.4,503645.9,-75.24406,68.0857
4641.6,274394.3,-80.06266,68.0905
10000.0,137843.1,-88.52343,68.0693
