Frequency,Impedance,Phase Angle,Temperature (Dry Bath)
10.0,4071917.0,32.41566,66.5748
21.544346900318832,6683673.0,0.5126335,66.5764
46.41588833612777,6731962.0,-2.82652,66.5534
100.0,3185547.0,-29.30524,66.5648
215.44346900318823,7256933.0,72.75978,66.571
464.15888336127773,4179803.0,57.87656,66.5767
1000.0,3953498.0,129.7887,66.5633
2154.4346900318824,3164283.0,-45.21694,66.5613
4641.588833612777,7584397.0,-32.56138,66.5604
10000.0,2135212.0,-26.99124,66.5657
