Frequency,Impedance,Phase Angle,Temperature (Dry Bath)
10.0,27494950.0,-10.10854,67.2012
21.5,23753260.0,-44.47039,67.1895
46.4,14250470.0,-60.80676,67.1793
100.0,3331364.0,-34.79976,67.1844
215.4,335926.0,-13.87283,67.2024
464.2,1973652.0,-92.30356,67.2062
1000.0,970573.3,-86.72198,67.1924
2154.4,440024.6,-83.84666,67.1811
4641.6,232288.9,-81.93303,67.1985
10000.0,118593.0,-78.78183,67.1768
