Frequency,Impedance,Phase Angle,Temperature (Dry Bath)
10.0,4918284.0,-19.71283,71.246
21.544346900318832,7180382.0,-11.15423,71.2291
46.41588833612777,5143676.0,-22.76139,71.2281
100.0,2483901.0,60.02811,71.2434
215.44346900318823,1091644.0,-129.8037,71.2601
464.15888336127773,1436095.0,12.78563,71.2451
1000.0,1070404.0,-76.12001,71.2413
2154.4346900318824,1743648.0,-85.38533,71.2628
4641.588833612777,437638.4,-96.88179,71.2553
10000.0,169940.9,-92.09827,71.2501
