Frequency,Impedance,Phase Angle,Temperature (Dry Bath)
10.0,5333140.0,-0.6173916,65.8219
21.544346900318832,3517250.0,-0.4993081,65.8425
46.41588833612777,4954216.0,-25.97244,65.8357
100.0,2354060.0,-27.48366,65.8244
215.44346900318823,8587.248,87.11616,65.8353
464.15888336127773,1504135.0,-16.69899,65.806
1000.0,705930.1,-75.09021,65.8212
2154.4346900318824,292047.4,-77.04335,65.8327
4641.588833612777,157028.9,-89.44606,65.814
10000.0,85671.25,-88.3847,65.8112
