Frequency,Impedance,Phase Angle,Temperature (Dry Bath)
10.0,119590.6,-24.66452,67.2628
21.5,99356.85,-21.54798,67.2565
46.4,85536.95,-18.59295,67.2535
100.0,74942.2,-16.60228,67.2536
215.4,110304.4,4.632357,67.2705
464.2,62604.83,-11.46543,67.2686
1000.0,56711.9,-13.96446,67.2594
2154.4,52541.13,-16.22962,67.2562
4641.6,47519.23,-22.78566,67.2599
10000.0,38718.47,-35.17174,67.2573
