Frequency,Impedance,Phase Angle,Temperature (Dry Bath)
10.0,34791410.0,-8.329788,67.122
21.5,26016530.0,-31.46164,67.1085
46.4,19279780.0,-52.05685,67.154
100.0,7721908.0,-69.95301,67.136
215.4,147330.1,-128.5292,67.1346
464.2,2733914.0,-104.8438,67.1345
1000.0,1251588.0,-86.58854,67.1308
2154.4,557593.2,-88.40929,67.14
4641.6,286908.3,-85.74137,67.1477
10000.0,131862.3,-86.46427,67.1453
