Frequency,Impedance,Phase Angle,Temperature (Dry Bath)
10.0,23634500.0,-21.75811,67.9805
21.5,22774530.0,-54.36353,67.9801
46.4,23795210.0,-55.83277,67.9672
100.0,3726558.0,-54.77661,67.985
215.4,3176110.0,-65.38587,67.9675
464.2,1917418.0,-62.29792,67.9777
1000.0,1004409.0,-75.82533,67.9812
2154.4,508264.1,-79.47071,67.9872
4641.6,264697.4,-79.38472,67.9659
10000.0,138398.0,-90.04519,67.9752
