Frequency,Impedance,Phase Angle,Temperature (Dry Bath)
10.0,158596.0,-9.6868,71.3903
21.544346900318832,147367.1,-8.029892,71.3725
46.41588833612777,135997.4,-8.354771,71.3829
100.0,67001.1,-36.02029,71.3877
215.44346900318823,92368.22,-3.806382,71.392
464.15888336127773,114109.8,-21.30201,71.3826
1000.0,105343.9,-20.64216,71.3881
2154.4346900318824,76976.7,-24.53396,71.3884
4641.588833612777,74568.02,-55.78744,71.3959
10000.0,42813.39,-55.82579,71.389
