Frequency,Impedance,Phase Angle,Temperature (Dry Bath)
10.0,5043660.0,5.804706,71.68
21.544346900318832,3962114.0,-13.14796,71.6826
46.41588833612777,4727922.0,-35.41403,71.6898
100.0,862053.4,-49.09175,71.6864
215.44346900318823,4997653.0,72.44264,71.6884
464.15888336127773,1548267.0,-74.59614,71.6816
1000.0,1341506.0,-86.10701,71.6896
2154.4346900318824,4053541.0,-103.8229,71.6816
4641.588833612777,220540.8,-96.90637,71.6895
10000.0,150872.5,-90.55096,71.6832
