Frequency,Impedance,Phase Angle,Temperature (Dry Bath)
10.0,47717090.0,-17.52831,68.2813
21.5,17724420.0,-20.24469,68.2813
46.4,10841400.0,-50.07199,68.2813
100.0,4062661.0,-55.39226,68.2813
215.4,4389688.0,-68.24016,68.2813
464.2,2849633.0,-69.64139,68.2813
1000.0,1007923.0,-81.82314,68.2813
2154.4,479278.7,-77.61994,68.2813
4641.6,265428.8,-83.23877,68.2813
10000.0,148089.3,-87.69766,68.2813
