Frequency,Impedance,Phase Angle,Temperature (Dry Bath)
10.0,99777.62,-23.43004,67.8269
21.5,85129.72,-21.01534,67.8146
46.4,74274.67,-18.57263,67.812
100.0,63962.09,-16.49582,67.8089
215.4,60933.27,-12.83555,67.8194
464.2,57276.74,-12.86356,67.8054
1000.0,49232.77,-12.94056,67.7857
2154.4,45470.09,-14.71321,67.7908
4641.6,41814.93,-22.34286,67.795
10000.0,36256.8,-31.54742,67.8053
