Frequency,Impedance,Phase Angle,Temperature (Dry Bath)
10.0,19551900.0,-26.89658,67.958
21.5,23992930.0,-35.16549,67.9649
46.4,22521900.0,-57.84835,67.9516
100.0,9397118.0,-70.85836,67.9475
215.4,4313605.0,-63.67523,67.9578
464.2,2388970.0,-63.0366,67.9611
1000.0,1003861.0,-80.86493,67.9471
2154.4,539662.9,-81.94852,67.9606
4641.6,265923.7,-86.60842,67.9574
10000.0,116392.8,-97.69153,67.9562
