Frequency,Impedance,Phase Angle,Temperature (Dry Bath)
10.0,137782.7,-25.05246,67.3758
21.5,113812.9,-22.32296,67.3784
46.4,98415.69,-19.64122,67.3789
100.0,85030.96,-17.5878,67.3878
215.4,73759.64,12.63754,67.3905
464.2,70420.43,-14.63325,67.3947
1000.0,64089.11,-15.66051,67.392
2154.4,57589.24,-18.63064,67.3795
4641.6,51104.3,-24.83155,67.394
10000.0,41496.55,-36.26167,67.3844
