Frequency,Impedance,Phase Angle,Temperature (Dry Bath)
10.0,9008887.0,-24.75451,28.1123
21.544346900318832,5225632.0,0.5756952,28.0073
46.41588833612777,6328293.0,-14.24536,28.2028
100.0,1119950.0,43.11981,27.9659
215.44346900318823,2053776.0,137.7515,27.975
464.15888336127773,1738754.0,19.16545,28.2634
1000.0,676249.2,88.05648,28.3159
2154.4346900318824,478326.3,-81.70448,28.3081
4641.588833612777,345680.6,-75.66208,28.1873
10000.0,138861.2,-82.27266,28.2375
