Frequency,Impedance,Phase Angle,Temperature (Dry Bath)
10.0,133332.4,-24.45293,67.3608
21.5,111361.4,-22.06312,67.3665
46.4,96243.02,-19.52753,67.3685
100.0,83853.57,-16.6728,67.3834
215.4,75693.07,-14.86082,67.3779
464.2,69421.04,-14.31216,67.3809
1000.0,62327.77,-15.37752,67.3683
2154.4,56377.41,-18.87469,67.3709
4641.6,49401.93,-24.83179,67.3652
10000.0,40545.22,-35.56441,67.3702
