Frequency,Impedance,Phase Angle,Temperature (Dry Bath)
10.0,1681129.0,-9.491423,68.0521
21.5,1588710.0,-11.33167,68.0521
46.4,1402937.0,-11.59877,68.0521
100.0,1060873.0,-13.19007,68.0521
215.4,1119861.0,-25.75614,68.0521
464.2,1093308.0,-26.11283,68.0521
1000.0,802968.8,-45.91248,68.0521
2154.4,498759.9,-60.44824,68.0521
4641.6,272910.4,-77.57141,68.0521
10000.0,148673.6,-84.87202,68.0521
