Frequency,Impedance,Phase Angle,Temperature (Dry Bath)
10.0,12297.8,-4.293536,67.4064
21.5,12030.95,-3.720907,67.4075
46.4,11819.71,-3.511961,67.4151
100.0,11647.36,-3.326726,67.411
215.4,11225.68,-2.715484,67.4137
464.2,11240.9,-3.274314,67.3967
1000.0,10981.1,-3.535577,67.4077
2154.4,10789.57,-4.109871,67.4108
4641.6,10562.86,-5.755322,67.4092
10000.0,10282.46,-9.41172,67.4038
