Frequency,Impedance,Phase Angle,Temperature (Dry Bath)
10.0,1186997.0,-11.4716,67.2095
21.5,1098912.0,-11.76474,67.1963
46.4,985117.8,-15.10615,67.1958
100.0,769127.8,-17.1183,67.2058
215.4,203996.2,-61.74356,67.2125
464.2,721649.0,-35.25016,67.2157
1000.0,454991.7,-40.62696,67.2178
2154.4,284651.1,-57.51203,67.2369
4641.6,181380.9,-65.6083,67.2263
10000.0,98066.29,-69.73185,67.1983
