Frequency,Impedance,Phase Angle,Temperature (Dry Bath)
10.0,122161.5,-24.66471,67.3187
21.5,101088.5,-21.59664,67.3136
46.4,86980.39,-18.56189,67.3038
100.0,77481.03,-16.14634,67.3021
215.4,64649.92,-9.367661,67.319
464.2,63141.8,-12.51286,67.3177
1000.0,58165.94,-13.72979,67.3039
2154.4,53437.82,-16.16658,67.3405
4641.6,47891.85,-23.35676,67.3228
10000.0,38931.87,-36.20322,67.3194
