Frequency,Impedance,Phase Angle,Temperature (Dry Bath)
10.0,16175130.0,-24.20069,68.1351
21.5,14317490.0,-34.58745,68.1231
46.4,15672270.0,-55.62495,68.1491
100.0,4263276.0,-31.88139,68.1182
215.4,3454894.0,-79.93295,68.1281
464.2,2048971.0,-72.36119,68.134
1000.0,971588.5,-79.56707,68.1262
2154.4,491575.0,-78.38501,68.1374
4641.6,247426.2,-88.97359,68.1377
10000.0,124027.7,-89.76406,68.1312
