Frequency,Impedance,Phase Angle,Temperature (Dry Bath)
10.0,21035090.0,-5.054565,67.7457
21.5,23282220.0,-40.51716,67.742
46.4,20999880.0,-58.10004,67.7422
100.0,8225267.0,-83.28562,67.7303
215.4,5376334.0,-80.41277,67.7524
464.2,2006530.0,-84.12687,67.7562
1000.0,1109651.0,-80.11052,67.7485
2154.4,478344.5,-76.96273,67.7401
4641.6,268500.7,-83.54966,67.7351
10000.0,155396.1,-89.97728,67.7277
