Frequency,Impedance,Phase Angle,Temperature (Dry Bath)
10.0,22265.9,-21.62189,65.8373
21.544346900318832,18706.72,-18.64216,65.8386
46.41588833612777,16204.48,-15.23875,65.8512
100.0,14375.25,-12.39689,65.8363
215.44346900318823,13136.7,-9.807591,65.8456
464.15888336127773,12559.94,-8.464118,65.8593
1000.0,11721.65,-6.67167,65.8557
2154.4346900318824,11157.24,-9.189518,65.8486
4641.588833612777,10623.48,-9.832403,65.8523
10000.0,10307.39,-14.03991,65.8431
