Frequency,Impedance,Phase Angle,Temperature (Dry Bath)
10.0,33580350.0,-16.29795,68.0729
21.5,34303330.0,-32.82937,68.0653
46.4,21647730.0,-55.03067,68.067
100.0,8126834.0,-55.113,68.0577
215.4,3964604.0,-72.57794,68.0676
464.2,1990631.0,-82.59236,68.059
1000.0,967595.8,-75.81899,68.0462
2154.4,512371.4,-78.12549,68.0668
4641.6,296961.9,-80.62131,68.0529
10000.0,138948.3,-95.30811,68.046
