Frequency,Impedance,Phase Angle,Temperature (Dry Bath)
10.0,21603590.0,-11.19434,68.1291
21.5,16597110.0,-31.85144,68.1324
46.4,16335640.0,-52.24647,68.1332
100.0,4426347.0,-77.52441,68.1309
215.4,3837556.0,-74.10552,68.1266
464.2,2052866.0,-67.00112,68.12
1000.0,978129.1,-75.37487,68.1182
2154.4,491787.0,-78.75384,68.1195
4641.6,268538.6,-85.19442,68.1295
10000.0,123750.4,-91.69661,68.1171
