Frequency,Impedance,Phase Angle,Temperature (Dry Bath)
10.0,12543.97,-8.322428,67.2997
21.5,11923.8,-5.168718,67.2835
46.4,11716.13,-5.133166,67.298
100.0,11584.12,-5.550511,67.3049
215.4,11468.71,-5.893162,67.3111
464.2,11267.44,-5.925501,67.3023
1000.0,10905.64,-6.019046,67.3073
2154.4,10575.97,-5.885406,67.291
4641.6,10214.5,-6.955603,67.3078
10000.0,9879.955,-9.87483,67.2981
