Frequency,Impedance,Phase Angle,Temperature (Dry Bath)
10.0,22120450.0,-17.04528,68.0708
21.5,17677860.0,-37.92665,68.0651
46.4,14345750.0,-51.25728,68.0609
100.0,7525671.0,-65.00948,68.0746
215.4,3520627.0,-64.14859,68.0635
464.2,1863467.0,-90.34851,68.08
1000.0,1084455.0,-84.2616,68.0741
2154.4,589904.8,-83.80551,68.0772
4641.6,332989.3,-77.10732,68.0935
10000.0,137227.4,-86.56254,68.0549
