Frequency,Impedance,Phase Angle,Temperature (Dry Bath)
10.0,2015120.0,-8.873549,66.5
21.544346900318832,1996999.0,-5.251942,66.5
46.41588833612777,2589586.0,-10.84204,66.5
100.0,8380105.0,-167.6852,66.5
215.44346900318823,18235400.0,-124.551,66.5
464.15888336127773,1197033.0,39.69068,66.5
1000.0,1008898.0,-43.65341,66.5
2154.4346900318824,791855.3,-63.8443,66.5
4641.588833612777,347561.0,-90.35996,66.5
10000.0,280515.7,-81.93156,66.5
