Frequency,Impedance,Phase Angle,Temperature (Dry Bath)
10.0,1515761.0,-8.657233,67.2509
21.5,1402497.0,-9.793769,67.2532
46.4,1320484.0,-11.86552,67.2502
100.0,1190758.0,-24.28327,67.2397
215.4,827804.1,-12.04511,67.2501
464.2,880479.8,-37.51702,67.2381
1000.0,664278.9,-59.42749,67.2465
2154.4,334866.6,-60.35074,67.2442
4641.6,192272.6,-73.23529,67.2544
10000.0,100519.5,-77.45898,67.2421
