Frequency,Impedance,Phase Angle,Temperature (Dry Bath)
10.0,6030985.0,-11.66788,71.1735
21.544346900318832,4041634.0,-8.243645,71.1779
46.41588833612777,6631322.0,-27.92618,71.1741
100.0,907273.4,-45.32257,71.168
215.44346900318823,681504.8,-30.6428,71.1897
464.15888336127773,769606.6,-121.537,71.1662
1000.0,415345.2,5.30849,71.1752
2154.4346900318824,264114.2,-61.84241,71.1749
4641.588833612777,133203.6,-105.8486,71.1814
10000.0,51695.86,-87.88653,71.1772
