Frequency,Impedance,Phase Angle,Temperature (Dry Bath)
10.0,192535.5,-6.43758,67.9479
21.5,209249.8,-8.42927,67.9691
46.4,197676.2,-8.472797,67.9637
100.0,186985.3,-9.64842,67.9774
215.4,176064.1,-11.37715,67.9797
464.2,171240.8,-12.57145,67.9493
1000.0,152545.4,-19.36325,67.9608
2154.4,132197.0,-28.32457,67.9772
4641.6,109210.0,-37.12421,67.9687
10000.0,76429.06,-51.90856,67.971
