Frequency,Impedance,Phase Angle,Temperature (Dry Bath)
10.0,24478400.0,-9.429968,67.383
21.5,22389180.0,-15.58714,67.3655
46.4,13659090.0,-75.22713,67.3715
100.0,3624829.0,-8.701384,67.3774
215.4,214120.7,78.37858,67.3734
464.2,1531101.0,-82.48917,67.3818
1000.0,963756.0,-82.05301,67.3782
2154.4,475768.6,-82.99315,67.3614
4641.6,229282.0,-79.82668,67.386
10000.0,121572.2,-78.88581,67.3819
