Frequency,Impedance,Phase Angle,Temperature (Dry Bath)
10.0,31014890.0,-27.08148,67.9326
21.5,23549820.0,-43.52895,67.9339
46.4,22260050.0,-59.49033,67.8995
100.0,7645960.0,-42.55498,67.9206
215.4,3463590.0,-63.66745,67.9077
464.2,2161800.0,-77.59008,67.8974
1000.0,1080451.0,-86.28601,67.8937
2154.4,518659.0,-88.28449,67.892
4641.6,229054.4,-93.34156,67.9001
10000.0,116117.2,-97.52129,67.9021
