Frequency,Impedance,Phase Angle,Temperature (Dry Bath)
10.0,4579244.0,-9.667278,71.2582
21.544346900318832,5846892.0,16.12733,71.2538
46.41588833612777,3426121.0,-25.47674,71.2708
100.0,3271746.0,-28.91427,71.2572
215.44346900318823,1162181.0,50.09024,71.2629
464.15888336127773,972188.3,-60.28363,71.2547
1000.0,393035.4,-93.84586,71.2498
2154.4346900318824,352416.0,-75.24349,71.2442
4641.588833612777,170404.0,-90.01596,71.2671
10000.0,67400.08,-87.99634,71.2534
