Frequency,Impedance,Phase Angle,Temperature (Dry Bath)
10.0,10722.99,-29.18946,71.3132
21.544346900318832,8486.037,-28.33087,71.3349
46.41588833612777,6779.69,-26.66364,71.3078
100.0,5483.044,-23.46415,71.3121
215.44346900318823,4556.04,-20.86493,71.3317
464.15888336127773,3915.071,-18.22021,71.3151
1000.0,3386.511,-15.90259,71.3023
2154.4346900318824,2999.531,-13.74014,71.326
4641.588833612777,2714.224,-12.46565,71.3331
10000.0,2479.079,-11.19747,71.3192
