Frequency,Impedance,Phase Angle,Temperature (Dry Bath)
10.0,4643683.0,-30.21737,65.729
21.544346900318832,7248884.0,-38.93898,65.7164
46.41588833612777,6263736.0,-50.93326,65.7282
100.0,1488809.0,48.83924,65.7162
215.44346900318823,28314.89,157.3284,65.7224
464.15888336127773,1115504.0,-167.9583,65.7044
1000.0,439102.6,-95.16137,65.7261
2154.4346900318824,323297.2,-96.21901,65.7126
4641.588833612777,106306.6,-90.11488,65.712
10000.0,67382.15,-84.42864,65.7152
