Frequency,Impedance,Phase Angle,Temperature (Dry Bath)
10.0,15672290.0,-25.99107,67.976
21.5,18000720.0,-45.49433,67.9426
46.4,15053900.0,-54.81487,67.9504
100.0,2910141.0,-84.40625,67.9551
215.4,5639944.0,-67.73744,67.9667
464.2,1903025.0,-75.65854,67.9585
1000.0,1003955.0,-78.52182,67.9543
2154.4,543815.4,-81.66107,67.9401
4641.6,262106.9,-79.43008,67.9651
10000.0,119104.4,-87.36096,67.9693
