Frequency,Impedance,Phase Angle,Temperature (Dry Bath)
10.0,38880690.0,-16.39815,67.9867
21.5,27873020.0,-46.20298,67.9807
46.4,18696330.0,-64.31212,67.9908
100.0,4985072.0,-58.04671,67.9761
215.4,3306704.0,-94.69241,67.9957
464.2,1960388.0,-80.13826,67.983
1000.0,912967.2,-72.81853,67.9805
2154.4,543574.2,-81.8423,67.9907
4641.6,268604.2,-76.32532,67.9777
10000.0,130149.5,-86.61034,67.9744
