Frequency,Impedance,Phase Angle,Temperature (Dry Bath)
10.0,167577.7,-6.207651,67.7746
21.5,160674.3,-5.191468,67.7889
46.4,155082.6,-4.846363,67.785
100.0,147116.4,-5.261167,67.7713
215.4,144368.5,-6.092529,67.7707
464.2,143156.1,-8.135804,67.784
1000.0,135376.9,-12.7156,67.79
2154.4,125817.5,-22.05033,67.788
4641.6,101763.5,-35.89204,67.7712
10000.0,75540.24,-56.55809,67.7869
