Frequency,Impedance,Phase Angle,Temperature (Dry Bath)
10.0,133917.6,-6.509006,67.3199
21.5,127957.9,-5.5117,67.3307
46.4,123696.6,-5.248139,67.3098
100.0,123417.1,-5.270309,67.3142
215.4,117940.5,-7.049679,67.3117
464.2,111770.8,-8.447879,67.3231
1000.0,105360.1,-11.80361,67.3282
2154.4,100863.8,-19.79922,67.3196
4641.6,84836.77,-31.79141,67.3201
10000.0,60138.37,-48.42422,67.3249
