Frequency,Impedance,Phase Angle,Temperature (Dry Bath)
10.0,64158.63,-10.23007,71.0746
21.544346900318832,59386.39,-8.43938,71.0652
46.41588833612777,55800.17,-7.212123,71.0743
100.0,52410.58,-7.258111,71.0612
215.44346900318823,50224.36,-9.643548,71.0699
464.15888336127773,48733.73,-2.583205,71.0673
1000.0,42724.84,-5.950975,71.0664
2154.4346900318824,41178.5,-12.68067,71.0529
4641.588833612777,34223.77,-16.62145,71.0659
10000.0,43699.64,-28.83719,71.0481
