Frequency,Impedance,Phase Angle,Temperature (Dry Bath)
10.0,25009630.0,-25.71904,68.1649
21.5,14346280.0,-47.81306,68.1663
46.4,14696270.0,-54.57955,68.174
100.0,4965896.0,-56.3627,68.16
215.4,4378443.0,-72.77458,68.1682
464.2,1604254.0,-87.81667,68.166
1000.0,1048338.0,-82.39855,68.1638
2154.4,513071.4,-78.71861,68.1498
4641.6,278214.2,-87.24218,68.1641
10000.0,124902.1,-90.71537,68.1732
