Frequency,Impedance,Phase Angle,Temperature (Dry Bath)
10.0,12259.41,-8.303053,67.1668
21.5,11693.56,-4.791368,67.1364
46.4,11489.63,-4.638849,67.1259
100.0,11431.76,-5.369017,67.1333
215.4,11339.61,-5.448222,67.1401
464.2,11186.56,-6.004135,67.1384
1000.0,10834.86,-5.777457,67.1226
2154.4,10522.2,-6.026424,67.1215
4641.6,10155.79,-6.970546,67.1471
10000.0,9823.307,-9.88227,67.1374
