Frequency,Impedance,Phase Angle,Temperature (Dry Bath)
10.0,823312.6,-12.23399,68.0252
21.5,773168.3,-9.933879,68.0127
46.4,733298.2,-11.0614,68.0175
100.0,590396.5,-14.43953,68.018
215.4,588303.8,-16.6624,68.0252
464.2,517402.9,-24.34508,68.0324
1000.0,391851.5,-33.75976,68.0057
2154.4,288052.9,-42.79907,68.02
4641.6,196359.1,-52.94012,68.0071
10000.0,113914.5,-71.63417,68.0072
