Frequency,Impedance,Phase Angle,Temperature (Dry Bath)
10.0,140312.7,-5.717758,67.4656
21.5,135201.8,-4.730728,67.4719
46.4,131294.7,-4.376023,67.476
100.0,124821.0,4.285158,67.4614
215.4,67138.4,-42.0934,67.4767
464.2,119468.6,-7.225944,67.4648
1000.0,114746.3,-11.56994,67.4647
2154.4,106711.1,-19.94518,67.4657
4641.6,88885.11,-32.9809,67.4756
10000.0,63135.83,-51.79002,67.4501
