Frequency,Impedance,Phase Angle,Temperature (Dry Bath)
10.0,138473.8,-5.893364,67.1166
21.5,132882.1,-4.956401,67.1281
46.4,128779.0,-4.818807,67.1078
100.0,124001.3,-5.212963,67.1052
215.4,49993.62,-46.14124,67.1122
464.2,116082.0,-7.922558,67.1223
1000.0,109778.8,-11.14421,67.104
2154.4,103124.8,-20.67767,67.103
4641.6,88953.32,-33.23699,67.1098
10000.0,61040.53,-51.63407,67.0992
