Frequency,Impedance,Phase Angle,Temperature (Dry Bath)
10.0,13579.39,-25.5247,71.5515
21.544346900318832,10891.55,-26.05405,71.5563
46.41588833612777,8659.028,-25.9703,71.5268
100.0,6914.734,-24.66604,71.5471
215.44346900318823,5614.898,-22.92822,71.5429
464.15888336127773,4589.156,-20.48322,71.5355
1000.0,3930.551,-17.96153,71.5364
2154.4346900318824,3414.962,-15.82718,71.5353
4641.588833612777,3027.451,-14.24788,71.5433
10000.0,2735.021,-13.26881,71.5448
