Frequency,Impedance,Phase Angle,Temperature (Dry Bath)
10.0,28892340.0,-32.19067,67.0117
21.5,35469290.0,-35.31287,67.0024
46.4,18671220.0,-56.33192,67.0134
100.0,3029872.0,-69.75363,67.0422
215.4,265552.6,174.9985,67.0118
464.2,1609833.0,-70.34637,67.0131
1000.0,805949.7,-81.8922,67.0337
2154.4,456645.2,-80.9144,67.0053
4641.6,218644.5,-81.69567,67.0238
10000.0,110923.5,-84.51652,67.0409
