Frequency,Impedance,Phase Angle,Temperature (Dry Bath)
10.0,4490027.0,-10.12971,71.0536
21.544346900318832,5036655.0,-24.42494,71.0533
46.41588833612777,5479799.0,-16.21444,71.0548
100.0,788026.4,86.71062,71.0559
215.44346900318823,1379575.0,58.92653,71.0612
464.15888336127773,430807.5,105.4336,71.0579
1000.0,371468.5,179.3974,71.0553
2154.4346900318824,569139.2,-56.99388,71.0422
4641.588833612777,205166.5,-72.54702,71.0379
10000.0,131634.2,-65.31313,71.0499
