Frequency,Impedance,Phase Angle,Temperature (Dry Bath)
10.0,5863597.0,-35.54942,65.7531
21.544346900318832,4403584.0,0.7146695,65.7538
46.41588833612777,7291342.0,-10.54219,65.7549
100.0,1015552.0,65.65174,65.7558
215.44346900318823,18594.84,153.4858,65.7425
464.15888336127773,1382736.0,-102.7446,65.7465
1000.0,559208.0,-58.16948,65.7391
2154.4346900318824,354609.9,-81.58012,65.748
4641.588833612777,145046.8,-88.83261,65.7582
10000.0,59355.26,-77.62051,65.7483
