Frequency,Impedance,Phase Angle,Temperature (Dry Bath)
10.0,5990102.0,-31.57453,71.507
21.544346900318832,3751896.0,-10.3952,71.5093
46.41588833612777,4477336.0,-21.29249,71.5114
100.0,1043565.0,-23.64991,71.5147
215.44346900318823,903250.4,-165.3015,71.4983
464.15888336127773,1390370.0,105.0751,71.4957
1000.0,1000906.0,-91.97496,71.5013
2154.4346900318824,638451.2,-97.48763,71.4927
4641.588833612777,201896.4,-68.26416,71.4876
10000.0,83423.39,-95.2832,71.4934
