Frequency,Impedance,Phase Angle,Temperature (Dry Bath)
10.0,7039030.0,-8.309124,71.1361
21.544346900318832,6142541.0,-9.032409,71.1294
46.41588833612777,5720253.0,-10.18547,71.1544
100.0,1073801.0,96.2057,71.1483
215.44346900318823,652117.2,-51.33769,71.1285
464.15888336127773,636384.0,-103.1898,71.1501
1000.0,198183.5,-85.89318,71.1449
2154.4346900318824,232603.9,-84.5263,71.1498
4641.588833612777,103869.7,-80.04675,71.1499
10000.0,57809.22,-85.48625,71.1367
