Frequency,Impedance,Phase Angle,Temperature (Dry Bath)
10.0,569166.8,-11.64074,68.0014
21.5,533141.1,-10.90909,67.9796
46.4,490883.5,-11.29188,67.9935
100.0,438474.4,-15.62335,67.9888
215.4,406102.4,-18.48409,67.9919
464.2,340693.8,-22.31794,67.974
1000.0,295414.1,-29.65493,67.9668
2154.4,222690.8,-37.05986,67.9778
4641.6,157811.5,-47.61269,67.9896
10000.0,108979.0,-59.74163,67.9979
