Frequency,Impedance,Phase Angle,Temperature (Dry Bath)
10.0,282267.2,-9.974523,67.1737
21.5,268203.7,-8.446789,67.1965
46.4,255396.3,-8.567821,67.1752
100.0,239250.4,-7.86329,67.1651
215.4,240153.4,-11.14106,67.1848
464.2,218892.5,-14.20391,67.1666
1000.0,198597.7,-22.3753,67.1668
2154.4,158421.3,-35.85114,67.1569
4641.6,108989.2,-48.94186,67.1507
10000.0,66158.08,-58.72257,67.1454
