Frequency,Impedance,Phase Angle,Temperature (Dry Bath)
10.0,3978616.0,-6.498485,70.5344
21.544346900318832,3153922.0,-15.53617,70.5406
46.41588833612777,4707951.0,-33.90882,70.5417
100.0,448660.3,-54.03746,70.5463
215.44346900318823,843883.2,-104.3504,70.5441
464.15888336127773,934415.1,25.91479,70.5427
1000.0,266955.7,-141.6163,70.5362
2154.4346900318824,350508.7,-53.50232,70.549
4641.588833612777,111077.0,-80.51552,70.5398
10000.0,59299.15,-86.7671,70.5578
