Frequency,Impedance,Phase Angle,Temperature (Dry Bath)
10.0,137603.4,-25.66319,67.023
21.5,113080.8,-22.45155,67.0164
46.4,96555.18,-19.30729,67.0411
100.0,82935.31,-16.1609,67.024
215.4,75682.55,-13.86136,67.0302
464.2,68856.04,-13.52852,67.0351
1000.0,62587.86,-15.1037,67.0415
2154.4,56973.36,-18.18678,67.0358
4641.6,49429.0,-25.70453,67.044
10000.0,39671.45,-38.07273,67.0345
