Frequency,Impedance,Phase Angle,Temperature (Dry Bath)
10.0,12299.57,-4.514965,67.0639
21.5,12023.29,-3.863838,67.0599
46.4,11593.27,-3.251183,67.0729
100.0,11453.27,-3.189489,67.0613
215.4,11366.61,-3.63698,67.0681
464.2,11252.45,-3.62301,67.0592
1000.0,10972.83,-3.845825,67.075
2154.4,10766.33,-4.33409,67.0622
4641.6,10553.81,-6.053941,67.0573
10000.0,10218.18,-9.690049,67.0799
