Frequency,Impedance,Phase Angle,Temperature (Dry Bath)
10.0,332197.6,-6.580947,67.2641
21.5,318065.1,-6.290993,67.2638
46.4,303879.9,-6.533349,67.271
100.0,294895.5,-5.80339,67.2664
215.4,288344.9,-4.015219,67.2742
464.2,254541.3,-11.94711,67.2551
1000.0,246325.9,-20.13542,67.2647
2154.4,217182.8,-29.47784,67.271
4641.6,157255.5,-46.51,67.2718
10000.0,95910.9,-62.62858,67.2845
