Frequency,Impedance,Phase Angle,Temperature (Dry Bath)
10.0,1511977.0,-9.670502,67.1739
21.5,1405072.0,-10.71405,67.1664
46.4,1288328.0,-13.82977,67.1651
100.0,1076312.0,-12.70798,67.1612
215.4,904662.1,-17.0242,67.1629
464.2,956889.3,-40.98118,67.1702
1000.0,621494.6,-46.27595,67.1598
2154.4,323214.2,-66.28642,67.1609
4641.6,186989.3,-66.52954,67.1615
10000.0,101106.6,-72.85783,67.1695
