Frequency,Impedance,Phase Angle,Temperature (Dry Bath)
10.0,138382.1,-5.950966,67.1662
21.5,132999.3,-5.018826,67.1602
46.4,128876.6,-4.831471,67.163
100.0,124168.3,-4.81273,67.1696
215.4,125455.3,-6.232991,67.1752
464.2,115240.5,-7.357704,67.1737
1000.0,111416.4,-12.6528,67.1597
2154.4,104348.9,-20.6014,67.1692
4641.6,86585.56,-34.7639,67.1833
10000.0,60021.98,-50.98407,67.1658
