Frequency,Impedance,Phase Angle,Temperature (Dry Bath)
10.0,19847110.0,-18.80419,67.3858
21.5,28118640.0,-32.64498,67.3864
46.4,16771450.0,-53.46622,67.4095
100.0,2388313.0,-32.66652,67.4098
215.4,4072293.0,-51.49301,67.4119
464.2,2055644.0,-84.76851,67.3948
1000.0,953340.1,-80.63113,67.4048
2154.4,470716.3,-85.11448,67.4157
4641.6,226425.8,-82.50429,67.4096
10000.0,112081.2,-82.51414,67.4138
