Frequency,Impedance,Phase Angle,Temperature (Dry Bath)
10.0,162968.3,-6.42732,67.7101
21.5,156723.5,-5.072396,67.6874
46.4,151499.8,-4.68533,67.6684
100.0,143219.9,-3.462554,67.6947
215.4,143683.7,-5.438442,67.6871
464.2,135044.2,-10.72711,67.6894
1000.0,134758.7,-13.00699,67.7009
2154.4,120729.3,-17.54603,67.6741
4641.6,99114.13,-33.91811,67.6802
10000.0,73861.2,-57.6826,67.6916
