Frequency,Impedance,Phase Angle,Temperature (Dry Bath)
10.0,12360.35,-27.66571,70.894
21.544346900318832,9899.314,-24.74321,70.9185
46.41588833612777,8142.479,-21.5907,70.9234
100.0,6822.085,-18.76941,70.9087
215.44346900318823,5990.159,-15.62349,70.9236
464.15888336127773,5345.688,-13.51462,70.9158
1000.0,4776.143,-11.99006,70.9094
2154.4346900318824,4429.204,-10.30713,70.9195
4641.588833612777,4039.974,-10.76533,70.9178
10000.0,3760.676,-12.10009,70.9089
