Frequency,Impedance,Phase Angle,Temperature (Dry Bath)
10.0,156123.9,-6.176311,68.2427
21.5,150897.9,-4.91,68.2155
46.4,146023.0,-4.651903,68.2382
100.0,135991.2,-4.714192,68.2328
215.4,141234.5,-5.990294,68.2423
464.2,131733.4,-7.376929,68.2317
1000.0,126654.4,-12.30689,68.2391
2154.4,110600.5,-20.40447,68.2354
4641.6,103503.6,-32.62215,68.2298
10000.0,78327.69,-56.80945,68.2354
