Frequency,Impedance,Phase Angle,Temperature (Dry Bath)
10.0,34384360.0,-11.11985,68.1193
21.5,21857320.0,-33.21063,68.1439
46.4,15731580.0,-42.55069,68.1211
100.0,4578655.0,-30.26998,68.1394
215.4,7253143.0,-80.83274,68.1394
464.2,2049250.0,-84.09035,68.1424
1000.0,1240992.0,-88.65647,68.1445
2154.4,642166.9,-91.168,68.1376
4641.6,339882.1,-91.6251,68.1407
10000.0,139125.7,-96.75015,68.1286
