Frequency,Impedance,Phase Angle,Temperature (Dry Bath)
10.0,30656770.0,-3.781786,67.3828
21.5,22962990.0,-21.74047,67.37
46.4,22567620.0,-6.588426,67.3759
100.0,5228399.0,2.809966,67.3823
215.4,6717596.0,-51.00975,67.3826
464.2,2480143.0,-89.54239,67.3883
1000.0,1202304.0,-92.0854,67.3799
2154.4,623793.3,-89.44398,67.385
4641.6,282655.7,-86.52551,67.374
10000.0,135886.5,-86.27698,67.3938
