Frequency,Impedance,Phase Angle,Temperature (Dry Bath)
10.0,14360730.0,-8.345475,67.9457
21.5,14972780.0,-33.87736,67.9457
46.4,17292300.0,-47.72486,67.9457
100.0,3228699.0,-61.10647,67.9457
215.4,9651164.0,-96.2272,67.9457
464.2,2023391.0,-81.40106,67.9457
1000.0,876324.8,-82.95123,67.9457
2154.4,470055.1,-83.85567,67.9457
4641.6,230609.6,-86.0555,67.9457
10000.0,112437.3,-88.4438,67.9457
