Frequency,Impedance,Phase Angle,Temperature (Dry Bath)
10.0,27276640.0,-20.00621,67.1605
21.5,23442190.0,-36.22959,67.1612
46.4,8776475.0,-64.32428,67.1593
100.0,3661231.0,-3.22084,67.1447
215.4,571059.1,16.33157,67.1408
464.2,1886593.0,-85.83544,67.1474
1000.0,883029.8,-75.54784,67.1451
2154.4,451922.0,-80.56676,67.1769
4641.6,240763.0,-82.33249,67.1451
10000.0,110501.4,-83.01079,67.1656
