Frequency,Impedance,Phase Angle,Temperature (Dry Bath)
10.0,2238096.0,-10.05177,67.1338
21.5,2133594.0,-11.82725,67.1312
46.4,1944651.0,-15.33578,67.1227
100.0,1489489.0,-35.93222,67.1496
215.4,1397372.0,-20.06053,67.135
464.2,1085446.0,-48.15058,67.1421
1000.0,647829.7,-57.76426,67.1135
2154.4,360832.2,-66.27343,67.1113
4641.6,200834.1,-71.08215,67.1256
10000.0,107374.9,-72.89951,67.1057
