Frequency,Impedance,Phase Angle,Temperature (Dry Bath)
10.0,4069435.0,-10.03158,71.3329
21.544346900318832,6877605.0,-7.603494,71.3383
46.41588833612777,4428674.0,46.09111,71.3448
100.0,2577578.0,34.60012,71.3497
215.44346900318823,31328.07,103.8951,71.3394
464.15888336127773,914543.8,-75.09144,71.3377
1000.0,1171895.0,-119.9314,71.3554
2154.4346900318824,260307.6,-78.15376,71.3575
4641.588833612777,166211.0,-87.82253,71.3478
10000.0,63551.96,-83.17609,71.3374
