Frequency,Impedance,Phase Angle,Temperature (Dry Bath)
10.0,12336.02,-4.27047,67.2156
21.5,12052.69,-3.717913,67.2041
46.4,11839.03,-3.520149,67.21
100.0,11575.37,-3.075176,67.1906
215.4,11446.17,-3.401882,67.1943
464.2,11282.18,-3.502797,67.1994
1000.0,11023.16,-3.534947,67.1816
2154.4,10813.83,-4.219149,67.1983
4641.6,10575.23,-5.835523,67.195
10000.0,10305.38,-9.34553,67.1985
