Frequency,Impedance,Phase Angle,Temperature (Dry Bath)
10.0,27086440.0,-28.87689,67.394
21.5,23503480.0,-38.36967,67.4043
46.4,7451147.0,-72.34275,67.4067
100.0,10031740.0,-89.894,67.4076
215.4,1320958.0,-84.73723,67.4251
464.2,2130382.0,-90.63073,67.4314
1000.0,694092.6,-77.56547,67.4276
2154.4,403450.7,-79.94071,67.4212
4641.6,204208.9,-78.38457,67.4224
10000.0,112199.8,-77.84399,67.3965
