Frequency,Impedance,Phase Angle,Temperature (Dry Bath)
10.0,5347759.0,-28.81415,65.6421
21.544346900318832,2761155.0,-15.09858,65.6414
46.41588833612777,4778267.0,-24.05182,65.6801
100.0,397858.6,-56.63689,65.6658
215.44346900318823,13625.64,65.50517,65.6432
464.15888336127773,722643.4,-110.115,65.6519
1000.0,477249.3,-71.75684,65.6575
2154.4346900318824,290554.8,-74.75056,65.6398
4641.588833612777,136215.7,-83.58366,65.6563
10000.0,65060.42,-84.54471,65.6638
