Frequency,Impedance,Phase Angle,Temperature (Dry Bath)
10.0,32325390.0,-2.588292,68.2796
21.5,17522140.0,-32.52161,68.2796
46.4,12475010.0,-52.33848,68.2796
100.0,5640739.0,-55.06219,68.2796
215.4,4545729.0,-89.85828,68.2796
464.2,2241504.0,-67.56108,68.2796
1000.0,1047330.0,-82.28722,68.2796
2154.4,571764.6,-82.30665,68.2796
4641.6,290097.9,-81.7676,68.2796
10000.0,148065.5,-89.19892,68.2796
