Frequency,Impedance,Phase Angle,Temperature (Dry Bath)
10.0,24135150.0,-20.13553,67.2088
21.5,18998840.0,-34.92024,67.2142
46.4,14055810.0,-83.32916,67.2156
100.0,12099070.0,-57.10698,67.1979
215.4,258487.8,-83.36719,67.2281
464.2,1912321.0,-76.51678,67.2239
1000.0,946577.8,-72.31134,67.2109
2154.4,471963.1,-81.85253,67.2145
4641.6,230548.8,-82.08754,67.226
10000.0,115562.6,-82.90032,67.2205
