Frequency,Impedance,Phase Angle,Temperature (Dry Bath)
10.0,2121872.0,-10.62472,67.4168
21.5,1976873.0,-12.27544,67.4158
46.4,1773405.0,-15.62017,67.4073
100.0,1430786.0,-30.72791,67.4178
215.4,235758.4,52.29886,67.4086
464.2,870558.3,-51.99129,67.4134
1000.0,675789.5,-58.7341,67.4099
2154.4,372620.8,-68.75394,67.4332
4641.6,197681.5,-68.63948,67.4029
10000.0,106580.1,-72.59684,67.4025
