Frequency,Impedance,Phase Angle,Temperature (Dry Bath)
10.0,150852.3,-9.768012,71.196
21.544346900318832,138396.5,-9.313275,71.19
46.41588833612777,130109.6,-9.238381,71.192
100.0,116994.7,-2.130302,71.183
215.44346900318823,115871.6,-23.77482,71.1879
464.15888336127773,104546.9,-2.508336,71.1737
1000.0,96101.86,-21.92965,71.1848
2154.4346900318824,104371.6,-19.43813,71.1729
4641.588833612777,61727.03,-48.96687,71.1796
10000.0,44022.54,-62.42021,71.1779
