Frequency,Impedance,Phase Angle,Temperature (Dry Bath)
10.0,148467.1,-6.502613,68.2407
21.5,143226.4,-5.27998,68.2407
46.4,138367.9,-4.782839,68.2407
100.0,131052.1,-5.626323,68.2407
215.4,131156.4,-5.376779,68.2407
464.2,124247.0,-8.932493,68.2407
1000.0,116565.2,-10.8594,68.2407
2154.4,109832.9,-18.2375,68.2407
4641.6,96378.44,-31.65323,68.2407
10000.0,71776.61,-52.68685,68.2407
