Frequency,Impedance,Phase Angle,Temperature (Dry Bath)
10.0,5014794.0,-17.30992,65.8655
21.544346900318832,5301508.0,-2.31393,65.8671
46.41588833612777,5679812.0,-21.04056,65.8534
100.0,922434.4,-69.87779,65.8471
215.44346900318823,8478.631,-168.6072,65.8662
464.15888336127773,3809539.0,-22.60223,65.8533
1000.0,404264.6,-72.9039,65.8501
2154.4346900318824,364843.5,-102.3317,65.8565
4641.588833612777,165496.0,-67.36313,65.8472
10000.0,81923.63,-92.55605,65.8434
