Frequency,Impedance,Phase Angle,Temperature (Dry Bath)
10.0,315398.7,-6.002298,67.0521
21.5,303297.0,-5.598948,67.0934
46.4,290443.1,-5.808484,67.0796
100.0,274628.3,-7.939664,67.0802
215.4,261068.7,-3.476899,67.09
464.2,254875.6,-10.69907,67.0984
1000.0,230713.9,-18.40432,67.099
2154.4,206822.5,-29.33971,67.1115
4641.6,157350.4,-46.27571,67.0994
10000.0,95968.15,-61.93386,67.1002
