Frequency,Impedance,Phase Angle,Temperature (Dry Bath)
10.0,12296.62,-4.626956,67.1398
21.5,11972.83,-3.851679,67.1633
46.4,11548.72,-3.346025,67.1556
100.0,11371.33,-3.249809,67.1429
215.4,11512.98,1.895834,67.1497
464.2,11108.34,-3.609396,67.1447
1000.0,10970.89,-3.806278,67.1581
2154.4,10746.26,-4.388362,67.1567
4641.6,10475.92,-6.025919,67.1659
10000.0,10218.24,-9.588666,67.1351
