Frequency,Impedance,Phase Angle,Temperature (Dry Bath)
10.0,22256060.0,-13.10936,68.025
21.5,25517150.0,-43.09552,68.03
46.4,22334790.0,-60.35915,68.0319
100.0,4932860.0,-59.66074,68.0305
215.4,6224730.0,-62.76451,68.0261
464.2,2787145.0,-87.49731,68.0455
1000.0,890045.5,-77.13146,68.0299
2154.4,485319.6,-84.60237,68.0317
4641.6,248926.5,-87.32871,68.0219
10000.0,108453.5,-93.05622,68.0231
