Frequency,Impedance,Phase Angle,Temperature (Dry Bath)
10.0,1534292.0,-10.02401,67.3768
21.5,1404138.0,-10.48314,67.3752
46.4,1302669.0,-13.60938,67.374
100.0,1022195.0,-19.45773,67.3577
215.4,1079141.0,-34.66315,67.3624
464.2,787119.6,-40.60808,67.3478
1000.0,551769.6,-48.46185,67.3578
2154.4,328857.0,-61.74041,67.357
4641.6,187716.4,-70.31058,67.3676
10000.0,98919.05,-71.32326,67.3566
