Frequency,Impedance,Phase Angle,Temperature (Dry Bath)
10.0,120100.2,-25.1662,67.899
21.5,99975.62,-22.19569,67.9016
46.4,85716.47,-19.07612,67.9055
100.0,73743.15,-16.33024,67.9027
215.4,65553.88,-14.26996,67.8954
464.2,61429.66,-13.72243,67.9015
1000.0,56495.41,-13.89645,67.8872
2154.4,51559.62,-17.08818,67.8842
4641.6,47010.96,-24.09505,67.8812
10000.0,42127.96,-36.36755,67.8986
