Frequency,Impedance,Phase Angle,Temperature (Dry Bath)
10.0,19177460.0,-13.84838,68.0181
21.5,14255210.0,-26.78744,68.0101
46.4,16315560.0,-57.18459,67.9936
100.0,3576758.0,-52.86435,68.0007
215.4,3322071.0,-74.11205,67.9977
464.2,2341555.0,-80.07791,68.0165
1000.0,1066643.0,-85.03207,68.0144
2154.4,534088.9,-86.40533,68.0274
4641.6,235767.2,-88.58877,68.0052
10000.0,118028.9,-96.33799,68.0008
