Frequency,Impedance,Phase Angle,Temperature (Dry Bath)
10.0,137543.4,-6.129577,67.0251
21.5,131509.9,-5.232172,67.0323
46.4,127388.5,-4.930814,67.0285
100.0,119931.0,-4.679633,67.0461
215.4,115738.7,-6.224021,67.0245
464.2,115429.6,-9.291283,67.0273
1000.0,108668.5,-14.01532,67.0398
2154.4,101964.4,-20.79955,67.0369
4641.6,84006.31,-34.13428,67.029
10000.0,59443.98,-51.14275,67.018
