Frequency,Impedance,Phase Angle,Temperature (Dry Bath)
10.0,124472.2,-24.87174,67.4299
21.5,103272.9,-21.66176,67.4166
46.4,88968.19,-18.38177,67.4095
100.0,78129.67,-15.99364,67.4135
215.4,62308.24,-30.99855,67.4122
464.2,65354.25,-13.61388,67.4206
1000.0,59462.99,-13.47082,67.4439
2154.4,54338.52,-16.74096,67.4207
4641.6,48311.49,-24.67366,67.4255
10000.0,39441.38,-36.24294,67.423
