Frequency,Impedance,Phase Angle,Temperature (Dry Bath)
10.0,14494.4,-19.65384,71.2037
21.544346900318832,12464.97,-16.99576,71.1978
46.41588833612777,10980.89,-14.75463,71.2057
100.0,10277.04,-13.47964,71.1943
215.44346900318823,8878.589,-11.66636,71.2094
464.15888336127773,8223.858,-10.93511,71.1996
1000.0,7631.879,-9.69164,71.1957
2154.4346900318824,6976.665,-9.463288,71.2036
4641.588833612777,6564.09,-9.407613,71.2042
10000.0,6173.925,-13.1451,71.1907
