Frequency,Impedance,Phase Angle,Temperature (Dry Bath)
10.0,219559.3,-10.89116,67.3
21.544346900318832,238330.3,-12.47987,67.3
46.41588833612777,222166.5,-12.85611,67.3
100.0,206226.4,-14.16416,67.3
215.44346900318823,173570.7,-14.07522,67.3
464.15888336127773,156585.8,-16.26922,67.3
1000.0,127893.3,-13.73695,67.3
2154.4346900318824,123543.9,-19.91382,67.3
4641.588833612777,104946.7,-30.21706,67.3
10000.0,78222.26,-36.2934,67.3
