Frequency,Impedance,Phase Angle,Temperature (Dry Bath)
10.0,33531900.0,-9.438515,67.1792
21.5,42956990.0,-24.01894,67.1512
46.4,19895990.0,-47.15994,67.1497
100.0,28482500.0,1.947366,67.1679
215.4,3778081.0,-97.9523,67.1512
464.2,2464405.0,-113.9575,67.1478
1000.0,1257733.0,-88.76697,67.1306
2154.4,568415.5,-84.88717,67.1602
4641.6,270632.5,-87.56457,67.159
10000.0,128114.8,-86.91069,67.1607
