Frequency,Impedance,Phase Angle,Temperature (Dry Bath)
10.0,37117400.0,-23.11048,67.9058
21.5,44276440.0,-47.02637,67.8977
46.4,24593660.0,-62.41357,67.916
100.0,4422826.0,-23.70265,67.9205
215.4,3703747.0,-72.85587,67.9168
464.2,2148138.0,-90.87902,67.9102
1000.0,996113.5,-77.86779,67.9151
2154.4,515754.6,-79.91584,67.9212
4641.6,266105.5,-84.29418,67.922
10000.0,135214.4,-95.36317,67.9212
