Frequency,Impedance,Phase Angle,Temperature (Dry Bath)
10.0,6585792.0,20.73263,66.3997
21.544346900318832,6984963.0,-6.073311,66.4054
46.41588833612777,5266023.0,-45.979,66.3936
100.0,2395931.0,175.9863,66.4045
215.44346900318823,505589.2,-9.043351,66.4128
464.15888336127773,508088.9,-93.64107,66.3908
1000.0,537002.3,-37.02477,66.4159
2154.4346900318824,277218.4,-82.25201,66.4036
4641.588833612777,114972.8,-83.56394,66.4059
10000.0,66066.05,-88.07493,66.4055
