Frequency,Impedance,Phase Angle,Temperature (Dry Bath)
10.0,188906.6,-27.09287,65.7834
21.544346900318832,154120.9,-24.48606,65.7545
46.41588833612777,125127.2,-21.27375,65.7875
100.0,103533.5,-21.32014,65.7897
215.44346900318823,8445.806,-87.34653,65.7853
464.15888336127773,83459.38,-19.07621,65.7703
1000.0,76415.67,-21.0812,65.778
2154.4346900318824,56709.26,-27.17037,65.7671
4641.588833612777,53066.4,-37.17421,65.7649
10000.0,37541.06,-47.72803,65.7598
