Frequency,Impedance,Phase Angle,Temperature (Dry Bath)
10.0,304819.3,-25.08907,71.2509
21.544346900318832,247712.9,-22.60961,71.2577
46.41588833612777,215015.3,-19.9644,71.2425
100.0,233503.3,-24.51809,71.2527
215.44346900318823,141068.4,-11.69961,71.2425
464.15888336127773,123270.4,-14.81995,71.2501
1000.0,110343.4,-12.27075,71.2525
2154.4346900318824,82568.78,-32.98057,71.2583
4641.588833612777,76109.92,-42.11922,71.2652
10000.0,41514.66,-62.21223,71.2579
