Frequency,Impedance,Phase Angle,Temperature (Dry Bath)
10.0,154046.8,-6.405637,67.9406
21.5,147599.8,-5.400817,67.9588
46.4,142018.6,-4.760922,67.9404
100.0,138363.1,-5.87064,67.9539
215.4,133761.8,-5.639517,67.9581
464.2,127606.6,-6.935389,67.9575
1000.0,123420.6,-13.10683,67.9601
2154.4,111052.4,-21.6907,67.9571
4641.6,99052.08,-32.83896,67.9636
10000.0,74767.95,-54.26977,67.9506
