Frequency,Impedance,Phase Angle,Temperature (Dry Bath)
10.0,22785510.0,-20.67777,67.4727
21.5,20509930.0,-41.33928,67.4975
46.4,15832150.0,-36.55176,67.4893
100.0,5487338.0,-15.17666,67.5035
215.4,116898.3,-0.0585138,67.4971
464.2,1770495.0,-79.963,67.4768
1000.0,817038.8,-73.55551,67.5008
2154.4,480395.5,-80.16354,67.4845
4641.6,238630.3,-80.09189,67.5014
10000.0,120578.2,-81.20525,67.4898
