Frequency,Impedance,Phase Angle,Temperature (Dry Bath)
10.0,145731.8,-12.32418,71.1238
21.544346900318832,135044.8,-10.69799,71.1419
46.41588833612777,125064.6,-10.85568,71.1506
100.0,127938.8,-18.14609,71.1365
215.44346900318823,120124.3,-6.465443,71.1478
464.15888336127773,89242.8,-13.15873,71.1551
1000.0,76296.98,-9.446584,71.1618
2154.4346900318824,72487.87,-23.7764,71.1479
4641.588833612777,60142.06,-39.26005,71.15
10000.0,41684.33,-61.52227,71.158
