Frequency,Impedance,Phase Angle,Temperature (Dry Bath)
10.0,155279.4,-6.384991,67.9724
21.5,150198.4,-5.263005,67.9754
46.4,145394.6,-4.768124,67.9555
100.0,140945.8,-6.224937,67.9899
215.4,133058.5,-5.916274,67.9762
464.2,129879.8,-6.59977,67.9967
1000.0,126292.5,-11.88824,67.9719
2154.4,113811.9,-20.15652,67.9851
4641.6,96383.84,-35.14603,67.9744
10000.0,75648.15,-54.92976,67.971
