Frequency,Impedance,Phase Angle,Temperature (Dry Bath)
10.0,2914554.0,-15.43271,67.1
21.544346900318832,1757416.0,-5.482026,67.1
46.41588833612777,2156821.0,-9.097872,67.1
100.0,1490788.0,2.617388,67.1
215.44346900318823,3111396.0,-34.4765,67.1
464.15888336127773,1564203.0,-16.277,67.1
1000.0,693032.7,5.696221,67.1
2154.4346900318824,873142.9,-43.21788,67.1
4641.588833612777,768692.6,-54.33426,67.1
10000.0,385287.2,-80.97251,67.1
