Frequency,Impedance,Phase Angle,Temperature (Dry Bath)
10.0,28436420.0,-35.37269,68.0445
21.5,39809830.0,-51.39982,68.0701
46.4,25854730.0,-55.73805,68.0608
100.0,4205440.0,-58.74517,68.0584
215.4,4179835.0,-62.90215,68.0619
464.2,2215515.0,-86.53948,68.0663
1000.0,1184930.0,-86.4544,68.0594
2154.4,521939.1,-83.39431,68.0775
4641.6,253711.2,-90.83876,68.0836
10000.0,116071.2,-96.75627,68.0794
