Frequency,Impedance,Phase Angle,Temperature (Dry Bath)
10.0,1173435.0,-9.91878,65.7476
21.544346900318832,1081934.0,-14.64541,65.756
46.41588833612777,984665.9,-14.55156,65.7668
100.0,408356.6,-12.69891,65.7582
215.44346900318823,50653.35,-170.8773,65.7489
464.15888336127773,292713.8,-42.19427,65.7585
1000.0,291867.2,-71.8996,65.7544
2154.4346900318824,207846.1,-65.18647,65.7678
4641.588833612777,139581.3,-89.57473,65.7492
10000.0,65361.62,-83.46095,65.7781
