Frequency,Impedance,Phase Angle,Temperature (Dry Bath)
10.0,1256895.0,-11.08111,68.0013
21.5,1214604.0,-11.56137,68.0138
46.4,1096994.0,-11.82186,68.0152
100.0,920250.4,-9.662251,68.0119
215.4,825699.9,-21.73756,68.014
464.2,718769.1,-28.24515,68.0195
1000.0,535136.5,-38.23629,67.995
2154.4,352204.6,-54.09535,68.0185
4641.6,230287.7,-63.7153,68.0043
10000.0,137827.4,-78.42724,68.0013
