Frequency,Impedance,Phase Angle,Temperature (Dry Bath)
10.0,24496050.0,-29.51396,67.2747
21.5,25210180.0,-22.78775,67.2755
46.4,21863480.0,-56.04854,67.2781
100.0,6176924.0,-5.056131,67.2852
215.4,238464.4,134.3162,67.29
464.2,2333185.0,-62.39909,67.2913
1000.0,1169011.0,-79.6704,67.283
2154.4,569157.4,-84.8013,67.2861
4641.6,269204.6,-87.09913,67.2702
10000.0,131875.8,-87.22054,67.2835
