Frequency,Impedance,Phase Angle,Temperature (Dry Bath)
10.0,12058.3,-4.317477,67.3497
21.5,11794.93,-3.681497,67.3343
46.4,11473.45,-2.9297,67.3412
100.0,11377.74,-3.161264,67.3382
215.4,11190.19,-3.285473,67.3564
464.2,11032.85,-3.355004,67.3414
1000.0,10783.86,-3.513356,67.3482
2154.4,10622.71,-4.27835,67.3503
4641.6,10368.76,-5.740854,67.3482
10000.0,10103.25,-9.187046,67.343
