Frequency,Impedance,Phase Angle,Temperature (Dry Bath)
10.0,12367.77,-8.441957,67.3016
21.5,11804.4,-4.837433,67.294
46.4,11598.64,-4.52179,67.3069
100.0,11534.15,-5.306378,67.3022
215.4,11468.47,-5.66361,67.3189
464.2,11312.04,-5.888806,67.343
1000.0,10940.92,-5.730974,67.3214
2154.4,10629.29,-5.782507,67.3378
4641.6,10298.1,-6.988482,67.3199
10000.0,9944.058,-9.60977,67.3353
