Frequency,Impedance,Phase Angle,Temperature (Dry Bath)
10.0,580216.4,-11.35826,68.1947
21.5,537598.2,-10.87568,68.1981
46.4,489754.3,-11.42547,68.202
100.0,459539.3,-15.29789,68.2119
215.4,425427.6,-17.65098,68.2138
464.2,338755.8,-24.23832,68.2145
1000.0,287505.7,-28.5945,68.2048
2154.4,226605.2,-36.24111,68.2126
4641.6,156974.4,-46.49222,68.2113
10000.0,112360.3,-58.01853,68.1955
