Frequency,Impedance,Phase Angle,Temperature (Dry Bath)
10.0,16133580.0,-12.85973,67.9779
21.5,21916150.0,-36.95716,67.9852
46.4,12729000.0,-50.68835,67.9766
100.0,5555352.0,-31.57721,67.9811
215.4,5537397.0,-79.20221,67.9774
464.2,1847963.0,-81.82593,67.9712
1000.0,1036832.0,-83.53413,67.9756
2154.4,569425.8,-79.85352,67.9788
4641.6,263221.4,-79.06653,67.9863
10000.0,164634.6,-89.05813,67.9811
