Frequency,Impedance,Phase Angle,Temperature (Dry Bath)
10.0,166198.0,-8.300238,65.7009
21.544346900318832,152582.0,-6.90398,65.7053
46.41588833612777,146817.7,-7.855515,65.7039
100.0,139552.9,-10.42471,65.6953
215.44346900318823,41066.42,-44.25756,65.6972
464.15888336127773,104212.2,-11.2505,65.6996
1000.0,111136.9,-15.20517,65.699
2154.4346900318824,95517.29,-29.84015,65.6984
4641.588833612777,73757.79,-53.44639,65.7034
10000.0,54223.09,-60.01454,65.6877
