Frequency,Impedance,Phase Angle,Temperature (Dry Bath)
10.0,132010.2,-24.6257,67.3556
21.5,109482.6,-22.0104,67.3596
46.4,95281.0,-19.16666,67.3616
100.0,85042.71,-16.61937,67.3528
215.4,75432.68,-14.71009,67.347
464.2,68323.14,-14.08574,67.3509
1000.0,61455.84,-14.63561,67.3592
2154.4,56145.2,-18.54409,67.3819
4641.6,49852.28,-24.9156,67.3571
10000.0,40689.84,-35.93674,67.3639
