Frequency,Impedance,Phase Angle,Temperature (Dry Bath)
10.0,40161330.0,4.744361,67.3502
21.5,26961400.0,-13.4836,67.341
46.4,20483800.0,-61.72785,67.3499
100.0,2837728.0,-18.2222,67.3274
215.4,3011819.0,-63.84555,67.3336
464.2,2825219.0,-72.42404,67.3266
1000.0,1299643.0,-75.50106,67.328
2154.4,620503.0,-93.04712,67.3255
4641.6,268619.1,-87.8771,67.3376
10000.0,133618.5,-85.53973,67.3342
