Frequency,Impedance,Phase Angle,Temperature (Dry Bath)
10.0,161554.9,-6.181598,67.9806
21.5,155377.8,-5.077753,67.9624
46.4,151046.3,-4.841362,67.9791
100.0,145731.5,-4.429988,67.9651
215.4,143372.9,-7.191706,67.9768
464.2,134458.4,-8.34995,67.9768
1000.0,130851.8,-12.18851,67.9926
2154.4,122663.5,-20.45017,67.9847
4641.6,105612.8,-35.70252,67.9614
10000.0,69090.64,-57.34202,67.9747
