Frequency,Impedance,Phase Angle,Temperature (Dry Bath)
10.0,25324790.0,-25.04728,68.0209
21.5,22932300.0,-36.06035,68.0105
46.4,23656670.0,-60.46388,68.0127
100.0,4671942.0,-34.61934,68.0086
215.4,3022439.0,-96.9396,68.0185
464.2,2179017.0,-80.86707,68.0211
1000.0,967838.6,-78.12465,68.0239
2154.4,520234.7,-86.15866,68.0156
4641.6,252642.4,-80.46441,68.0065
10000.0,121708.3,-88.24169,68.0287
