Frequency,Impedance,Phase Angle,Temperature (Dry Bath)
10.0,15201690.0,-29.95015,67.9107
21.5,26278720.0,-21.83794,67.924
46.4,16799640.0,-55.04884,67.9192
100.0,4056342.0,-43.90295,67.9162
215.4,3400139.0,-61.95835,67.9021
464.2,2020675.0,-77.89119,67.9121
1000.0,1006572.0,-81.24873,67.9255
2154.4,496361.3,-83.6432,67.9131
4641.6,257368.2,-91.25384,67.9135
10000.0,118293.5,-91.47096,67.8983
