Frequency,Impedance,Phase Angle,Temperature (Dry Bath)
10.0,2622673.0,-10.95242,67.2085
21.5,2353438.0,-11.37344,67.2302
46.4,2272266.0,-13.65969,67.2114
100.0,1899314.0,-8.146556,67.205
215.4,311499.2,-1.131449,67.2185
464.2,1150637.0,-48.95751,67.1947
1000.0,709784.7,-54.27582,67.2165
2154.4,439037.0,-63.57354,67.196
4641.6,239836.9,-68.67496,67.202
10000.0,133789.2,-71.92311,67.2137
