Frequency,Impedance,Phase Angle,Temperature (Dry Bath)
10.0,11547.6,-4.982803,67.1964
21.5,11282.29,-4.110232,67.2195
46.4,11083.09,-3.564949,67.2217
100.0,10997.94,-4.140737,67.2226
215.4,11438.54,-3.512808,67.2135
464.2,10647.27,-4.146074,67.2252
1000.0,10364.73,-3.995761,67.2047
2154.4,10151.41,-4.328929,67.2154
4641.6,9925.736,-5.754577,67.2151
10000.0,9657.655,-8.926354,67.2105
