Frequency,Impedance,Phase Angle,Temperature (Dry Bath)
10.0,1214547.0,-10.44274,67.7572
21.5,1095719.0,-10.81356,67.7559
46.4,1021809.0,-12.697,67.7453
100.0,914361.2,-22.98423,67.7576
215.4,810544.7,-23.17286,67.7336
464.2,666525.4,-30.94154,67.7617
1000.0,508213.5,-40.66937,67.7265
2154.4,359331.3,-51.93098,67.7463
4641.6,223050.0,-59.72967,67.735
10000.0,132775.6,-69.57023,67.7538
