Frequency,Impedance,Phase Angle,Temperature (Dry Bath)
10.0,26485420.0,-8.572527,68.0964
21.5,30045940.0,-30.46649,68.0964
46.4,32007230.0,-44.9045,68.0964
100.0,5930461.0,-28.18947,68.0964
215.4,8782616.0,-72.52535,68.0964
464.2,3520883.0,-92.92703,68.0964
1000.0,1376606.0,-84.73246,68.0964
2154.4,659378.6,-89.63652,68.0964
4641.6,349531.3,-94.51232,68.0964
10000.0,162113.6,-102.1117,68.0964
