Frequency,Impedance,Phase Angle,Temperature (Dry Bath)
10.0,1007471.0,-10.47377,68.0521
21.5,903003.5,-10.29747,68.0521
46.4,834970.7,-11.37724,68.0521
100.0,737686.2,-14.92928,68.0521
215.4,690430.1,-14.1763,68.0521
464.2,652596.2,-20.37269,68.0521
1000.0,541338.7,-26.61417,68.0521
2154.4,441305.6,-38.93905,68.0521
4641.6,304614.4,-57.92528,68.0521
10000.0,179719.5,-78.83589,68.0521
