Frequency,Impedance,Phase Angle,Temperature (Dry Bath)
10.0,12290.7,-4.821075,67.101
21.5,11969.47,-4.119808,67.1041
46.4,11730.34,-3.647251,67.0912
100.0,11551.18,-3.607888,67.1007
215.4,11442.57,-3.892245,67.0975
464.2,11249.69,-3.900135,67.1243
1000.0,11003.92,-4.158816,67.1025
2154.4,10759.47,-4.737127,67.1036
4641.6,10480.82,-6.319887,67.1112
10000.0,10164.53,-9.839194,67.1082
