Frequency,Impedance,Phase Angle,Temperature (Dry Bath)
10.0,81852.88,-14.44717,71.3904
21.544346900318832,72769.83,-12.99292,71.3844
46.41588833612777,66084.91,-11.84529,71.3908
100.0,59805.59,-14.71005,71.4059
215.44346900318823,60991.69,-7.448234,71.3848
464.15888336127773,61245.74,-7.862644,71.3818
1000.0,48712.52,-10.27613,71.4064
2154.4346900318824,45346.75,-10.16496,71.3842
4641.588833612777,40301.09,-16.62624,71.4038
10000.0,39301.08,-24.81755,71.3999
