Frequency,Impedance,Phase Angle,Temperature (Dry Bath)
10.0,4541575.0,23.78538,70.9745
21.544346900318832,4648361.0,-11.48894,70.95
46.41588833612777,6510038.0,-7.288719,70.9688
100.0,531363.1,-1.41247,70.9552
215.44346900318823,566674.1,-27.00237,70.9582
464.15888336127773,2778781.0,-21.58888,70.9506
1000.0,325074.1,-116.575,70.9581
2154.4346900318824,311318.0,-91.62794,70.9526
4641.588833612777,111498.6,-81.93647,70.9621
10000.0,60185.43,-81.94365,70.9531
