Frequency,Impedance,Phase Angle,Temperature (Dry Bath)
10.0,115089.7,-9.729999,67.2099
21.5,107661.9,-8.629428,67.1992
46.4,103273.2,-9.166123,67.2097
100.0,97390.96,-10.68879,67.2107
215.4,94852.74,-10.25227,67.2243
464.2,84272.44,-13.11948,67.2262
1000.0,76475.02,-16.56435,67.2056
2154.4,67733.3,-21.08429,67.2245
4641.6,56000.89,-28.73506,67.2312
10000.0,43161.92,-36.95472,67.2281
