Frequency,Impedance,Phase Angle,Temperature (Dry Bath)
10.0,7809783.0,-36.78363,71.1436
21.544346900318832,4673809.0,-9.413153,71.1333
46.41588833612777,5308021.0,-33.23568,71.1444
100.0,764465.3,-96.89583,71.1461
215.44346900318823,504668.3,-56.28594,71.1535
464.15888336127773,627507.0,-18.82616,71.1724
1000.0,568384.5,-58.46156,71.1645
2154.4346900318824,242691.3,-77.12537,71.1537
4641.588833612777,96230.0,-85.61772,71.1562
10000.0,58880.61,-85.4929,71.1566
