Frequency,Impedance,Phase Angle,Temperature (Dry Bath)
10.0,5930491.0,-49.06388,66.411
21.544346900318832,6054030.0,-3.626317,66.4204
46.41588833612777,4096801.0,-30.88108,66.4116
100.0,635693.0,-0.3964344,66.4361
215.44346900318823,329332.5,-52.86457,66.4236
464.15888336127773,2095643.0,-55.58991,66.4177
1000.0,455094.3,-76.87593,66.4058
2154.4346900318824,262956.1,-98.04144,66.4207
4641.588833612777,165911.7,-79.66748,66.4158
10000.0,62322.22,-81.98609,66.3995
