Frequency,Impedance,Phase Angle,Temperature (Dry Bath)
10.0,1634218.0,-8.739734,67.1597
21.5,1523044.0,-10.48209,67.1592
46.4,1395503.0,-13.6004,67.1396
100.0,1142357.0,-22.71728,67.155
215.4,1108452.0,-19.29242,67.1366
464.2,1007240.0,-41.07751,67.1403
1000.0,556806.8,-55.99452,67.1564
2154.4,348743.5,-61.20797,67.1533
4641.6,187757.1,-66.91663,67.1381
10000.0,99190.5,-72.54121,67.1412
