Frequency,Impedance,Phase Angle,Temperature (Dry Bath)
10.0,28275250.0,-10.90132,67.3614
21.5,26164280.0,-31.6642,67.3508
46.4,22585260.0,-45.27281,67.3558
100.0,3580681.0,6.026904,67.354
215.4,8064996.0,-83.6379,67.3365
464.2,3847190.0,-83.88406,67.3372
1000.0,1535536.0,-91.93662,67.3338
2154.4,512234.8,-91.70775,67.3309
4641.6,266155.8,-86.01464,67.3332
10000.0,131023.4,-87.14208,67.3404
