Frequency,Impedance,Phase Angle,Temperature (Dry Bath)
10.0,7293246.0,-38.80702,65.8419
21.544346900318832,6852228.0,-49.95134,65.8295
46.41588833612777,3155987.0,-19.37277,65.8458
100.0,281177.1,53.49818,65.8274
215.44346900318823,20560.07,54.79515,65.8477
464.15888336127773,1193287.0,-54.02439,65.8409
1000.0,330723.3,-57.12462,65.8486
2154.4346900318824,218861.1,-90.25704,65.8329
4641.588833612777,114810.6,-94.93763,65.836
10000.0,77450.52,-86.6306,65.8432
