Frequency,Impedance,Phase Angle,Temperature (Dry Bath)
10.0,25079700.0,-0.1047447,68.0964
21.5,24175470.0,-48.05863,68.0964
46.4,23969960.0,-58.9299,68.0964
100.0,3824735.0,-52.36371,68.0964
215.4,3679260.0,-68.84762,68.0964
464.2,1710958.0,-77.21756,68.0964
1000.0,955653.4,-82.03372,68.0964
2154.4,538799.4,-78.24324,68.0964
4641.6,266521.6,-87.90216,68.0964
10000.0,139738.6,-95.0809,68.0964
