Frequency,Impedance,Phase Angle,Temperature (Dry Bath)
10.0,195572.1,-26.82736,65.7559
21.544346900318832,157515.9,-24.28224,65.7501
46.41588833612777,127506.0,-23.05631,65.7531
100.0,101849.9,-21.26339,65.7556
215.44346900318823,15426.37,5.337288,65.7592
464.15888336127773,79937.55,-23.03549,65.7445
1000.0,71335.26,-17.99162,65.7561
2154.4346900318824,60816.02,-25.52654,65.7641
4641.588833612777,52717.21,-35.74426,65.7525
10000.0,36959.59,-50.4565,65.7627
