Frequency,Impedance,Phase Angle,Temperature (Dry Bath)
10.0,138465.2,-5.91601,67.2088
21.5,132865.7,-4.957042,67.2028
46.4,128567.5,-4.697703,67.2309
100.0,126786.5,-6.286764,67.2172
215.4,127731.6,-98.21808,67.2226
464.2,117542.6,-8.756603,67.2281
1000.0,111777.0,-12.17546,67.2289
2154.4,103310.5,-19.56956,67.2165
4641.6,85201.86,-34.19738,67.2161
10000.0,60664.53,-51.2427,67.2332
