Frequency,Impedance,Phase Angle,Temperature (Dry Bath)
10.0,135397.5,-6.302148,67.2953
21.5,129576.3,-5.223734,67.291
46.4,124892.9,-5.026081,67.2819
100.0,119764.2,-5.818157,67.2863
215.4,115420.5,-6.655617,67.2786
464.2,114407.7,-8.728426,67.2704
1000.0,107191.6,-12.65453,67.2837
2154.4,99141.28,-19.91151,67.2649
4641.6,83130.45,-34.37817,67.2708
10000.0,60321.58,-50.0927,67.266
