Frequency,Impedance,Phase Angle,Temperature (Dry Bath)
10.0,30915590.0,-2.395767,68.3546
21.5,21967420.0,-32.80986,68.3528
46.4,11172820.0,-56.88366,68.3433
100.0,5675382.0,-44.14146,68.3526
215.4,5971292.0,-52.55225,68.3431
464.2,2446925.0,-82.76568,68.3368
1000.0,1122202.0,-79.97087,68.3487
2154.4,537188.4,-82.08032,68.323
4641.6,295607.4,-81.09114,68.3331
10000.0,147808.4,-91.19604,68.3382
