Frequency,Impedance,Phase Angle,Temperature (Dry Bath)
10.0,12050.3,-4.289922,67.5054
21.5,11793.01,-3.663268,67.5097
46.4,11519.77,-2.995765,67.5102
100.0,11425.04,-3.276393,67.5172
215.4,11519.73,0.00505033,67.4894
464.2,11082.98,-3.493918,67.4976
1000.0,10819.49,-3.581503,67.4996
2154.4,10622.27,-4.230738,67.5212
4641.6,10398.94,-5.829492,67.4941
10000.0,10131.17,-9.135293,67.5075
