Frequency,Impedance,Phase Angle,Temperature (Dry Bath)
10.0,7562.117,-27.83171,70.7638
21.544346900318832,5981.005,-26.60094,70.7845
46.41588833612777,4783.357,-24.73194,70.7596
100.0,3884.57,-21.83005,70.7729
215.44346900318823,3252.608,-19.45365,70.7696
464.15888336127773,2794.218,-16.58486,70.7542
1000.0,2442.714,-14.12977,70.7691
2154.4346900318824,2216.453,-11.94885,70.7907
4641.588833612777,2027.14,-10.96798,70.7681
10000.0,1872.601,-10.59535,70.7737
