Frequency,Impedance,Phase Angle,Temperature (Dry Bath)
10.0,23016.13,-22.04325,71.2177
21.544346900318832,18889.69,-23.91751,71.2225
46.41588833612777,15234.2,-25.26914,71.2405
100.0,12615.79,-26.49816,71.2158
215.44346900318823,9459.399,-26.79314,71.2275
464.15888336127773,7918.388,-25.11931,71.2204
1000.0,6228.611,-25.18952,71.2367
2154.4346900318824,5056.149,-22.83188,71.2178
4641.588833612777,4159.918,-20.91588,71.24
10000.0,3499.327,-19.57507,71.2261
