Frequency,Impedance,Phase Angle,Temperature (Dry Bath)
10.0,25549530.0,-13.11263,67.182
21.5,23152940.0,-32.97779,67.1952
46.4,19227480.0,-47.56927,67.195
100.0,6056619.0,-49.62405,67.1943
215.4,3632169.0,-76.49298,67.1855
464.2,1903284.0,-98.18152,67.183
1000.0,983857.9,-82.37276,67.2036
2154.4,464608.6,-81.73159,67.1962
4641.6,220510.0,-81.09779,67.1995
10000.0,116951.1,-78.67,67.1882
