Frequency,Impedance,Phase Angle,Temperature (Dry Bath)
10.0,3913787.0,0.01289763,71.5913
21.544346900318832,6381100.0,-4.023905,71.5929
46.41588833612777,4671191.0,-3.631846,71.603
100.0,479953.9,-23.89669,71.5989
215.44346900318823,979543.5,-54.31487,71.6013
464.15888336127773,1558467.0,82.07759,71.5877
1000.0,4411630.0,-56.52076,71.5835
2154.4346900318824,434007.7,-101.8804,71.6019
4641.588833612777,286126.8,-73.77273,71.5933
10000.0,133163.5,-86.68873,71.5879
