Frequency,Impedance,Phase Angle,Temperature (Dry Bath)
10.0,4529108.0,-7.328412,70.4
21.544346900318832,5653675.0,-12.90318,70.4
46.41588833612777,5135880.0,2.649148,70.4
100.0,1152260.0,-28.09535,70.4
215.44346900318823,2675252.0,125.1114,70.4
464.15888336127773,1303816.0,-27.86527,70.4
1000.0,1291921.0,-107.8113,70.4
2154.4346900318824,1283161.0,-62.45363,70.4
4641.588833612777,1858257.0,-49.14316,70.4
10000.0,3077751.0,-15.95845,70.4
