Frequency,Impedance,Phase Angle,Temperature (Dry Bath)
10.0,115057.0,-24.48241,67.2572
21.5,96595.69,-21.28411,67.2498
46.4,83172.65,-18.1895,67.247
100.0,73463.35,-16.02184,67.2898
215.4,67413.86,-13.14352,67.2707
464.2,60511.38,-12.45953,67.2587
1000.0,55631.72,-13.29711,67.2736
2154.4,51520.34,-16.12294,67.2827
4641.6,46512.86,-22.49429,67.2922
10000.0,38597.24,-34.35057,67.2702
