Frequency,Impedance,Phase Angle,Temperature (Dry Bath)
10.0,4765946.0,4.923545,71.3916
21.544346900318832,5168182.0,15.07973,71.3951
46.41588833612777,5433734.0,-8.880447,71.4059
100.0,723185.5,119.522,71.3884
215.44346900318823,792824.9,25.96486,71.4102
464.15888336127773,572956.1,-59.21388,71.3976
1000.0,554038.2,-85.05867,71.4149
2154.4346900318824,321765.3,9.913846,71.3949
4641.588833612777,278181.3,-66.11723,71.3946
10000.0,112541.0,-77.84908,71.4109
