Frequency,Impedance,Phase Angle,Temperature (Dry Bath)
10.0,11674.16,-23.31789,71.5403
21.544346900318832,9546.537,-23.72011,71.5253
46.41588833612777,7755.136,-23.46349,71.5363
100.0,6291.161,-21.93456,71.54
215.44346900318823,5311.651,-19.65173,71.5494
464.15888336127773,4640.05,-17.22724,71.5499
1000.0,4022.114,-15.52487,71.556
2154.4346900318824,3569.887,-14.04809,71.5358
4641.588833612777,3189.385,-13.00737,71.5592
10000.0,2897.793,-12.46695,71.5436
