Frequency,Impedance,Phase Angle,Temperature (Dry Bath)
10.0,38306180.0,-12.44633,67.1602
21.5,23218320.0,-30.45452,67.1459
46.4,19708660.0,-45.33601,67.1704
100.0,31923290.0,-59.53274,67.1578
215.4,4570717.0,-54.09605,67.1652
464.2,2946030.0,-106.8794,67.1439
1000.0,1201016.0,-82.97448,67.168
2154.4,593212.5,-87.49981,67.1518
4641.6,278096.2,-84.11301,67.1497
10000.0,130662.6,-87.21298,67.1499
