Frequency,Impedance,Phase Angle,Temperature (Dry Bath)
10.0,12579.56,-23.43498,71.0367
21.544346900318832,10527.53,-19.77105,71.0256
46.41588833612777,9088.62,-16.7781,71.0375
100.0,7961.997,-13.56775,71.0414
215.44346900318823,7247.556,-12.42736,71.0364
464.15888336127773,6676.364,-10.67449,71.028
1000.0,6034.128,-9.379249,71.0261
2154.4346900318824,5695.066,-9.339974,71.0257
4641.588833612777,5300.236,-9.150221,71.0193
10000.0,5004.816,-11.06339,71.0349
