Frequency,Impedance,Phase Angle,Temperature (Dry Bath)
10.0,232572.9,-15.17602,71.083
21.544346900318832,209102.3,-14.88483,71.0733
46.41588833612777,186144.9,-15.21566,71.0876
100.0,176316.1,-28.23666,71.0869
215.44346900318823,155705.9,-12.14429,71.0743
464.15888336127773,103644.8,-16.45784,71.0607
1000.0,75608.81,-7.803516,71.0677
2154.4346900318824,100698.5,-19.66537,71.0706
4641.588833612777,126564.6,-38.58535,71.0911
10000.0,72238.29,-47.68936,71.0931
