Frequency,Impedance,Phase Angle,Temperature (Dry Bath)
10.0,35846720.0,-7.700706,67.3106
21.5,25459770.0,-36.0184,67.3143
46.4,11930280.0,-56.58975,67.3015
100.0,27442560.0,161.3671,67.2919
215.4,595623.4,0.09647036,67.3049
464.2,1938756.0,-89.23272,67.3129
1000.0,996810.9,-80.55271,67.2979
2154.4,472068.2,-83.18359,67.3145
4641.6,248764.6,-79.71305,67.304
10000.0,131125.1,-78.9332,67.3041
