Frequency,Impedance,Phase Angle,Temperature (Dry Bath)
10.0,38969620.0,-13.87078,67.8616
21.5,29430460.0,-47.53651,67.8528
46.4,29507980.0,-57.75035,67.8649
100.0,7682000.0,-62.53082,67.8748
215.4,3479682.0,-66.89816,67.876
464.2,1978391.0,-73.85743,67.86
1000.0,938645.6,-76.46684,67.874
2154.4,513551.9,-79.60918,67.8718
4641.6,277585.6,-90.13559,67.8758
10000.0,131251.2,-94.7524,67.884
