Frequency,Impedance,Phase Angle,Temperature (Dry Bath)
10.0,8569604.0,-30.89784,70.7647
21.544346900318832,4836039.0,-26.88202,70.7499
46.41588833612777,5099702.0,-16.65962,70.7775
100.0,315837.1,-22.98168,70.7497
215.44346900318823,902685.1,65.34543,70.7635
464.15888336127773,606943.4,-105.4724,70.7531
1000.0,381755.4,-148.066,70.7628
2154.4346900318824,233640.8,-60.00578,70.7597
4641.588833612777,97740.33,-81.67861,70.7607
10000.0,55224.3,-84.58064,70.7639
