Frequency,Impedance,Phase Angle,Temperature (Dry Bath)
10.0,40379370.0,-5.86497,67.2615
21.5,21742750.0,-53.71735,67.2333
46.4,24881290.0,-75.01256,67.2479
100.0,5303423.0,-13.9274,67.2511
215.4,631803.8,65.78933,67.2467
464.2,2095627.0,-88.93049,67.2451
1000.0,984360.0,-83.29872,67.2442
2154.4,477470.7,-81.19904,67.2258
4641.6,249956.8,-79.25111,67.2317
10000.0,135571.3,-80.18437,67.2358
