Frequency,Impedance,Phase Angle,Temperature (Dry Bath)
10.0,24307230.0,-17.81318,68.1949
21.5,39767550.0,-41.22564,68.1949
46.4,28160090.0,-59.19385,68.1949
100.0,6130036.0,-49.90025,68.1949
215.4,4935017.0,-86.52507,68.1949
464.2,2261202.0,-87.0338,68.1949
1000.0,1213383.0,-66.82907,68.1949
2154.4,674881.0,-80.55847,68.1949
4641.6,348330.9,-78.50635,68.1949
10000.0,174555.3,-94.6801,68.1949
