Frequency,Impedance,Phase Angle,Temperature (Dry Bath)
10.0,1161087.0,-8.596232,65.7852
21.544346900318832,1151381.0,-4.239051,65.7848
46.41588833612777,1091434.0,-9.509028,65.7949
100.0,2385141.0,17.78965,65.7653
215.44346900318823,4118.556,-155.8126,65.7663
464.15888336127773,948697.8,23.62487,65.7813
1000.0,487644.6,-31.00894,65.7719
2154.4346900318824,165135.8,-77.36563,65.7819
4641.588833612777,124145.1,-81.52586,65.7631
10000.0,65454.22,-72.77371,65.7641
