Frequency,Impedance,Phase Angle,Temperature (Dry Bath)
10.0,4755791.0,7.514283,71.5285
21.544346900318832,5583944.0,4.611489,71.5373
46.41588833612777,5578209.0,-2.27712,71.5346
100.0,587703.0,-95.94356,71.539
215.44346900318823,4198900.0,103.0869,71.5437
464.15888336127773,1124984.0,-81.13033,71.5595
1000.0,593128.5,-47.31335,71.5557
2154.4346900318824,483751.3,-144.2051,71.5237
4641.588833612777,335875.6,-95.81259,71.5384
10000.0,181962.4,-81.04166,71.5402
