Frequency,Impedance,Phase Angle,Temperature (Dry Bath)
10.0,30107850.0,-0.4793201,67.1302
21.5,24623390.0,-40.6048,67.119
46.4,17113210.0,-59.19483,67.1442
100.0,6779191.0,-110.9682,67.1411
215.4,247691.7,-166.9297,67.1523
464.2,2454191.0,-95.19421,67.1479
1000.0,975665.6,-81.00892,67.1312
2154.4,443220.3,-83.87764,67.1292
4641.6,236407.4,-81.83463,67.1527
10000.0,117874.5,-78.9187,67.1522
