Frequency,Impedance,Phase Angle,Temperature (Dry Bath)
10.0,3916838.0,-4.516308,70.8382
21.544346900318832,4154499.0,2.079019,70.8402
46.41588833612777,3788740.0,-30.80643,70.8407
100.0,731749.6,-54.63623,70.8466
215.44346900318823,834652.3,15.89009,70.8352
464.15888336127773,408493.5,-119.4004,70.8321
1000.0,1503922.0,-39.88486,70.8395
2154.4346900318824,189471.3,-94.33298,70.8414
4641.588833612777,127259.3,-75.76237,70.8329
10000.0,57063.24,-89.4307,70.8376
