Frequency,Impedance,Phase Angle,Temperature (Dry Bath)
10.0,45856080.0,-42.27096,68.3329
21.5,20263150.0,-36.13139,68.3499
46.4,10481570.0,-58.27921,68.3373
100.0,4721267.0,-30.93486,68.3402
215.4,4659456.0,-92.32684,68.3578
464.2,1924904.0,-69.49947,68.3504
1000.0,1063770.0,-77.3754,68.3511
2154.4,566858.6,-81.35747,68.3346
4641.6,262290.7,-87.33828,68.3196
10000.0,126109.5,-91.12571,68.3377
