Frequency,Impedance,Phase Angle,Temperature (Dry Bath)
10.0,22619410.0,-14.41916,68.1154
21.5,21324580.0,-39.83968,68.1154
46.4,22383620.0,-49.69116,68.1154
100.0,4328185.0,-19.93718,68.1154
215.4,4815237.0,-87.65619,68.1154
464.2,1689207.0,-81.27278,68.1154
1000.0,884523.2,-85.91592,68.1154
2154.4,460192.0,-78.81991,68.1154
4641.6,215335.2,-82.73187,68.1154
10000.0,114649.6,-90.34572,68.1154
