Frequency,Impedance,Phase Angle,Temperature (Dry Bath)
10.0,152146.3,-10.28893,71.1542
21.544346900318832,141712.3,-9.579146,71.1449
46.41588833612777,131311.1,-9.592482,71.1578
100.0,84942.58,-15.69779,71.1442
215.44346900318823,132022.3,-9.871523,71.1609
464.15888336127773,105157.2,-20.21052,71.135
1000.0,95283.41,-24.44078,71.1487
2154.4346900318824,91484.61,-29.59632,71.1487
4641.588833612777,74377.79,-39.56121,71.1493
10000.0,39661.24,-62.48123,71.1524
