Frequency,Impedance,Phase Angle,Temperature (Dry Bath)
10.0,30929540.0,-11.55536,67.2959
21.5,21107910.0,-30.0267,67.2875
46.4,16646780.0,-50.83058,67.2895
100.0,3081514.0,-58.57638,67.2898
215.4,310990.2,62.86177,67.3038
464.2,2214627.0,-83.81774,67.3057
1000.0,905518.0,-81.98757,67.3139
2154.4,467105.7,-83.69684,67.2942
4641.6,240187.4,-81.39527,67.3115
10000.0,118472.5,-78.41347,67.302
