Frequency,Impedance,Phase Angle,Temperature (Dry Bath)
10.0,140092.0,-5.710554,67.3788
21.5,135106.8,-4.703136,67.3673
46.4,130969.3,-4.349308,67.3765
100.0,123074.2,-4.076504,67.3722
215.4,125621.9,-3.023396,67.3656
464.2,119264.8,-7.267638,67.3699
1000.0,115190.4,-11.87336,67.3636
2154.4,104739.2,-19.87128,67.3582
4641.6,88567.65,-34.08407,67.3647
10000.0,62766.86,-51.21514,67.372
