Frequency,Impedance,Phase Angle,Temperature (Dry Bath)
10.0,5790450.0,-23.90197,70.9452
21.544346900318832,7175646.0,-23.35596,70.9629
46.41588833612777,3791802.0,-29.489,70.9637
100.0,381517.2,-28.43222,70.9542
215.44346900318823,595457.0,29.6554,70.9725
464.15888336127773,1339179.0,170.5402,70.9596
1000.0,1428703.0,-104.8799,70.9587
2154.4346900318824,225150.8,-97.31519,70.9795
4641.588833612777,122075.9,-87.2133,70.9733
10000.0,58655.53,-89.44915,70.9792
