Frequency,Impedance,Phase Angle,Temperature (Dry Bath)
10.0,140090.0,-5.835327,67.1175
21.5,134713.1,-4.839611,67.1119
46.4,131199.3,-4.478977,67.1222
100.0,133518.3,-6.554457,67.1022
215.4,80649.36,0.4958509,67.1164
464.2,119693.8,-8.885177,67.1138
1000.0,112112.5,-12.69676,67.1178
2154.4,107386.7,-19.69258,67.1271
4641.6,88630.45,-34.99359,67.1187
10000.0,60579.43,-51.8277,67.1223
