Frequency,Impedance,Phase Angle,Temperature (Dry Bath)
10.0,18276250.0,-15.93258,68.1915
21.5,20904910.0,-28.24476,68.1981
46.4,28922460.0,-46.11406,68.2018
100.0,4234087.0,-3.140522,68.2007
215.4,7060090.0,-94.91264,68.1987
464.2,3363251.0,-89.48802,68.2019
1000.0,1173948.0,-87.02305,68.2135
2154.4,653636.6,-84.50243,68.1933
4641.6,348251.1,-89.61816,68.1915
10000.0,147674.4,-98.44074,68.1961
