Frequency,Impedance,Phase Angle,Temperature (Dry Bath)
10.0,156707.6,-6.472287,68.0665
21.5,150444.9,-5.149308,68.0676
46.4,145716.0,-4.899468,68.0672
100.0,136900.6,-6.155676,68.062
215.4,139260.5,-5.590269,68.0873
464.2,133950.8,-7.4587,68.0742
1000.0,125360.5,-12.82346,68.0682
2154.4,112841.5,-19.87322,68.0646
4641.6,96720.18,-33.19881,68.071
10000.0,75376.94,-53.68312,68.0793
