Frequency,Impedance,Phase Angle,Temperature (Dry Bath)
10.0,135111.1,-8.137398,67.3691
21.5,127855.2,-7.397423,67.3849
46.4,122638.1,-7.687931,67.3738
100.0,116932.9,-9.060861,67.3743
215.4,156012.4,27.0769,67.3727
464.2,105060.3,-11.33255,67.3738
1000.0,94317.17,-15.45445,67.3795
2154.4,82294.79,-22.31286,67.3734
4641.6,66046.24,-31.17421,67.377
10000.0,50419.66,-41.80014,67.38
