Frequency,Impedance,Phase Angle,Temperature (Dry Bath)
10.0,155246.6,-6.173635,68.2766
21.5,149577.5,-5.089775,68.303
46.4,144506.5,-4.731843,68.2975
100.0,136976.7,-5.939747,68.2919
215.4,137326.1,-6.904063,68.2736
464.2,131669.6,-6.778089,68.3
1000.0,125510.2,-13.21618,68.3
2154.4,117071.3,-18.8741,68.2962
4641.6,101792.8,-34.36404,68.2821
10000.0,72051.42,-54.46083,68.3004
