Frequency,Impedance,Phase Angle,Temperature (Dry Bath)
10.0,12318.11,-27.61408,70.9022
21.544346900318832,9878.452,-24.55278,70.9054
46.41588833612777,8134.85,-21.44287,70.8776
100.0,6904.157,-18.11072,70.8876
215.44346900318823,6095.435,-15.36357,70.8914
464.15888336127773,5403.745,-13.63313,70.8982
1000.0,4801.278,-11.80856,70.8924
2154.4346900318824,4428.072,-10.7137,70.8924
4641.588833612777,4118.583,-10.83367,70.9081
10000.0,3813.216,-12.75784,70.9169
