Frequency,Impedance,Phase Angle,Temperature (Dry Bath)
10.0,18657150.0,-18.36236,67.9677
21.5,19973170.0,-42.83597,67.9677
46.4,25311020.0,-60.91833,67.9677
100.0,5003427.0,-36.59809,67.9677
215.4,7609515.0,-100.4469,67.9677
464.2,2094937.0,-94.60022,67.9677
1000.0,1023426.0,-83.45703,67.9677
2154.4,474284.5,-88.7253,67.9677
4641.6,238374.0,-90.42179,67.9677
10000.0,117468.8,-93.58535,67.9677
