Frequency,Impedance,Phase Angle,Temperature (Dry Bath)
10.0,5483001.0,-1.793704,66.2319
21.544346900318832,4854408.0,-17.27367,66.2468
46.41588833612777,4186391.0,-20.05809,66.2405
100.0,442622.3,65.66141,66.2445
215.44346900318823,235423.7,-140.5474,66.2501
464.15888336127773,1057200.0,-4.692197,66.2349
1000.0,392450.9,-61.06019,66.2239
2154.4346900318824,272012.5,-95.15693,66.2392
4641.588833612777,127023.8,-84.55447,66.2412
10000.0,59275.24,-85.5721,66.2336
