Frequency,Impedance,Phase Angle,Temperature (Dry Bath)
10.0,6887223.0,-1.247125,65.6786
21.544346900318832,3591286.0,-30.58421,65.6818
46.41588833612777,3554181.0,26.10566,65.6866
100.0,1024988.0,49.35039,65.6717
215.44346900318823,40559.99,-134.16,65.6827
464.15888336127773,881087.0,-136.0664,65.6982
1000.0,427796.3,-53.21473,65.6787
2154.4346900318824,418227.6,-77.23773,65.6747
4641.588833612777,114954.4,-76.25688,65.674
10000.0,67911.27,-90.37479,65.6827
