Frequency,Impedance,Phase Angle,Temperature (Dry Bath)
10.0,461743.3,-8.566615,67.097
21.5,430935.5,-8.950743,67.0981
46.4,405427.0,-10.65303,67.0999
100.0,371082.1,-10.14661,67.1139
215.4,341433.3,-13.84579,67.0969
464.2,308600.9,-24.05659,67.1005
1000.0,277458.1,-28.28958,67.0925
2154.4,206196.5,-40.5091,67.0963
4641.6,142653.0,-49.82652,67.0817
10000.0,86699.45,-60.11194,67.0993
