Frequency,Impedance,Phase Angle,Temperature (Dry Bath)
10.0,34861950.0,-2.992314,68.0614
21.5,27671280.0,-24.66717,68.0763
46.4,27333230.0,-57.67538,68.0688
100.0,3421732.0,-55.11655,68.0554
215.4,3358748.0,-82.63934,68.0456
464.2,2018426.0,-68.84728,68.0863
1000.0,935079.5,-81.56204,68.068
2154.4,512859.1,-82.17233,68.0587
4641.6,258107.2,-89.12852,68.0676
10000.0,121838.2,-94.20785,68.0949
