Frequency,Impedance,Phase Angle,Temperature (Dry Bath)
10.0,31321040.0,-19.20073,67.2626
21.5,33873980.0,-23.86222,67.2778
46.4,19662820.0,-43.25313,67.2657
100.0,6388800.0,-97.00424,67.2519
215.4,231243.4,122.2796,67.2703
464.2,2389093.0,-78.44906,67.271
1000.0,1318116.0,-80.53684,67.2872
2154.4,616975.6,-81.12095,67.2462
4641.6,264807.2,-87.67282,67.2699
10000.0,131391.3,-87.24093,67.261
