Frequency,Impedance,Phase Angle,Temperature (Dry Bath)
10.0,113565.5,-9.59467,67.3132
21.5,106018.5,-8.533854,67.3056
46.4,101688.3,-9.212015,67.3075
100.0,94455.92,-8.766148,67.3229
215.4,91269.66,-11.35432,67.3067
464.2,84684.16,-12.0687,67.3048
1000.0,75056.62,-16.45998,67.2935
2154.4,66531.08,-21.45447,67.306
4641.6,54625.73,-27.82095,67.31
10000.0,42030.47,-37.41673,67.319
