Frequency,Impedance,Phase Angle,Temperature (Dry Bath)
10.0,30232330.0,-29.38872,67.3648
21.5,24313190.0,-44.24193,67.3567
46.4,11593860.0,-59.70761,67.3522
100.0,5694216.0,-55.23531,67.3675
215.4,381795.9,-134.4814,67.3488
464.2,1783325.0,-77.89018,67.3697
1000.0,872681.1,-77.98951,67.3642
2154.4,473488.4,-82.42,67.3424
4641.6,237251.0,-79.54364,67.3713
10000.0,122430.5,-81.80142,67.3622
