Frequency,Impedance,Phase Angle,Temperature (Dry Bath)
10.0,3689358.0,-21.66384,65.7098
21.544346900318832,3651849.0,-2.989511,65.7217
46.41588833612777,4230427.0,-41.27893,65.6945
100.0,459952.3,8.321614,65.6976
215.44346900318823,13312.19,-25.06587,65.7254
464.15888336127773,756482.7,-85.5297,65.7097
1000.0,197354.0,-65.60475,65.71
2154.4346900318824,279957.0,-73.82138,65.7156
4641.588833612777,125312.5,-83.47313,65.708
10000.0,62201.75,-89.21086,65.7217
