Frequency,Impedance,Phase Angle,Temperature (Dry Bath)
10.0,158539.4,-8.796272,65.8113
21.544346900318832,145607.3,-7.925851,65.8182
46.41588833612777,139412.4,-7.653994,65.8107
100.0,142314.0,19.28153,65.8217
215.44346900318823,150030.7,5.421894,65.8182
464.15888336127773,124610.3,-4.771268,65.8167
1000.0,105535.6,-17.53473,65.8343
2154.4346900318824,94733.99,-28.86632,65.8283
4641.588833612777,63306.64,-53.23537,65.8371
10000.0,53327.18,-59.99631,65.8295
