Frequency,Impedance,Phase Angle,Temperature (Dry Bath)
10.0,2316871.0,-9.424678,67.3237
21.5,2164906.0,-11.62718,67.3364
46.4,1955340.0,-15.56608,67.307
100.0,1654578.0,-30.25403,67.3286
215.4,1452794.0,-10.59308,67.3128
464.2,1364235.0,-44.58411,67.3391
1000.0,655002.1,-56.61957,67.3377
2154.4,371900.5,-65.24457,67.3457
4641.6,199434.2,-70.29545,67.3403
10000.0,107546.9,-72.7147,67.3361
