Frequency,Impedance,Phase Angle,Temperature (Dry Bath)
10.0,875173.7,-11.87648,68.0147
21.5,810252.1,-11.57153,68.0147
46.4,752458.6,-11.88682,68.0147
100.0,635671.5,-9.322189,68.0147
215.4,587560.1,-16.24914,68.0147
464.2,569970.0,-18.79392,68.0147
1000.0,453471.7,-26.78799,68.0147
2154.4,360459.8,-37.99627,68.0147
4641.6,257386.3,-53.14983,68.0147
10000.0,169755.8,-76.44036,68.0147
