Frequency,Impedance,Phase Angle,Temperature (Dry Bath)
10.0,34059100.0,-14.16972,68.3449
21.5,22099850.0,-41.80402,68.3505
46.4,14704890.0,-42.56306,68.3341
100.0,15554150.0,-29.13559,68.3371
215.4,3681858.0,-86.38853,68.3347
464.2,2535047.0,-95.05682,68.3491
1000.0,1762751.0,-84.52467,68.3563
2154.4,637939.1,-91.15033,68.3498
4641.6,311516.5,-94.1221,68.3425
10000.0,158125.6,-94.29002,68.3173
