Frequency,Impedance,Phase Angle,Temperature (Dry Bath)
10.0,137764.0,-5.932554,67.3869
21.5,132410.2,-4.873699,67.3969
46.4,128313.3,-4.401728,67.3869
100.0,120193.4,-6.069984,67.4047
215.4,128997.2,20.42833,67.3857
464.2,118854.5,-6.601439,67.4012
1000.0,111423.7,-12.38832,67.3924
2154.4,104630.3,-17.89537,67.3973
4641.6,87852.06,-31.86372,67.3847
10000.0,63769.35,-49.38124,67.393
