Frequency,Impedance,Phase Angle,Temperature (Dry Bath)
10.0,161631.0,-8.976629,66.1157
21.544346900318832,151053.2,-8.398525,66.1172
46.41588833612777,142065.0,-7.709712,66.1427
100.0,113934.5,-16.95194,66.1223
215.44346900318823,151241.9,-21.33898,66.1581
464.15888336127773,139755.0,-1.492748,66.1451
1000.0,107942.6,-15.06029,66.1267
2154.4346900318824,101563.7,-28.02953,66.1379
4641.588833612777,66510.57,-43.35649,66.1483
10000.0,43243.64,-60.27405,66.1472
