Frequency,Impedance,Phase Angle,Temperature (Dry Bath)
10.0,4638723.0,7.00102,65.8301
21.544346900318832,5836661.0,-14.80011,65.8377
46.41588833612777,5709055.0,-24.46891,65.8221
100.0,3160700.0,-26.40639,65.837
215.44346900318823,805293.9,72.2348,65.859
464.15888336127773,1296413.0,-51.18656,65.8465
1000.0,557585.8,-108.3515,65.8422
2154.4346900318824,218540.5,-79.88394,65.8396
4641.588833612777,144730.9,-76.88969,65.8473
10000.0,62129.61,-90.47058,65.8345
