Frequency,Impedance,Phase Angle,Temperature (Dry Bath)
10.0,17789130.0,-24.17703,68.2474
21.5,23544110.0,-36.15255,68.2526
46.4,21912000.0,-50.98448,68.2486
100.0,4720420.0,-53.58494,68.2537
215.4,3100816.0,-78.45912,68.2616
464.2,1698193.0,-66.9826,68.2439
1000.0,979052.6,-72.8482,68.2543
2154.4,496454.3,-81.10087,68.2491
4641.6,244020.7,-80.7917,68.2471
10000.0,130358.2,-93.69961,68.2623
