Frequency,Impedance,Phase Angle,Temperature (Dry Bath)
10.0,20606170.0,-43.47049,67.9871
21.5,21498500.0,-36.46825,67.9922
46.4,13762760.0,-65.5049,67.9991
100.0,3033116.0,-58.5335,67.9919
215.4,3919822.0,-58.17798,67.9843
464.2,2412795.0,-72.09871,67.9838
1000.0,925926.6,-75.76112,67.9902
2154.4,471935.7,-75.57242,67.9912
4641.6,265640.8,-81.54006,67.9883
10000.0,140358.7,-93.67168,67.9791
