Frequency,Impedance,Phase Angle,Temperature (Dry Bath)
10.0,13165620.0,-10.18667,68.2597
21.5,13373770.0,-27.57646,68.2471
46.4,16609020.0,-43.34302,68.2464
100.0,4155186.0,-11.75956,68.2489
215.4,3320999.0,-59.31301,68.2592
464.2,1790946.0,-81.38449,68.2432
1000.0,823451.6,-76.26829,68.2485
2154.4,439689.2,-83.51163,68.2414
4641.6,205047.4,-82.64595,68.2545
10000.0,109813.1,-87.73639,68.2474
