Frequency,Impedance,Phase Angle,Temperature (Dry Bath)
10.0,12337.54,-4.31424,67.3716
21.5,12049.45,-3.695267,67.3679
46.4,11836.82,-3.465658,67.366
100.0,11623.87,-2.987345,67.3709
215.4,11427.5,-0.5693682,67.3645
464.2,11272.98,-3.493078,67.3839
1000.0,11009.63,-3.613335,67.3697
2154.4,10818.83,-4.248455,67.3721
4641.6,10599.49,-5.915167,67.3724
10000.0,10306.43,-9.493585,67.3727
