Frequency,Impedance,Phase Angle,Temperature (Dry Bath)
10.0,28077560.0,-28.92781,67.1941
21.5,22653470.0,-44.51477,67.2115
46.4,10322020.0,-53.01641,67.1802
100.0,4534942.0,-44.70918,67.1897
215.4,146079.7,-124.6597,67.2179
464.2,1554674.0,-83.85655,67.1938
1000.0,775480.0,-70.65556,67.217
2154.4,438145.5,-77.38954,67.2079
4641.6,235747.9,-77.10169,67.192
10000.0,121642.1,-80.89435,67.2015
