Frequency,Impedance,Phase Angle,Temperature (Dry Bath)
10.0,18475350.0,5.865021,68.0609
21.5,16498840.0,-39.35564,68.0557
46.4,15941680.0,-61.82527,68.0553
100.0,3753868.0,-53.77815,68.0606
215.4,3508457.0,-88.13426,68.0654
464.2,2020418.0,-70.99797,68.0613
1000.0,1030338.0,-73.72273,68.0589
2154.4,494754.4,-80.41603,68.067
4641.6,267127.6,-86.50342,68.0619
10000.0,132807.8,-90.34074,68.0732
