Frequency,Impedance,Phase Angle,Temperature (Dry Bath)
10.0,11945.94,-4.281089,67.4899
21.5,11682.64,-3.682666,67.4899
46.4,11416.14,-3.03203,67.4876
100.0,11299.75,-2.93085,67.4756
215.4,10596.78,-1.711585,67.4926
464.2,11012.82,-3.562874,67.5
1000.0,10770.27,-3.64147,67.4797
2154.4,10544.54,-4.175804,67.4773
4641.6,10333.97,-5.708721,67.4905
10000.0,10049.34,-9.333829,67.4916
