Frequency,Impedance,Phase Angle,Temperature (Dry Bath)
10.0,347054.6,-7.338666,67.2876
21.5,326373.9,-7.389437,67.2848
46.4,309933.6,-7.321403,67.2721
100.0,277349.6,-3.054422,67.2867
215.4,290675.2,-8.805524,67.2961
464.2,276921.5,-14.78165,67.3156
1000.0,237641.1,-20.53885,67.2835
2154.4,210885.1,-28.85672,67.285
4641.6,150917.8,-46.15282,67.3025
10000.0,93602.36,-63.2425,67.3195
