Frequency,Impedance,Phase Angle,Temperature (Dry Bath)
10.0,182442.7,-17.69328,71.2927
21.544346900318832,156664.0,-16.5511,71.2954
46.41588833612777,138618.6,-16.17671,71.3059
100.0,94774.64,-16.83097,71.309
215.44346900318823,137808.3,-14.41159,71.3113
464.15888336127773,94751.57,-17.45515,71.295
1000.0,71151.28,-27.86595,71.3098
2154.4346900318824,71562.05,-36.18183,71.3121
4641.588833612777,51606.48,-40.41765,71.3014
10000.0,33784.16,-54.29963,71.2928
