Frequency,Impedance,Phase Angle,Temperature (Dry Bath)
10.0,119422.8,-24.5526,67.2245
21.5,99611.23,-21.43508,67.2117
46.4,85967.73,-18.11868,67.2267
100.0,74913.76,-15.18239,67.2267
215.4,63466.81,-10.64729,67.2234
464.2,62892.23,-12.87168,67.2078
1000.0,56965.83,-13.24615,67.2228
2154.4,52565.63,-16.67567,67.2302
4641.6,47030.84,-23.84902,67.2135
10000.0,38862.51,-35.32597,67.2189
