Frequency,Impedance,Phase Angle,Temperature (Dry Bath)
10.0,228769.8,-10.546,70.4
21.544346900318832,249695.3,-10.79788,70.4
46.41588833612777,235318.1,-11.57819,70.4
100.0,188585.0,-8.231758,70.4
215.44346900318823,199469.7,-9.805384,70.4
464.15888336127773,192194.3,-14.24235,70.4
1000.0,139056.1,-14.15197,70.4
2154.4346900318824,141077.7,-15.52908,70.4
4641.588833612777,125515.1,-22.909,70.4
10000.0,99922.61,-36.77446,70.4
