Frequency,Impedance,Phase Angle,Temperature (Dry Bath)
10.0,5041087.0,-22.77928,71.6895
21.544346900318832,3703952.0,-7.455344,71.6951
46.41588833612777,6024520.0,1.414808,71.6852
100.0,977490.9,50.05072,71.7015
215.44346900318823,1815190.0,-78.39527,71.6838
464.15888336127773,2266874.0,99.43948,71.6931
1000.0,1634052.0,-74.01725,71.6808
2154.4346900318824,333582.2,-69.45806,71.6827
4641.588833612777,765489.0,-76.49494,71.6956
10000.0,161623.7,-90.91302,71.6949
