Frequency,Impedance,Phase Angle,Temperature (Dry Bath)
10.0,192672.4,-20.24158,65.7518
21.544346900318832,161238.2,-18.13254,65.7404
46.41588833612777,140765.0,-16.46475,65.7576
100.0,105306.6,-13.41938,65.7632
215.44346900318823,11489.8,-25.06653,65.7799
464.15888336127773,102808.1,-20.84381,65.7568
1000.0,80108.63,-28.16265,65.7547
2154.4346900318824,68608.28,-27.9281,65.7561
4641.588833612777,64020.1,-40.02774,65.7559
10000.0,39763.07,-50.64633,65.7545
