Frequency,Impedance,Phase Angle,Temperature (Dry Bath)
10.0,12723.51,-23.333,70.9882
21.544346900318832,10686.22,-19.67816,70.9858
46.41588833612777,9224.595,-16.72265,70.9928
100.0,8267.968,-14.25877,70.9634
215.44346900318823,7450.284,-12.21304,70.9844
464.15888336127773,6725.851,-11.02469,70.9783
1000.0,6146.279,-9.904001,70.9783
2154.4346900318824,5744.411,-9.38923,70.9725
4641.588833612777,5457.401,-9.803678,70.9671
10000.0,5086.962,-11.67013,70.9829
