Frequency,Impedance,Phase Angle,Temperature (Dry Bath)
10.0,44202230.0,-3.976672,67.7971
21.5,50530370.0,-27.95596,67.7921
46.4,29448070.0,-57.45798,67.8194
100.0,4091577.0,-31.79341,67.7991
215.4,9888928.0,-62.48976,67.8007
464.2,4169387.0,-85.01411,67.8237
1000.0,1408283.0,-78.21014,67.8074
2154.4,655901.5,-85.13452,67.8154
4641.6,321057.0,-89.66067,67.8187
10000.0,147791.3,-96.57996,67.8182
