Frequency,Impedance,Phase Angle,Temperature (Dry Bath)
10.0,9619464.0,-13.26791,65.6837
21.544346900318832,4254131.0,-10.3485,65.6521
46.41588833612777,5532998.0,0.07179334,65.6463
100.0,2265898.0,-118.8233,65.6746
215.44346900318823,37998.26,-137.9524,65.6578
464.15888336127773,493360.8,-104.8955,65.661
1000.0,368531.5,-85.44108,65.663
2154.4346900318824,218912.3,-84.66212,65.6698
4641.588833612777,143253.9,-87.50949,65.6616
10000.0,67405.24,-83.99123,65.6703
