Frequency,Impedance,Phase Angle,Temperature (Dry Bath)
10.0,43668320.0,-28.64883,67.8866
21.5,40139160.0,-42.83673,67.894
46.4,10220390.0,-55.27814,67.8917
100.0,4425373.0,-49.46116,67.889
215.4,4588160.0,-80.65488,67.8914
464.2,1777799.0,-91.10831,67.8948
1000.0,1074321.0,-79.09347,67.8838
2154.4,503766.2,-86.12766,67.8727
4641.6,245730.9,-91.61765,67.8904
10000.0,126630.4,-91.40691,67.8843
