Frequency,Impedance,Phase Angle,Temperature (Dry Bath)
10.0,16148370.0,-24.06555,68.1197
21.5,18137340.0,-41.00681,68.1154
46.4,20823200.0,-53.74187,68.1403
100.0,7758901.0,-33.18196,68.1254
215.4,3161557.0,-72.25933,68.12
464.2,1669876.0,-81.15395,68.1198
1000.0,908945.3,-84.1715,68.0979
2154.4,444188.0,-80.46708,68.1221
4641.6,218277.3,-80.46885,68.1274
10000.0,114653.5,-87.8279,68.1234
