Frequency,Impedance,Phase Angle,Temperature (Dry Bath)
10.0,170801.2,-6.112992,68.1534
21.5,164377.4,-5.054395,68.1717
46.4,158764.8,-4.789465,68.1711
100.0,148996.2,-4.890195,68.1586
215.4,148903.5,-7.22398,68.1814
464.2,145263.7,-6.929357,68.159
1000.0,137870.9,-13.51577,68.1528
2154.4,125605.6,-20.26465,68.1546
4641.6,112179.6,-37.24043,68.1593
10000.0,76191.95,-64.43606,68.166
