Frequency,Impedance,Phase Angle,Temperature (Dry Bath)
10.0,3904620.0,-9.128453,65.8058
21.544346900318832,4629432.0,-15.08475,65.8199
46.41588833612777,4770337.0,-19.19247,65.8255
100.0,766231.0,45.81585,65.8204
215.44346900318823,542265.3,34.66865,65.8085
464.15888336127773,903522.9,40.83488,65.8268
1000.0,735333.2,-57.79548,65.8224
2154.4346900318824,312054.3,-100.4628,65.8307
4641.588833612777,135279.5,-81.61589,65.8251
10000.0,77876.92,-91.1559,65.8386
