Frequency,Impedance,Phase Angle,Temperature (Dry Bath)
10.0,11766.49,-21.5552,70.986
21.544346900318832,10078.02,-18.04853,70.9848
46.41588833612777,8833.294,-15.3523,70.9836
100.0,7988.739,-12.87371,70.9703
215.44346900318823,7147.918,-12.24656,70.99
464.15888336127773,6541.54,-9.8231,70.9767
1000.0,5905.061,-7.41413,70.9849
2154.4346900318824,5645.138,-8.007034,70.9735
4641.588833612777,5304.11,-7.69014,70.9783
10000.0,5099.85,-10.15508,70.9704
