Frequency,Impedance,Phase Angle,Temperature (Dry Bath)
10.0,45222670.0,6.086374,67.7519
21.5,29768350.0,-27.86076,67.7597
46.4,33734560.0,-55.09172,67.752
100.0,9066369.0,-43.22944,67.7531
215.4,4869403.0,-64.38278,67.7483
464.2,3093068.0,-90.41529,67.754
1000.0,1213340.0,-84.55261,67.7594
2154.4,595738.7,-90.46911,67.75
4641.6,302145.5,-94.86456,67.7706
10000.0,150403.8,-100.5702,67.7663
