Frequency,Impedance,Phase Angle,Temperature (Dry Bath)
10.0,786523.3,-9.878566,67.9086
21.5,749200.0,-10.25754,67.9085
46.4,698261.9,-11.16224,67.9388
100.0,587589.6,-12.82157,67.9198
215.4,569349.4,-19.69269,67.9098
464.2,502826.4,-27.23506,67.921
1000.0,373917.7,-34.54425,67.9224
2154.4,278774.9,-43.86777,67.9448
4641.6,181948.7,-55.75509,67.926
10000.0,118872.7,-66.24198,67.9191
