Frequency,Impedance,Phase Angle,Temperature (Dry Bath)
10.0,35169850.0,-14.53266,67.1988
21.5,24138850.0,-43.22683,67.1603
46.4,13738420.0,-66.27811,67.1915
100.0,2353923.0,-45.53098,67.1856
215.4,7807595.0,-24.99507,67.1966
464.2,1703856.0,-78.1711,67.2303
1000.0,891930.6,-96.97699,67.2175
2154.4,433995.7,-85.12573,67.1964
4641.6,238712.8,-84.55569,67.2155
10000.0,114597.5,-84.16921,67.1844
