Frequency,Impedance,Phase Angle,Temperature (Dry Bath)
10.0,34930970.0,-10.48422,67.0802
21.5,28886230.0,-42.52289,67.0843
46.4,20568730.0,-52.09925,67.0829
100.0,4253572.0,-17.6745,67.0846
215.4,2019113.0,-75.44732,67.0891
464.2,2306082.0,-74.06426,67.0814
1000.0,1260196.0,-79.38322,67.0807
2154.4,593667.1,-87.0876,67.0679
4641.6,283787.7,-87.20713,67.066
10000.0,130026.6,-86.32003,67.072
