Frequency,Impedance,Phase Angle,Temperature (Dry Bath)
10.0,14888020.0,-29.61113,72.125
21.544346900318832,4924395.0,-10.29634,72.1238
46.41588833612777,4550932.0,-10.94454,72.0966
100.0,373706.3,-66.98981,72.1035
215.44346900318823,2209626.0,-13.81619,72.0921
464.15888336127773,898889.5,-50.33321,72.099
1000.0,7831324.0,55.26428,72.1136
2154.4346900318824,275917.4,-61.79144,72.1454
4641.588833612777,337187.5,-68.22256,72.1346
10000.0,129567.5,-85.62958,72.0988
