Frequency,Impedance,Phase Angle,Temperature (Dry Bath)
10.0,14389.64,-20.13424,71.1879
21.544346900318832,12349.66,-17.41477,71.1893
46.41588833612777,10824.36,-15.24871,71.1998
100.0,9699.713,-11.6725,71.1788
215.44346900318823,8768.154,-11.79963,71.2023
464.15888336127773,8017.832,-10.45782,71.1932
1000.0,7263.43,-10.46823,71.1803
2154.4346900318824,6816.93,-9.425544,71.1991
4641.588833612777,6457.035,-10.43217,71.1881
10000.0,6038.0,-12.4414,71.1857
