Frequency,Impedance,Phase Angle,Temperature (Dry Bath)
10.0,20885610.0,-34.23856,68.18
21.5,25585390.0,-33.20619,68.211
46.4,11478000.0,-47.4107,68.1948
100.0,6555956.0,-28.84875,68.1896
215.4,4997579.0,-90.6328,68.202
464.2,1749371.0,-64.60584,68.1994
1000.0,798212.0,-81.89218,68.1945
2154.4,426888.8,-84.92265,68.2145
4641.6,241814.2,-84.30801,68.2059
10000.0,110748.9,-90.3418,68.2002
