Frequency,Impedance,Phase Angle,Temperature (Dry Bath)
10.0,25326450.0,-12.27992,67.5008
21.5,23997960.0,-26.51931,67.5049
46.4,18382230.0,-42.57936,67.5052
100.0,4629044.0,-40.3427,67.4908
215.4,857164.0,-124.3177,67.4899
464.2,2748986.0,-121.111,67.484
1000.0,1270238.0,-79.44687,67.5017
2154.4,586529.9,-89.79554,67.4839
4641.6,271656.8,-86.03709,67.4852
10000.0,135872.9,-87.39861,67.4878
