Frequency,Impedance,Phase Angle,Temperature (Dry Bath)
10.0,4987666.0,11.57979,71.4542
21.544346900318832,5205931.0,-22.27356,71.4577
46.41588833612777,6325954.0,-34.58432,71.4621
100.0,556158.9,89.97732,71.4595
215.44346900318823,645823.8,-85.37435,71.4577
464.15888336127773,486751.9,-78.13513,71.4674
1000.0,433242.0,-70.18598,71.4773
2154.4346900318824,457319.6,-116.5385,71.4602
4641.588833612777,103481.8,-98.08481,71.4511
10000.0,57999.91,-92.41785,71.4487
