Frequency,Impedance,Phase Angle,Temperature (Dry Bath)
10.0,29540330.0,-33.17965,67.1327
21.5,25185100.0,-20.74818,67.13
46.4,16939870.0,-51.86672,67.1284
100.0,6373772.0,-38.23757,67.1549
215.4,6472686.0,-82.09612,67.1555
464.2,2080489.0,-97.35201,67.1522
1000.0,1301430.0,-84.50824,67.1325
2154.4,594698.8,-89.31662,67.1318
4641.6,283699.5,-85.38459,67.1463
10000.0,130185.9,-86.76651,67.139
