Frequency,Impedance,Phase Angle,Temperature (Dry Bath)
10.0,5223889.0,14.18357,71.6347
21.544346900318832,3976509.0,8.610932,71.6327
46.41588833612777,6304350.0,-22.31963,71.6368
100.0,1123785.0,61.67448,71.639
215.44346900318823,931813.2,131.7593,71.6236
464.15888336127773,432881.1,49.81834,71.6291
1000.0,419935.1,-90.59528,71.6311
2154.4346900318824,219667.1,-105.1575,71.6385
4641.588833612777,394824.1,-125.334,71.6336
10000.0,167941.7,-85.5673,71.6298
