Frequency,Impedance,Phase Angle,Temperature (Dry Bath)
10.0,40316530.0,-9.209785,67.1026
21.5,18876880.0,-50.11975,67.1061
46.4,12885200.0,-60.86609,67.1063
100.0,3765266.0,-117.1867,67.1061
215.4,1278447.0,-93.64333,67.0952
464.2,1710310.0,-91.72625,67.1106
1000.0,802660.7,-76.36734,67.1221
2154.4,464116.6,-77.9922,67.1181
4641.6,223613.1,-75.38165,67.1301
10000.0,115955.5,-80.05465,67.0916
