Frequency,Impedance,Phase Angle,Temperature (Dry Bath)
10.0,21593230.0,-25.06144,67.9814
21.5,21003780.0,-37.3113,67.9814
46.4,25698000.0,-59.07765,67.9814
100.0,4479917.0,-47.57473,67.9814
215.4,4236813.0,-113.176,67.9814
464.2,1641107.0,-88.00898,67.9814
1000.0,1065579.0,-86.17319,67.9814
2154.4,474229.5,-89.25615,67.9814
4641.6,241778.1,-91.08559,67.9814
10000.0,114635.5,-93.58519,67.9814
