Frequency,Impedance,Phase Angle,Temperature (Dry Bath)
10.0,43199420.0,-8.99612,67.9801
21.5,29761790.0,-26.1386,67.9897
46.4,29722460.0,-44.63031,67.9908
100.0,7415767.0,-55.32889,67.9675
215.4,6886862.0,-38.12442,67.9775
464.2,2125533.0,-78.9785,67.9796
1000.0,1271296.0,-80.24118,67.9786
2154.4,674262.2,-92.06305,67.9758
4641.6,302503.3,-95.25373,67.9817
10000.0,148948.9,-97.68311,67.9899
