Frequency,Impedance,Phase Angle,Temperature (Dry Bath)
10.0,3411625.0,-10.92003,71.2781
21.544346900318832,4378674.0,-5.356371,71.2853
46.41588833612777,4525382.0,-17.51289,71.272
100.0,250052.2,-72.86361,71.2727
215.44346900318823,211776.1,-0.9268501,71.2624
464.15888336127773,1086606.0,-99.76204,71.2555
1000.0,301164.1,-95.81196,71.2671
2154.4346900318824,284779.8,-88.26181,71.2778
4641.588833612777,177198.4,-89.34614,71.2628
10000.0,52249.46,-88.35328,71.2601
