Frequency,Impedance,Phase Angle,Temperature (Dry Bath)
10.0,9174.414,-27.62757,70.6987
21.544346900318832,7259.28,-26.73953,70.7058
46.41588833612777,5790.274,-25.24074,70.7047
100.0,4671.366,-23.56206,70.6906
215.44346900318823,3901.092,-20.48726,70.7
464.15888336127773,3318.284,-17.56827,70.714
1000.0,2883.259,-14.98724,70.7093
2154.4346900318824,2581.812,-13.26803,70.6869
4641.588833612777,2352.172,-11.55826,70.6962
10000.0,2169.044,-12.01141,70.6966
