Frequency,Impedance,Phase Angle,Temperature (Dry Bath)
10.0,127452.0,-24.97251,67.3032
21.5,105226.8,-21.68167,67.3107
46.4,90388.5,-18.57734,67.299
100.0,80538.33,-15.92029,67.302
215.4,58902.28,-32.38781,67.3036
464.2,66180.02,-13.81284,67.2969
1000.0,60351.83,-14.54473,67.3123
2154.4,54938.97,-17.27281,67.3091
4641.6,48531.07,-24.3956,67.324
10000.0,39761.59,-36.92043,67.3101
