Frequency,Impedance,Phase Angle,Temperature (Dry Bath)
10.0,1461804.0,-7.406031,67.4294
21.5,1374257.0,-9.427463,67.4257
46.4,1300856.0,-12.14448,67.4325
100.0,860197.9,-28.73099,67.4352
215.4,1021099.0,-16.02612,67.4321
464.2,747927.9,-33.86818,67.4351
1000.0,559277.1,-50.94325,67.422
2154.4,358631.6,-61.73036,67.423
4641.6,193577.5,-69.85716,67.4443
10000.0,104650.6,-73.49349,67.44
