Frequency,Impedance,Phase Angle,Temperature (Dry Bath)
10.0,1190047.0,-9.722606,67.7521
21.5,1113748.0,-11.2952,67.7333
46.4,1033862.0,-12.09547,67.7299
100.0,902991.5,-13.60806,67.7282
215.4,792053.3,-22.99859,67.7322
464.2,663706.2,-27.62031,67.7378
1000.0,502459.0,-40.64596,67.7292
2154.4,349954.0,-52.50455,67.7253
4641.6,218906.4,-62.21224,67.712
10000.0,127158.0,-74.32154,67.7244
