Frequency,Impedance,Phase Angle,Temperature (Dry Bath)
10.0,23069540.0,-30.90486,67.9862
21.5,15771190.0,-36.51989,67.9758
46.4,14878330.0,-55.07555,68.0013
100.0,4604316.0,-50.04219,67.9872
215.4,2722838.0,-87.16246,67.9853
464.2,1642925.0,-85.37649,68.0021
1000.0,1057242.0,-77.95125,67.9836
2154.4,516573.8,-86.36745,67.9906
4641.6,296548.7,-83.11229,67.979
10000.0,132393.9,-91.36997,67.9729
