Frequency,Impedance,Phase Angle,Temperature (Dry Bath)
10.0,191514.9,-20.39206,65.8369
21.544346900318832,157336.3,-18.92158,65.8528
46.41588833612777,137739.3,-16.95472,65.8527
100.0,116776.7,-4.570498,65.8579
215.44346900318823,14648.74,166.1219,65.8455
464.15888336127773,82756.45,-20.42104,65.8247
1000.0,82373.77,-20.33793,65.8567
2154.4346900318824,68811.36,-32.33538,65.8323
4641.588833612777,57589.35,-37.71813,65.8588
10000.0,40642.15,-50.7638,65.8353
