Frequency,Impedance,Phase Angle,Temperature (Dry Bath)
10.0,5022481.0,-13.63291,67.9853
21.5,4802761.0,-14.58987,67.978
46.4,5582488.0,-23.35175,67.9727
100.0,3977749.0,-35.58407,67.9786
215.4,2645187.0,-68.89789,67.9924
464.2,1182780.0,-58.62684,67.9895
1000.0,879007.4,-67.69075,67.9722
2154.4,420155.7,-76.09571,67.9674
4641.6,208904.5,-81.0224,67.9905
10000.0,127341.8,-85.67625,67.9516
