Frequency,Impedance,Phase Angle,Temperature (Dry Bath)
10.0,14370.71,-20.04497,71.2773
21.544346900318832,12341.94,-17.30139,71.3007
46.41588833612777,10843.68,-15.04733,71.3037
100.0,9564.876,-13.6146,71.2959
215.44346900318823,8940.18,-11.70343,71.28
464.15888336127773,7945.882,-11.16298,71.3333
1000.0,7501.743,-10.41558,71.3008
2154.4346900318824,6869.51,-9.6221,71.3036
4641.588833612777,6411.903,-10.80025,71.2948
10000.0,6023.993,-13.09978,71.2926
