Frequency,Impedance,Phase Angle,Temperature (Dry Bath)
10.0,38447310.0,-28.62575,67.9866
21.5,46002520.0,-47.41479,67.9839
46.4,32970470.0,-45.98186,67.9883
100.0,7269066.0,-41.5156,67.9696
215.4,5546547.0,-76.08632,67.9785
464.2,3645257.0,-102.2243,67.9983
1000.0,1590729.0,-83.37444,67.9944
2154.4,656376.5,-95.59928,68.0064
4641.6,310928.2,-95.94615,67.9906
10000.0,148884.7,-97.75999,67.9857
