Frequency,Impedance,Phase Angle,Temperature (Dry Bath)
10.0,19347710.0,-18.32862,68.1167
21.5,20265570.0,-23.43507,68.1119
46.4,28333880.0,-50.00827,68.1211
100.0,9110487.0,-31.19508,68.1119
215.4,7621930.0,-68.96322,68.0917
464.2,2706005.0,-82.43755,68.1046
1000.0,1425498.0,-79.1628,68.1205
2154.4,650538.9,-91.48043,68.116
4641.6,316156.5,-89.48745,68.122
10000.0,147425.7,-97.59749,68.1249
