Frequency,Impedance,Phase Angle,Temperature (Dry Bath)
10.0,4535764.0,-2.282105,65.85
21.544346900318832,5096985.0,-10.64107,65.8713
46.41588833612777,4306136.0,-8.473158,65.8632
100.0,672155.3,98.32474,65.8701
215.44346900318823,38001.88,-125.0008,65.8656
464.15888336127773,5768176.0,-25.37841,65.8728
1000.0,513721.5,-99.54822,65.8652
2154.4346900318824,285916.2,-87.54863,65.8595
4641.588833612777,148010.8,-78.46447,65.8671
10000.0,64076.75,-88.07834,65.8727
