Frequency,Impedance,Phase Angle,Temperature (Dry Bath)
10.0,18133170.0,-23.63751,68.3157
21.5,19923270.0,-40.78283,68.3157
46.4,11741780.0,-48.09219,68.3157
100.0,5153986.0,-37.83667,68.3157
215.4,7336732.0,-61.41686,68.3157
464.2,2429086.0,-68.37922,68.3157
1000.0,1062527.0,-85.41943,68.3157
2154.4,492728.3,-85.11064,68.3157
4641.6,239466.5,-87.92421,68.3157
10000.0,115825.6,-93.52104,68.3157
