Frequency,Impedance,Phase Angle,Temperature (Dry Bath)
10.0,139557.0,-5.853906,67.4128
21.5,134307.0,-4.716529,67.4153
46.4,130342.0,-4.565619,67.4147
100.0,124494.3,-4.638879,67.4085
215.4,86986.74,5.717186,67.4158
464.2,116816.7,-8.146687,67.4045
1000.0,110919.5,-12.14597,67.4139
2154.4,106531.7,-20.02667,67.4222
4641.6,87998.53,-34.46946,67.4178
10000.0,60937.62,-51.89569,67.4124
