Frequency,Impedance,Phase Angle,Temperature (Dry Bath)
10.0,4701706.0,8.168574,66.6
21.544346900318832,6596025.0,18.18071,66.6
46.41588833612777,4054828.0,12.68444,66.6
100.0,284441.4,-57.68227,66.6
215.44346900318823,855441.5,-12.54517,66.6
464.15888336127773,724245.2,134.0768,66.6
1000.0,777726.8,133.8625,66.6
2154.4346900318824,795185.1,-172.8972,66.6
4641.588833612777,1865395.0,25.91019,66.6
10000.0,634741.2,-49.21117,66.6
