Frequency,Impedance,Phase Angle,Temperature (Dry Bath)
10.0,32259140.0,-42.54908,67.153
21.5,24536580.0,-37.10829,67.1376
46.4,13227170.0,-59.64724,67.1372
100.0,8744855.0,-72.75136,67.1595
215.4,3624245.0,-61.9961,67.141
464.2,1791928.0,-96.54512,67.1582
1000.0,954666.5,-73.21303,67.1568
2154.4,467265.9,-79.76311,67.1608
4641.6,217214.7,-82.72068,67.1773
10000.0,109152.5,-84.90485,67.1429
