Frequency,Impedance,Phase Angle,Temperature (Dry Bath)
10.0,17172260.0,-31.8079,67.9449
21.5,22477400.0,-33.54613,67.9513
46.4,20244380.0,-56.82058,67.962
100.0,5110153.0,-47.33668,67.9366
215.4,4792895.0,-59.09737,67.9467
464.2,2104186.0,-61.47377,67.9431
1000.0,1009386.0,-84.37682,67.9468
2154.4,534144.8,-85.58852,67.9525
4641.6,237863.1,-90.00067,67.9499
10000.0,112269.2,-96.56918,67.9444
