Frequency,Impedance,Phase Angle,Temperature (Dry Bath)
10.0,319471.7,-8.207037,67.1834
21.5,298354.4,-8.025555,67.1923
46.4,280888.2,-8.118491,67.1875
100.0,269223.7,-6.300598,67.1897
215.4,244671.6,-9.111992,67.2054
464.2,237774.5,-13.60521,67.1767
1000.0,211881.4,-17.58218,67.1917
2154.4,189311.4,-27.73342,67.2032
4641.6,145798.3,-43.21319,67.208
10000.0,90053.61,-60.21531,67.1822
