Frequency,Impedance,Phase Angle,Temperature (Dry Bath)
10.0,24516050.0,-11.87321,67.224
21.5,24811240.0,-37.94602,67.2422
46.4,23030460.0,-16.35778,67.2361
100.0,4096012.0,-54.60821,67.2319
215.4,406532.0,14.21077,67.243
464.2,1890598.0,-86.94351,67.2248
1000.0,1109207.0,-78.94551,67.2354
2154.4,576072.7,-87.24639,67.2367
4641.6,271163.7,-84.50141,67.2308
10000.0,131771.4,-86.99921,67.248
