Frequency,Impedance,Phase Angle,Temperature (Dry Bath)
10.0,137511.5,-6.076417,67.0163
21.5,132175.4,-5.225316,67.0254
46.4,127502.7,-4.955889,67.0268
100.0,123650.4,-5.262956,67.023
215.4,123312.9,-8.467341,67.031
464.2,114422.9,-8.427957,67.0145
1000.0,109988.1,-13.35225,67.0443
2154.4,103092.3,-20.35654,67.0242
4641.6,85817.15,-34.85847,67.0209
10000.0,60512.23,-51.28866,67.0307
