Frequency,Impedance,Phase Angle,Temperature (Dry Bath)
10.0,10603.64,-25.12456,70.8981
21.544346900318832,8768.751,-21.11282,70.9029
46.41588833612777,7488.402,-17.57238,70.8824
100.0,6590.789,-14.54746,70.9064
215.44346900318823,5948.582,-12.40872,70.9036
464.15888336127773,5455.776,-10.59297,70.8926
1000.0,5071.038,-9.384485,70.9085
2154.4346900318824,4732.157,-8.453193,70.9022
4641.588833612777,4427.348,-8.229126,70.8859
10000.0,4246.885,-9.089381,70.8849
