Frequency,Impedance,Phase Angle,Temperature (Dry Bath)
10.0,164149.4,-6.214638,67.7784
21.5,157739.3,-5.251314,67.7889
46.4,152541.8,-4.825955,67.7963
100.0,147393.9,-4.966873,67.766
215.4,141131.3,-7.08342,67.7889
464.2,138412.4,-6.096123,67.7772
1000.0,132912.3,-12.44703,67.7885
2154.4,122752.5,-22.11281,67.7671
4641.6,100073.1,-33.83743,67.7731
10000.0,71418.99,-55.91449,67.7972
