Frequency,Impedance,Phase Angle,Temperature (Dry Bath)
10.0,7179231.0,7.932082,71.5219
21.544346900318832,7745518.0,0.8973616,71.5053
46.41588833612777,4985549.0,-20.53611,71.5079
100.0,403219.9,-75.76884,71.5143
215.44346900318823,565622.5,-54.04158,71.5161
464.15888336127773,788145.1,-138.3713,71.5271
1000.0,189787.3,-148.3969,71.5451
2154.4346900318824,264988.6,-111.3313,71.5233
4641.588833612777,131998.8,-79.4636,71.5141
10000.0,72132.19,-82.31755,71.5117
