Frequency,Impedance,Phase Angle,Temperature (Dry Bath)
10.0,735145.2,-24.40752,71.02
21.544346900318832,569277.1,-23.59716,71.001
46.41588833612777,505519.3,-24.06688,71.0093
100.0,281919.0,16.99968,71.0151
215.44346900318823,266305.8,-25.77218,71.0122
464.15888336127773,321687.2,-27.47555,71.0012
1000.0,219161.2,-36.08629,70.9902
2154.4346900318824,188829.4,-47.82419,70.9921
4641.588833612777,93992.69,-60.03658,71.0017
10000.0,50552.66,-75.26133,71.0064
