Frequency,Impedance,Phase Angle,Temperature (Dry Bath)
10.0,115896.1,-9.716251,67.3802
21.5,108798.1,-8.839061,67.3937
46.4,104082.6,-9.090672,67.3623
100.0,99103.41,-9.838342,67.3756
215.4,91825.37,-9.463743,67.3775
464.2,86488.72,-12.61434,67.3652
1000.0,77947.01,-16.6798,67.3746
2154.4,67144.78,-21.40146,67.3718
4641.6,56838.49,-29.05521,67.385
10000.0,43711.61,-37.85862,67.3838
