Frequency,Impedance,Phase Angle,Temperature (Dry Bath)
10.0,4000098.0,-25.01729,71.5453
21.544346900318832,4030884.0,-1.827258,71.5442
46.41588833612777,5997546.0,-4.041248,71.5504
100.0,662666.4,7.65498,71.5494
215.44346900318823,2080290.0,44.78501,71.56
464.15888336127773,1185050.0,-49.00133,71.5468
1000.0,1441130.0,-89.28466,71.542
2154.4346900318824,403583.9,-88.56805,71.5491
4641.588833612777,199020.7,-80.40052,71.5603
10000.0,120726.4,-81.85961,71.5476
