Frequency,Impedance,Phase Angle,Temperature (Dry Bath)
10.0,28255950.0,-53.46328,67.921
21.5,25169210.0,-37.93455,67.9266
46.4,18562460.0,-57.22162,67.9315
100.0,6680487.0,-54.08095,67.9213
215.4,3523569.0,-98.35609,67.9138
464.2,1771274.0,-73.86647,67.9388
1000.0,950092.5,-78.69673,67.9037
2154.4,511899.3,-77.40848,67.917
4641.6,287841.0,-90.57581,67.9141
10000.0,149369.6,-89.01912,67.928
