Frequency,Impedance,Phase Angle,Temperature (Dry Bath)
10.0,1219075.0,-10.14384,67.8635
21.5,1100273.0,-10.88246,67.8812
46.4,1038012.0,-12.78072,67.858
100.0,862664.3,-15.0811,67.8589
215.4,839019.0,-23.34981,67.8634
464.2,734216.0,-34.6877,67.8634
1000.0,546784.3,-42.00577,67.8805
2154.4,379660.5,-46.87724,67.862
4641.6,236901.2,-61.4494,67.865
10000.0,138061.8,-75.82689,67.8511
