Frequency,Impedance,Phase Angle,Temperature (Dry Bath)
10.0,6185443.0,-22.06571,66.1884
21.544346900318832,6193235.0,-17.20321,66.1893
46.41588833612777,4909531.0,-18.40301,66.2011
100.0,514955.7,144.7219,66.1895
215.44346900318823,556441.8,-111.0606,66.1873
464.15888336127773,803702.2,-115.5327,66.1835
1000.0,433008.4,-76.47275,66.2029
2154.4346900318824,293831.6,-72.97925,66.1894
4641.588833612777,133607.2,-93.61689,66.1822
10000.0,67746.02,-90.65361,66.1955
