Frequency,Impedance,Phase Angle,Temperature (Dry Bath)
10.0,19289.13,-18.38897,67.7786
21.5,16818.59,-15.03666,67.767
46.4,15178.96,-12.0206,67.7799
100.0,13813.92,-9.223937,67.7764
215.4,13144.89,-7.065012,67.7844
464.2,12626.93,-5.768853,67.7877
1000.0,12010.51,-5.281468,67.7942
2154.4,11741.77,-5.101157,67.7858
4641.6,11362.98,-7.196768,67.7802
10000.0,10921.71,-11.85966,67.7872
