Frequency,Impedance,Phase Angle,Temperature (Dry Bath)
10.0,28574.96,-15.86167,71.3488
21.544346900318832,25027.1,-14.52421,71.3434
46.41588833612777,22261.66,-13.56191,71.3472
100.0,20392.07,-12.84254,71.3527
215.44346900318823,18361.34,-11.58024,71.3498
464.15888336127773,16976.9,-11.46244,71.3428
1000.0,15110.16,-11.79941,71.3362
2154.4346900318824,13973.47,-11.01396,71.3414
4641.588833612777,13195.69,-11.92911,71.3597
10000.0,11933.3,-14.47624,71.338
