Frequency,Impedance,Phase Angle,Temperature (Dry Bath)
10.0,12336.29,-4.257569,67.0564
21.5,12059.55,-3.691491,67.0579
46.4,11854.15,-3.42673,67.0705
100.0,11643.71,-3.341141,67.0694
215.4,11508.4,-3.511867,67.0561
464.2,11292.57,-3.369247,67.0666
1000.0,11035.11,-3.555042,67.0534
2154.4,10796.13,-4.222661,67.068
4641.6,10571.6,-5.848654,67.0505
10000.0,10327.2,-9.451919,67.0674
