Frequency,Impedance,Phase Angle,Temperature (Dry Bath)
10.0,108786.6,-24.64892,68.2573
21.5,91260.25,-21.78181,68.2488
46.4,79280.27,-19.03517,68.2513
100.0,67626.7,-15.99861,68.2571
215.4,61934.94,-13.36968,68.2431
464.2,56709.09,-12.43241,68.2476
1000.0,53021.61,-13.68978,68.245
2154.4,48496.2,-16.50913,68.2311
4641.6,44991.81,-21.26635,68.2288
10000.0,40271.07,-33.26769,68.2336
