Frequency,Impedance,Phase Angle,Temperature (Dry Bath)
10.0,113197.2,-24.47849,67.4755
21.5,94585.44,-21.24314,67.4914
46.4,81922.69,-18.3628,67.485
100.0,73222.48,-15.35884,67.475
215.4,60770.52,-26.54661,67.4754
464.2,58101.01,-12.79872,67.4889
1000.0,53879.77,-13.591,67.4793
2154.4,49809.73,-16.20288,67.4751
4641.6,44290.01,-21.68846,67.4831
10000.0,37399.08,-33.78738,67.4748
