Frequency,Impedance,Phase Angle,Temperature (Dry Bath)
10.0,28982980.0,-27.786,67.9776
21.5,18247450.0,-38.92104,67.9628
46.4,23882790.0,-49.37825,67.9756
100.0,8809886.0,-44.0435,67.9538
215.4,3654536.0,-61.33313,67.9866
464.2,1954944.0,-73.60856,67.9773
1000.0,1031938.0,-82.48837,67.9692
2154.4,475333.4,-82.50916,67.9736
4641.6,254590.3,-86.48121,67.9831
10000.0,110113.2,-95.40929,67.9752
