Frequency,Impedance,Phase Angle,Temperature (Dry Bath)
10.0,36196970.0,-39.27979,67.1633
21.5,23184590.0,-40.31926,67.1966
46.4,12982530.0,-57.37746,67.1786
100.0,3367811.0,-44.54714,67.1826
215.4,283996.4,-138.0226,67.1721
464.2,1787840.0,-79.95791,67.1768
1000.0,913871.7,-74.96199,67.1902
2154.4,439099.2,-79.77147,67.1684
4641.6,212734.5,-81.28353,67.1805
10000.0,107660.7,-83.71477,67.1663
