Frequency,Impedance,Phase Angle,Temperature (Dry Bath)
10.0,17457660.0,-13.75063,68.0147
21.5,30525220.0,-17.47954,68.0147
46.4,32551800.0,-45.46933,68.0147
100.0,4091141.0,-30.3828,68.0147
215.4,4534673.0,-72.74724,68.0147
464.2,2768791.0,-62.8593,68.0147
1000.0,1595485.0,-90.35252,68.0147
2154.4,665459.0,-88.37304,68.0147
4641.6,317205.0,-90.90941,68.0147
10000.0,157439.9,-95.36282,68.0147
