Frequency,Impedance,Phase Angle,Temperature (Dry Bath)
10.0,5951468.0,-9.124859,71.3039
21.544346900318832,5138070.0,-22.82858,71.2896
46.41588833612777,4325553.0,-27.16174,71.2949
100.0,717602.4,-45.32908,71.2952
215.44346900318823,654049.2,16.45742,71.2998
464.15888336127773,653945.7,179.8072,71.3008
1000.0,311501.6,-142.3693,71.2976
2154.4346900318824,270393.6,-100.1461,71.3038
4641.588833612777,121857.6,-75.29351,71.3009
10000.0,56363.49,-87.61384,71.3051
