Frequency,Impedance,Phase Angle,Temperature (Dry Bath)
10.0,12271.17,-4.55522,67.0012
21.5,11962.69,-3.707987,66.9847
46.4,11656.39,-3.143799,66.9875
100.0,11548.66,-3.300943,66.9833
215.4,11499.53,-2.72669,66.9868
464.2,11201.1,-3.377644,66.9988
1000.0,10936.14,-3.568923,66.9894
2154.4,10729.02,-4.403293,66.986
4641.6,10503.67,-5.995169,66.9923
10000.0,10213.46,-9.653979,66.9811
