Frequency,Impedance,Phase Angle,Temperature (Dry Bath)
10.0,369514.5,-23.76152,65.662
21.544346900318832,310605.2,-24.38879,65.6486
46.41588833612777,256286.9,-21.44901,65.663
100.0,166220.7,-34.59209,65.6575
215.44346900318823,9901.595,43.88082,65.6493
464.15888336127773,156153.2,-13.61758,65.65
1000.0,141130.5,-20.96173,65.6501
2154.4346900318824,127258.4,-31.78576,65.6534
4641.588833612777,81398.53,-44.4678,65.6439
10000.0,48187.3,-56.66523,65.6493
