Frequency,Impedance,Phase Angle,Temperature (Dry Bath)
10.0,1910447.0,-28.09131,65.6517
21.544346900318832,1569959.0,-11.19288,65.6812
46.41588833612777,1316881.0,-20.05713,65.6768
100.0,464986.4,107.1893,65.679
215.44346900318823,5399.166,82.41512,65.6746
464.15888336127773,509885.6,-11.91722,65.6665
1000.0,2127979.0,54.24743,65.6734
2154.4346900318824,564913.0,-97.31134,65.6731
4641.588833612777,121473.0,-79.523,65.6576
10000.0,69976.18,-87.37576,65.6546
