Frequency,Impedance,Phase Angle,Temperature (Dry Bath)
10.0,96550.08,-25.27471,71.4012
21.544346900318832,77506.54,-25.15403,71.3975
46.41588833612777,62304.18,-26.79705,71.4047
100.0,54217.83,-32.71342,71.4037
215.44346900318823,39118.07,-33.38948,71.4011
464.15888336127773,30556.35,-32.8002,71.3982
1000.0,24066.68,-30.06957,71.4244
2154.4346900318824,17222.42,-30.52719,71.4221
4641.588833612777,13522.96,-24.92498,71.4223
10000.0,11121.89,-24.2858,71.4223
