Frequency,Impedance,Phase Angle,Temperature (Dry Bath)
10.0,207324.2,-10.16286,68.0275
21.5,202087.6,-8.299912,68.0333
46.4,182066.6,-8.905237,68.0277
100.0,170124.6,-7.993474,68.0278
215.4,159980.7,-10.39682,68.0246
464.2,155724.9,-14.18331,68.0201
1000.0,143957.8,-18.37763,68.0265
2154.4,124766.8,-27.50192,68.0246
4641.6,103041.1,-35.31447,68.0233
10000.0,78601.81,-51.7432,68.0172
