Frequency,Impedance,Phase Angle,Temperature (Dry Bath)
10.0,36973140.0,-14.85688,68.1476
21.5,13182200.0,-44.58983,68.1511
46.4,12657640.0,-51.49906,68.1346
100.0,3435562.0,-49.74609,68.1525
215.4,3381775.0,-54.39476,68.1537
464.2,1942898.0,-84.7156,68.1423
1000.0,1033994.0,-81.60101,68.1331
2154.4,513931.8,-86.03921,68.1477
4641.6,239863.7,-86.31243,68.1617
10000.0,115008.2,-94.5121,68.1354
