Frequency,Impedance,Phase Angle,Temperature (Dry Bath)
10.0,147664.1,-11.70707,71.1469
21.544346900318832,134534.0,-11.11475,71.1283
46.41588833612777,125575.1,-10.66838,71.1395
100.0,81842.5,-29.69807,71.1384
215.44346900318823,104520.3,-1.589185,71.1207
464.15888336127773,107578.7,-10.67966,71.1332
1000.0,80974.79,-10.52124,71.1252
2154.4346900318824,79033.71,-27.51458,71.1316
4641.588833612777,59216.89,-38.48396,71.1419
10000.0,40244.31,-57.80411,71.1432
