Frequency,Impedance,Phase Angle,Temperature (Dry Bath)
10.0,4478397.0,-0.9698252,70.6187
21.544346900318832,4541373.0,-43.33702,70.5967
46.41588833612777,4997764.0,-37.19511,70.5973
100.0,424532.5,-67.49566,70.6016
215.44346900318823,720339.2,-78.14261,70.6077
464.15888336127773,2144385.0,-35.04973,70.6016
1000.0,294608.8,67.0157,70.5955
2154.4346900318824,180780.3,-75.97756,70.6017
4641.588833612777,127962.3,-83.2353,70.6229
10000.0,53063.17,-84.73689,70.5891
