Frequency,Impedance,Phase Angle,Temperature (Dry Bath)
10.0,19499.56,-19.20776,68.3385
21.5,16853.05,-15.88365,68.3279
46.4,15026.95,-12.62167,68.343
100.0,13542.42,-9.360767,68.3397
215.4,12990.7,-8.19245,68.3333
464.2,12222.08,-5.927478,68.347
1000.0,11711.4,-5.684593,68.3492
2154.4,11303.5,-5.514964,68.3489
4641.6,11267.74,-7.55072,68.3446
10000.0,10652.52,-11.38862,68.3334
