Frequency,Impedance,Phase Angle,Temperature (Dry Bath)
10.0,12591.55,-26.33411,71.3053
21.544346900318832,10188.18,-23.74074,71.2886
46.41588833612777,8436.947,-21.1091,71.2973
100.0,7271.178,-18.36107,71.2954
215.44346900318823,6166.292,-15.88118,71.2842
464.15888336127773,5521.781,-14.29208,71.2975
1000.0,4911.049,-13.00232,71.2875
2154.4346900318824,4471.073,-11.2716,71.2936
4641.588833612777,4141.91,-11.34749,71.2921
10000.0,3809.657,-12.19255,71.2764
