Frequency,Impedance,Phase Angle,Temperature (Dry Bath)
10.0,31027540.0,-12.97871,67.2002
21.5,18114380.0,-33.46162,67.2097
46.4,14171980.0,-64.59611,67.2064
100.0,4178259.0,-68.78668,67.207
215.4,249955.7,-33.04277,67.2037
464.2,1389804.0,-90.61475,67.205
1000.0,729617.0,-74.28669,67.1918
2154.4,419293.6,-73.40883,67.2156
4641.6,233337.9,-76.02134,67.2108
10000.0,121557.6,-80.3675,67.2037
