Frequency,Impedance,Phase Angle,Temperature (Dry Bath)
10.0,5305597.0,5.77389,66.3397
21.544346900318832,4835019.0,-2.512238,66.3415
46.41588833612777,6892558.0,-28.1442,66.3316
100.0,881917.5,-116.7916,66.339
215.44346900318823,167072.6,-105.158,66.3355
464.15888336127773,1413452.0,-138.2915,66.3337
1000.0,551781.0,-87.87036,66.3362
2154.4346900318824,307706.9,-68.2255,66.3291
4641.588833612777,138743.5,-93.25866,66.321
10000.0,63207.51,-93.79024,66.3349
