Frequency,Impedance,Phase Angle,Temperature (Dry Bath)
10.0,27881680.0,-20.07532,67.3852
21.5,19770560.0,-36.05715,67.3847
46.4,15309650.0,-64.08945,67.3843
100.0,16764440.0,0.8122684,67.3829
215.4,7438440.0,-58.65413,67.3914
464.2,1786523.0,-83.26771,67.3871
1000.0,896391.2,-75.43039,67.3746
2154.4,457329.3,-85.87838,67.3899
4641.6,241507.3,-83.53357,67.3889
10000.0,115238.9,-83.44316,67.3873
