Frequency,Impedance,Phase Angle,Temperature (Dry Bath)
10.0,249292.3,-6.057847,67.0865
21.5,241240.7,-5.815412,67.0826
46.4,233128.4,-6.319138,67.0821
100.0,225650.2,-9.292696,67.0657
215.4,208113.7,-5.207085,67.0897
464.2,197051.4,-14.64165,67.0824
1000.0,178752.4,-24.44038,67.0724
2154.4,145922.8,-35.51667,67.0802
4641.6,99237.12,-48.43803,67.0849
10000.0,59493.14,-60.35957,67.0797
