Frequency,Impedance,Phase Angle,Temperature (Dry Bath)
10.0,17803810.0,-7.331947,68.0544
21.5,32210520.0,-37.3084,68.0596
46.4,21839390.0,-58.76675,68.057
100.0,5724554.0,-23.0877,68.0651
215.4,3924667.0,-64.05288,68.0577
464.2,1826539.0,-86.35933,68.0757
1000.0,981264.2,-82.37217,68.0607
2154.4,493732.8,-84.21404,68.0623
4641.6,251153.7,-87.64436,68.0625
10000.0,121232.0,-94.71579,68.0778
