Frequency,Impedance,Phase Angle,Temperature (Dry Bath)
10.0,540937.2,-10.41824,71.4076
21.544346900318832,531868.8,-9.177538,71.4291
46.41588833612777,460563.3,-11.70461,71.4316
100.0,271740.8,-57.2262,71.4135
215.44346900318823,284917.1,-22.94248,71.4205
464.15888336127773,244226.9,22.22977,71.4177
1000.0,386849.2,-35.13422,71.419
2154.4346900318824,197221.4,-42.98009,71.4191
4641.588833612777,107313.2,-72.11748,71.3994
10000.0,53035.3,-77.61322,71.3908
