Frequency,Impedance,Phase Angle,Temperature (Dry Bath)
10.0,29131.29,-22.9537,29.8002
21.544346900318832,24109.67,-22.63486,29.7983
46.41588833612777,20007.76,-22.33734,29.8819
100.0,16720.41,-21.90623,29.9037
215.44346900318823,14131.87,-22.15726,29.8127
464.15888336127773,11594.16,-22.11545,29.9069
1000.0,9484.303,-22.2735,29.7355
2154.4346900318824,7923.695,-22.48207,29.8686
4641.588833612777,6512.516,-21.68613,29.8266
10000.0,5427.574,-20.57789,29.9743
