Frequency,Impedance,Phase Angle,Temperature (Dry Bath)
10.0,12075.07,-25.4841,71.2376
21.544346900318832,9868.182,-22.71023,71.2461
46.41588833612777,8232.65,-20.14643,71.2457
100.0,7097.285,-17.20743,71.2361
215.44346900318823,6121.518,-15.49511,71.2513
464.15888336127773,5501.897,-13.48963,71.2389
1000.0,4937.773,-11.73693,71.2363
2154.4346900318824,4540.628,-10.15405,71.2385
4641.588833612777,4195.188,-9.841842,71.239
10000.0,4003.611,-10.69052,71.2434
