Frequency,Impedance,Phase Angle,Temperature (Dry Bath)
10.0,22730970.0,-23.06561,68.0326
21.5,32062240.0,-40.21238,68.0326
46.4,23706290.0,-52.07721,68.0326
100.0,7059156.0,-32.73426,68.0326
215.4,3947083.0,-84.73705,68.0326
464.2,1730093.0,-78.96563,68.0326
1000.0,1017403.0,-79.10448,68.0326
2154.4,519992.3,-78.14104,68.0326
4641.6,281142.1,-84.85129,68.0326
10000.0,142453.8,-87.64762,68.0326
