Frequency,Impedance,Phase Angle,Temperature (Dry Bath)
10.0,25793790.0,-21.21298,67.7455
21.5,21477310.0,-31.4054,67.7248
46.4,27815580.0,-43.89889,67.7415
100.0,9710079.0,11.04786,67.7273
215.4,4245847.0,-111.6042,67.7285
464.2,5628038.0,-54.61537,67.7469
1000.0,1330088.0,-82.30274,67.7637
2154.4,659054.0,-93.33466,67.7402
4641.6,340239.3,-89.91616,67.747
10000.0,155894.4,-99.96192,67.7452
