Frequency,Impedance,Phase Angle,Temperature (Dry Bath)
10.0,23695430.0,-11.96173,68.2033
21.5,29098410.0,-7.414082,68.1926
46.4,25809830.0,-45.15905,68.1913
100.0,6301049.0,-27.12426,68.1927
215.4,8156820.0,-61.84136,68.1797
464.2,2603375.0,-70.96329,68.1823
1000.0,1800304.0,-75.01453,68.1953
2154.4,770483.2,-87.50914,68.1687
4641.6,293270.1,-90.18906,68.1902
10000.0,150117.8,-103.2739,68.1783
