Frequency,Impedance,Phase Angle,Temperature (Dry Bath)
10.0,30564760.0,-11.75367,67.6323
21.5,59590680.0,-36.58654,67.6515
46.4,27279610.0,-59.16464,67.6643
100.0,4603429.0,-33.55942,67.6405
215.4,3475392.0,-66.89618,67.6636
464.2,2062729.0,-90.34719,67.6477
1000.0,982748.4,-80.76682,67.6421
2154.4,505153.4,-85.0267,67.6528
4641.6,255571.1,-86.38786,67.6397
10000.0,124481.8,-90.58961,67.6386
