Frequency,Impedance,Phase Angle,Temperature (Dry Bath)
10.0,49714070.0,-20.0364,67.9151
21.5,32221450.0,-38.76066,67.9144
46.4,18756490.0,-64.54405,67.918
100.0,5856309.0,-25.48907,67.9165
215.4,3346388.0,-66.51379,67.9329
464.2,2169981.0,-77.33649,67.9288
1000.0,1147917.0,-84.51738,67.912
2154.4,511558.2,-85.89846,67.9294
4641.6,235099.9,-91.44125,67.9137
10000.0,113271.5,-91.00098,67.9224
