Frequency,Impedance,Phase Angle,Temperature (Dry Bath)
10.0,14665.5,-19.5275,70.963
21.544346900318832,12626.99,-16.7775,70.9538
46.41588833612777,11126.42,-14.5546,70.9766
100.0,10071.89,-12.17434,70.9773
215.44346900318823,9165.149,-10.92924,70.9667
464.15888336127773,8359.385,-9.785407,70.9605
1000.0,7661.652,-9.600578,70.9849
2154.4346900318824,7255.935,-9.320019,70.9669
4641.588833612777,6825.865,-10.96472,70.9571
10000.0,6269.268,-12.70125,70.9416
