Frequency,Impedance,Phase Angle,Temperature (Dry Bath)
10.0,158236.2,-9.423752,71.2979
21.544346900318832,145628.4,-8.480139,71.3006
46.41588833612777,137769.9,-9.861943,71.2934
100.0,133756.4,-9.677739,71.301
215.44346900318823,14386.98,-21.99038,71.3011
464.15888336127773,110038.6,-12.15724,71.2947
1000.0,98729.16,-7.669401,71.2912
2154.4346900318824,84320.46,-33.05963,71.2918
4641.588833612777,76070.02,-49.42775,71.291
10000.0,44833.74,-57.84797,71.2944
