Frequency,Impedance,Phase Angle,Temperature (Dry Bath)
10.0,155640.9,-6.422715,68.0073
21.5,149612.9,-5.080163,68.0097
46.4,144715.9,-4.829052,68.0098
100.0,137925.6,-4.576258,68.0189
215.4,135397.5,-5.006609,68.0112
464.2,126651.2,-9.729068,68.0253
1000.0,123578.7,-12.48392,68.0255
2154.4,117871.7,-20.38291,68.0343
4641.6,100074.9,-33.40363,68.0267
10000.0,72787.78,-52.43459,68.0238
