Frequency,Impedance,Phase Angle,Temperature (Dry Bath)
10.0,3156146.0,-13.2503,70.7162
21.544346900318832,5278020.0,-3.037094,70.7213
46.41588833612777,4796948.0,-40.13858,70.7232
100.0,659205.4,-4.496486,70.7233
215.44346900318823,814582.8,-145.4697,70.7184
464.15888336127773,2350501.0,-150.036,70.7254
1000.0,172049.2,-114.7039,70.7192
2154.4346900318824,215078.3,-95.01649,70.7286
4641.588833612777,112879.4,-87.61052,70.7109
10000.0,56221.79,-82.36498,70.7112
