Frequency,Impedance,Phase Angle,Temperature (Dry Bath)
10.0,4064964.0,-13.96069,71.1219
21.544346900318832,8606995.0,-12.11499,71.1307
46.41588833612777,4283172.0,-36.31214,71.1095
100.0,1113358.0,-167.7226,71.1155
215.44346900318823,1557721.0,100.6296,71.1407
464.15888336127773,536833.9,-25.15835,71.1387
1000.0,356995.8,-116.7478,71.1457
2154.4346900318824,178722.5,-95.9255,71.127
4641.588833612777,141475.6,-78.91396,71.13
10000.0,54925.53,-89.88276,71.1427
