Frequency,Impedance,Phase Angle,Temperature (Dry Bath)
10.0,3231426.0,25.4896,71.3306
21.544346900318832,5508376.0,-0.1455428,71.3426
46.41588833612777,4856409.0,-20.63024,71.3323
100.0,2250845.0,-161.6544,71.3308
215.44346900318823,916013.2,-76.34844,71.3308
464.15888336127773,537457.1,17.13994,71.3326
1000.0,1155089.0,-19.64367,71.3169
2154.4346900318824,4860097.0,-43.30859,71.3219
4641.588833612777,355454.5,-99.7422,71.3326
10000.0,121299.0,-95.96584,71.315
