Frequency,Impedance,Phase Angle,Temperature (Dry Bath)
10.0,896078.0,-7.050357,66.5987
21.544346900318832,994929.6,-4.89316,66.6002
46.41588833612777,901557.8,-9.346187,66.6081
100.0,538122.2,-0.7536513,66.5903
215.44346900318823,730958.3,-18.77909,66.5892
464.15888336127773,443000.0,-4.0196,66.5915
1000.0,551097.0,-10.52792,66.5949
2154.4346900318824,373414.5,-22.18171,66.6116
4641.588833612777,415505.9,-46.84321,66.6147
10000.0,237168.7,-71.83555,66.5956
