Frequency,Impedance,Phase Angle,Temperature (Dry Bath)
10.0,8698.769,-28.291,70.6195
21.544346900318832,6845.578,-27.17922,70.6259
46.41588833612777,5440.285,-25.48796,70.6144
100.0,4414.143,-22.89643,70.6178
215.44346900318823,3655.281,-20.04658,70.6352
464.15888336127773,3129.182,-17.30141,70.609
1000.0,2734.764,-15.28749,70.6108
2154.4346900318824,2460.76,-12.91745,70.6263
4641.588833612777,2232.354,-11.72917,70.6312
10000.0,2051.255,-11.46991,70.6214
