Frequency,Impedance,Phase Angle,Temperature (Dry Bath)
10.0,3329899.0,8.887932,71.0825
21.544346900318832,4066527.0,0.7529322,71.0738
46.41588833612777,5907448.0,-23.47727,71.0689
100.0,523552.1,-78.01294,71.0875
215.44346900318823,1127529.0,44.71515,71.0605
464.15888336127773,615112.9,-26.88099,71.0799
1000.0,531404.1,-114.5604,71.0852
2154.4346900318824,212612.8,-63.19138,71.077
4641.588833612777,129433.3,-82.41089,71.0952
10000.0,62519.86,-89.6692,71.09
