Frequency,Impedance,Phase Angle,Temperature (Dry Bath)
10.0,7390701.0,-1.282846,65.7221
21.544346900318832,4774920.0,-49.59786,65.7183
46.41588833612777,5184788.0,15.46008,65.7224
100.0,795120.5,-82.75516,65.7307
215.44346900318823,395148.7,-22.10436,65.72
464.15888336127773,679578.5,-113.6194,65.7197
1000.0,357392.4,-82.09057,65.7307
2154.4346900318824,255556.3,-61.40605,65.7311
4641.588833612777,206114.8,-83.32656,65.7279
10000.0,70889.37,-85.5885,65.7223
