Frequency,Impedance,Phase Angle,Temperature (Dry Bath)
10.0,22466810.0,-3.989104,68.1629
21.5,24033740.0,-42.54626,68.1827
46.4,13941750.0,-55.3355,68.1717
100.0,4825823.0,-46.42354,68.1604
215.4,4238308.0,-77.28762,68.159
464.2,2683810.0,-69.01316,68.1583
1000.0,1084858.0,-87.58855,68.1646
2154.4,528450.7,-76.95887,68.1751
4641.6,286996.9,-76.10676,68.1627
10000.0,154293.2,-90.2067,68.1806
