Frequency,Impedance,Phase Angle,Temperature (Dry Bath)
10.0,41771020.0,-20.19278,67.1426
21.5,23615240.0,-34.77486,67.1423
46.4,16175490.0,-51.992,67.1587
100.0,832518.6,-13.26557,67.151
215.4,3656406.0,-61.56363,67.1597
464.2,2209904.0,-72.48194,67.1565
1000.0,822652.8,-74.01506,67.1598
2154.4,440367.7,-76.02049,67.1475
4641.6,230396.0,-80.56907,67.1608
10000.0,114790.1,-79.43089,67.1518
