Frequency,Impedance,Phase Angle,Temperature (Dry Bath)
10.0,133911.2,-19.78621,66.3648
21.544346900318832,113269.7,-18.43965,66.3837
46.41588833612777,98162.38,-16.85677,66.3624
100.0,92752.35,-9.796612,66.3641
215.44346900318823,72071.33,7.704124,66.3732
464.15888336127773,73366.41,-16.01915,66.3784
1000.0,57649.81,-11.42749,66.3794
2154.4346900318824,54449.24,-27.39652,66.3696
4641.588833612777,39536.19,-29.81454,66.3827
10000.0,30816.02,-40.2478,66.3881
