Frequency,Impedance,Phase Angle,Temperature (Dry Bath)
10.0,146556.3,-14.56902,71.2022
21.544346900318832,130484.4,-12.99946,71.2154
46.41588833612777,117509.7,-12.13708,71.2147
100.0,103141.5,-15.78207,71.2234
215.44346900318823,101814.9,-9.743428,71.222
464.15888336127773,96652.84,-7.602331,71.2193
1000.0,86895.69,-16.61749,71.2096
2154.4346900318824,77154.52,-10.68566,71.23
4641.588833612777,66256.82,-28.46712,71.2189
10000.0,57381.1,-33.96362,71.2251
