Frequency,Impedance,Phase Angle,Temperature (Dry Bath)
10.0,13211.06,-27.64221,71.0602
21.544346900318832,10566.38,-24.95781,71.0466
46.41588833612777,8649.055,-22.23581,71.0709
100.0,7211.154,-19.67469,71.0676
215.44346900318823,6256.446,-16.67786,71.0597
464.15888336127773,5499.338,-15.32195,71.0752
1000.0,4883.682,-13.52842,71.0662
2154.4346900318824,4426.525,-12.12269,71.0516
4641.588833612777,4025.98,-12.11021,71.0641
10000.0,3692.379,-12.69311,71.0656
