Frequency,Impedance,Phase Angle,Temperature (Dry Bath)
10.0,129795.5,-6.650354,67.5068
21.5,124152.1,-5.691779,67.5051
46.4,119966.0,-5.368891,67.5057
100.0,117966.5,-5.916554,67.5252
215.4,112211.9,-5.452875,67.5101
464.2,108291.7,-8.534491,67.5015
1000.0,102652.0,-12.42027,67.5094
2154.4,96554.29,-18.12231,67.5256
4641.6,84018.53,-29.75959,67.5149
10000.0,60495.19,-47.41316,67.5087
