Frequency,Impedance,Phase Angle,Temperature (Dry Bath)
10.0,29831520.0,-15.16336,67.2172
21.5,19870760.0,-34.46396,67.2139
46.4,18526280.0,-69.13009,67.23
100.0,5404794.0,-64.35594,67.2439
215.4,107301.2,-91.81886,67.2337
464.2,1833521.0,-85.16725,67.225
1000.0,942249.6,-81.05387,67.2341
2154.4,483402.2,-79.78425,67.2226
4641.6,229929.8,-80.86577,67.2344
10000.0,117785.3,-79.98075,67.2357
