Frequency,Impedance,Phase Angle,Temperature (Dry Bath)
10.0,728989.7,-10.96775,68.2526
21.5,694169.5,-10.10736,68.2532
46.4,658335.2,-11.26778,68.2597
100.0,562392.8,-15.89434,68.2661
215.4,547512.3,-17.78022,68.2542
464.2,456306.2,-25.50535,68.2638
1000.0,393650.6,-34.22053,68.2548
2154.4,273027.4,-42.31349,68.2621
4641.6,182642.3,-53.78626,68.2589
10000.0,123406.1,-66.68984,68.254
