Frequency,Impedance,Phase Angle,Temperature (Dry Bath)
10.0,257820.7,-16.68288,71.1691
21.544346900318832,226119.1,-15.13422,71.1747
46.41588833612777,200768.1,-15.83625,71.1757
100.0,218842.9,23.51121,71.1867
215.44346900318823,169189.9,-14.85626,71.1579
464.15888336127773,145097.3,-14.3665,71.1545
1000.0,106167.3,7.747089,71.1696
2154.4346900318824,81652.26,-24.46405,71.1615
4641.588833612777,111790.3,-19.80168,71.1813
10000.0,78902.19,-14.90072,71.1719
