Frequency,Impedance,Phase Angle,Temperature (Dry Bath)
10.0,114472.4,-24.52747,67.3979
21.5,95478.77,-21.35735,67.4002
46.4,81726.1,-18.38754,67.3955
100.0,71561.38,-16.09907,67.4088
215.4,65409.31,-13.3721,67.4157
464.2,59535.77,-13.22784,67.4025
1000.0,54510.23,-13.37294,67.4051
2154.4,50415.41,-15.97718,67.4243
4641.6,45413.28,-22.40465,67.4208
10000.0,38080.72,-34.25936,67.427
