Frequency,Impedance,Phase Angle,Temperature (Dry Bath)
10.0,98283.62,-23.15379,67.7784
21.5,83591.2,-20.83956,67.7751
46.4,73373.11,-18.56594,67.7725
100.0,64614.0,-15.44866,67.8018
215.4,59113.27,-14.28127,67.7719
464.2,54616.69,-12.42755,67.7696
1000.0,49817.33,-13.15331,67.765
2154.4,45831.09,-14.65313,67.7663
4641.6,41554.2,-20.65547,67.7678
10000.0,36610.7,-33.18127,67.7899
