Frequency,Impedance,Phase Angle,Temperature (Dry Bath)
10.0,3075565.0,-8.623504,71.8456
21.544346900318832,4542760.0,0.8755524,71.8516
46.41588833612777,4023232.0,-28.89175,71.8575
100.0,522230.5,-22.65733,71.8669
215.44346900318823,622343.6,43.60565,71.8548
464.15888336127773,824609.7,-118.0104,71.8532
1000.0,365035.4,-53.29017,71.8539
2154.4346900318824,886785.8,-39.85157,71.8534
4641.588833612777,281345.8,-68.1115,71.85
10000.0,105251.2,-91.80916,71.8632
