Frequency,Impedance,Phase Angle,Temperature (Dry Bath)
10.0,139948.3,-5.673841,67.2861
21.5,134953.1,-4.784325,67.2979
46.4,131251.2,-4.759396,67.2691
100.0,128172.4,-5.22702,67.2954
215.4,221765.0,11.35973,67.2701
464.2,119888.6,-8.724859,67.2911
1000.0,112912.4,-11.12424,67.2852
2154.4,106901.8,-19.53104,67.2729
4641.6,90959.47,-33.82734,67.2658
10000.0,63423.97,-51.68102,67.2719
