Frequency,Impedance,Phase Angle,Temperature (Dry Bath)
10.0,138371.9,-25.65278,67.0426
21.5,114202.6,-22.53843,67.034
46.4,96390.91,-19.50604,67.0476
100.0,83949.91,-15.92195,67.0472
215.4,75786.29,-15.08983,67.034
464.2,69206.23,-14.29267,67.0436
1000.0,62431.36,-15.602,67.0398
2154.4,56876.77,-18.8752,67.0397
4641.6,49500.9,-26.75449,67.0341
10000.0,39803.05,-38.46972,67.044
