Frequency,Impedance,Phase Angle,Temperature (Dry Bath)
10.0,25608730.0,-18.33453,67.1987
21.5,25963470.0,-42.20362,67.2011
46.4,9267748.0,-56.15122,67.1905
100.0,3705911.0,-77.68209,67.19
215.4,1579144.0,-160.9751,67.1986
464.2,1739493.0,-77.57707,67.1973
1000.0,822780.1,-80.95359,67.2039
2154.4,460324.8,-81.16655,67.2036
4641.6,226741.3,-80.92184,67.1937
10000.0,111850.6,-82.96984,67.1764
