Frequency,Impedance,Phase Angle,Temperature (Dry Bath)
10.0,24562660.0,-46.54227,67.9403
21.5,21685610.0,-43.1725,67.9145
46.4,25539450.0,-52.5987,67.9276
100.0,8027746.0,-48.24879,67.9363
215.4,4840214.0,-92.44809,67.9219
464.2,2433161.0,-94.88878,67.932
1000.0,1018205.0,-84.55908,67.9259
2154.4,525971.6,-80.45117,67.9306
4641.6,298237.8,-81.1265,67.9101
10000.0,151786.9,-87.41595,67.9311
