Frequency,Impedance,Phase Angle,Temperature (Dry Bath)
10.0,1141634.0,-5.859572,65.7175
21.544346900318832,1092841.0,-11.51274,65.702
46.41588833612777,1081558.0,-7.613294,65.7154
100.0,975140.1,-0.031868,65.7149
215.44346900318823,15090.58,72.12965,65.7025
464.15888336127773,670950.7,-35.40925,65.7214
1000.0,724362.7,-35.96029,65.7073
2154.4346900318824,284969.3,-69.91361,65.7102
4641.588833612777,103625.7,-82.94375,65.712
10000.0,65019.52,-91.84547,65.7102
