Frequency,Impedance,Phase Angle,Temperature (Dry Bath)
10.0,28729720.0,-15.74094,68.197
21.5,22269620.0,-35.97971,68.1881
46.4,27510090.0,-55.71741,68.1846
100.0,6092750.0,-36.38125,68.1905
215.4,4380291.0,-72.61773,68.1929
464.2,2368737.0,-76.0203,68.192
1000.0,1046287.0,-85.44403,68.2066
2154.4,516524.6,-78.24378,68.2069
4641.6,268483.1,-80.47886,68.1849
10000.0,141857.7,-88.37291,68.1844
