Frequency,Impedance,Phase Angle,Temperature (Dry Bath)
10.0,4745000.0,-22.13661,65.6551
21.544346900318832,3689143.0,-12.21502,65.6703
46.41588833612777,5044171.0,-27.68707,65.6645
100.0,1117775.0,2.368222,65.6617
215.44346900318823,70214.73,111.7922,65.665
464.15888336127773,684270.2,-153.0277,65.6671
1000.0,303250.8,-99.03034,65.6588
2154.4346900318824,325073.8,-79.29854,65.6552
4641.588833612777,219376.0,-100.3375,65.6651
10000.0,70890.83,-90.70961,65.6701
