Frequency,Impedance,Phase Angle,Temperature (Dry Bath)
10.0,22133970.0,-25.24845,68.0122
21.5,25265650.0,-45.4519,68.0259
46.4,26108930.0,-54.23772,68.011
100.0,4680362.0,-50.07351,68.0056
215.4,4617977.0,-106.4367,68.0146
464.2,2032421.0,-79.50137,68.0067
1000.0,1095441.0,-78.60271,68.0139
2154.4,549363.5,-80.77933,68.0066
4641.6,280767.6,-77.62161,68.0228
10000.0,142318.3,-90.13447,68.0125
