Frequency,Impedance,Phase Angle,Temperature (Dry Bath)
10.0,7498934.0,-22.55022,71.3952
21.544346900318832,3994472.0,-4.270725,71.3897
46.41588833612777,4703889.0,-6.139922,71.3951
100.0,494206.3,33.3182,71.3702
215.44346900318823,1280171.0,-174.6711,71.3864
464.15888336127773,894668.3,-72.57863,71.4029
1000.0,727922.7,-127.3466,71.3895
2154.4346900318824,287348.8,-62.68,71.3828
4641.588833612777,203388.3,-81.236,71.3914
10000.0,96339.69,-94.49894,71.395
