Frequency,Impedance,Phase Angle,Temperature (Dry Bath)
10.0,165866.1,-6.256179,68.2395
21.5,158124.9,-5.184079,68.2347
46.4,153371.8,-4.84452,68.2432
100.0,142643.1,-6.540368,68.2303
215.4,142419.4,-5.417268,68.2523
464.2,145403.8,-7.493093,68.2504
1000.0,130029.8,-13.59581,68.2414
2154.4,123147.0,-21.21162,68.2503
4641.6,101868.2,-36.89451,68.2499
10000.0,81248.07,-57.271,68.2245
