Frequency,Impedance,Phase Angle,Temperature (Dry Bath)
10.0,109343.6,-24.62491,67.6855
21.5,91705.86,-21.82186,67.6968
46.4,79711.81,-19.05939,67.6975
100.0,69307.14,-16.29244,67.6828
215.4,62345.92,-15.37233,67.6985
464.2,57002.01,-12.88192,67.7096
1000.0,53049.74,-12.97945,67.6759
2154.4,49648.14,-15.78785,67.7025
4641.6,44964.71,-22.05961,67.6989
10000.0,39448.75,-31.88187,67.6986
