Frequency,Impedance,Phase Angle,Temperature (Dry Bath)
10.0,25711440.0,-21.46527,67.3508
21.5,22631710.0,-29.94833,67.3953
46.4,14342090.0,-95.08021,67.3821
100.0,4540521.0,-34.77161,67.3912
215.4,249435.9,174.0976,67.4166
464.2,1388689.0,-86.03558,67.4071
1000.0,1035454.0,-80.44346,67.4179
2154.4,484260.1,-84.08284,67.3931
4641.6,258814.4,-80.68955,67.385
10000.0,137510.8,-79.46094,67.3735
