Frequency,Impedance,Phase Angle,Temperature (Dry Bath)
10.0,33132810.0,-13.50119,67.3705
21.5,26422600.0,-48.13463,67.3528
46.4,15766280.0,-59.03109,67.3596
100.0,4473972.0,-40.76062,67.3507
215.4,2582213.0,168.5169,67.3591
464.2,1876631.0,-84.14459,67.368
1000.0,854519.2,-80.39462,67.3693
2154.4,477921.2,-86.25698,67.3559
4641.6,217885.5,-83.04495,67.3693
10000.0,108403.4,-83.09081,67.3512
