Frequency,Impedance,Phase Angle,Temperature (Dry Bath)
10.0,4337405.0,-3.1309,70.725
21.544346900318832,3336911.0,-9.077567,70.7316
46.41588833612777,6666214.0,-46.78415,70.7405
100.0,449430.8,-76.71036,70.7296
215.44346900318823,1392596.0,-68.6474,70.7383
464.15888336127773,1126928.0,-80.20514,70.7293
1000.0,385808.7,-111.0722,70.7227
2154.4346900318824,439176.3,-78.892,70.7243
4641.588833612777,133975.7,-88.86718,70.7282
10000.0,63730.03,-91.75632,70.7307
