Frequency,Impedance,Phase Angle,Temperature (Dry Bath)
10.0,37619720.0,-18.47732,67.0476
21.5,22243700.0,-30.28945,67.0652
46.4,15319220.0,-57.97632,67.0609
100.0,6635151.0,-155.9598,67.0553
215.4,2029455.0,-59.25882,67.072
464.2,1891960.0,-90.97,67.058
1000.0,1026508.0,-76.87217,67.0715
2154.4,465364.6,-81.02439,67.0629
4641.6,224076.7,-79.78811,67.056
10000.0,118524.4,-79.35944,67.0761
