Frequency,Impedance,Phase Angle,Temperature (Dry Bath)
10.0,35271140.0,-24.98442,67.1363
21.5,37281370.0,-24.90134,67.1448
46.4,17797690.0,-58.25226,67.1269
100.0,10727630.0,-28.40929,67.1457
215.4,8298067.0,-76.37801,67.149
464.2,2420867.0,-85.73607,67.1568
1000.0,1077838.0,-91.11229,67.1402
2154.4,490905.0,-84.38383,67.1426
4641.6,242563.4,-80.42011,67.1573
10000.0,116883.2,-78.09357,67.1522
