Frequency,Impedance,Phase Angle,Temperature (Dry Bath)
10.0,12334.54,-4.408888,67.3012
21.5,11920.71,-3.28319,67.2682
46.4,11760.04,-3.260024,67.294
100.0,11539.35,-3.078635,67.2816
215.4,11259.03,-4.09591,67.2982
464.2,11218.91,-3.078077,67.3035
1000.0,10946.03,-3.488334,67.3087
2154.4,10771.18,-4.146788,67.3091
4641.6,10552.23,-5.779143,67.3009
10000.0,10277.53,-9.489076,67.2982
