Frequency,Impedance,Phase Angle,Temperature (Dry Bath)
10.0,196694.0,-17.92037,65.7149
21.544346900318832,163915.0,-18.06958,65.7246
46.41588833612777,148072.9,-15.9915,65.7361
100.0,52909.14,5.957832,65.7081
215.44346900318823,66927.6,-11.4695,65.7345
464.15888336127773,99263.38,-16.19977,65.7387
1000.0,87982.79,-27.28542,65.7547
2154.4346900318824,74246.63,-18.1393,65.7368
4641.588833612777,59045.14,-44.77161,65.7383
10000.0,40171.22,-53.14754,65.7243
