Frequency,Impedance,Phase Angle,Temperature (Dry Bath)
10.0,130618.7,-6.581449,67.3474
21.5,125086.5,-5.624692,67.3352
46.4,120558.5,-5.173652,67.3496
100.0,117968.1,-4.183795,67.3421
215.4,110689.5,-7.545854,67.324
464.2,112408.3,-7.626779,67.3244
1000.0,104738.3,-11.8444,67.3345
2154.4,97446.71,-18.55677,67.3222
4641.6,84852.86,-31.72772,67.3388
10000.0,60282.65,-47.21717,67.341
