Frequency,Impedance,Phase Angle,Temperature (Dry Bath)
10.0,6472307.0,-12.50322,71.0689
21.544346900318832,4043435.0,-4.276982,71.0631
46.41588833612777,5473494.0,-35.59749,71.0748
100.0,2294616.0,21.63575,71.0729
215.44346900318823,835739.9,-111.1853,71.0818
464.15888336127773,595626.3,-81.23884,71.0713
1000.0,552313.4,-90.77673,71.0744
2154.4346900318824,218830.9,-71.53958,71.0704
4641.588833612777,134280.3,-78.3447,71.0612
10000.0,58601.15,-86.82186,71.0693
