Frequency,Impedance,Phase Angle,Temperature (Dry Bath)
10.0,2164596.0,-10.35925,67.2651
21.5,2079923.0,-11.38084,67.2518
46.4,1962139.0,-10.71664,67.2676
100.0,1527800.0,-20.87258,67.2589
215.4,864206.1,-68.92945,67.2738
464.2,1015090.0,-61.35516,67.2591
1000.0,651291.4,-54.01876,67.2651
2154.4,366221.1,-67.28698,67.2577
4641.6,191792.0,-69.0452,67.2531
10000.0,108066.9,-72.63513,67.2645
