Frequency,Impedance,Phase Angle,Temperature (Dry Bath)
10.0,8551042.0,-9.955082,67.9342
21.5,6572500.0,-16.38431,67.925
46.4,5522921.0,-24.29147,67.9256
100.0,2963819.0,-28.33104,67.9418
215.4,2489138.0,-53.26256,67.9387
464.2,1523638.0,-64.12601,67.9201
1000.0,778364.2,-72.17038,67.941
2154.4,432779.6,-75.7571,67.9318
4641.6,244768.8,-80.02994,67.9243
10000.0,107832.0,-88.84635,67.9194
