Frequency,Impedance,Phase Angle,Temperature (Dry Bath)
10.0,123230.7,-23.42411,67.2264
21.5,104368.9,-21.16624,67.2281
46.4,91607.32,-19.32228,67.2253
100.0,80523.74,-17.46686,67.2552
215.4,74032.32,-15.80805,67.2425
464.2,65942.15,-15.36032,67.2312
1000.0,57954.88,-15.99673,67.2463
2154.4,52884.85,-18.5719,67.2485
4641.6,46618.26,-24.28992,67.2582
10000.0,38889.77,-33.97355,67.2634
