Frequency,Impedance,Phase Angle,Temperature (Dry Bath)
10.0,22376230.0,5.945953,68.0177
21.5,24249360.0,-35.97633,68.0136
46.4,21745440.0,-47.65273,68.0167
100.0,8109902.0,-108.5643,68.011
215.4,3403429.0,-96.1588,68.0374
464.2,1676346.0,-73.67199,68.0241
1000.0,922751.1,-78.16112,68.0169
2154.4,525259.5,-75.24785,68.0152
4641.6,278178.3,-84.57251,68.0054
10000.0,130493.2,-92.3578,68.012
