Frequency,Impedance,Phase Angle,Temperature (Dry Bath)
10.0,24038860.0,-23.90756,67.5143
21.5,28066220.0,-38.02194,67.5266
46.4,16884240.0,-60.46934,67.5276
100.0,7662802.0,-25.55076,67.5245
215.4,247694.2,171.1372,67.5151
464.2,2393508.0,-64.41757,67.5201
1000.0,997185.5,-80.4269,67.5255
2154.4,470705.0,-83.81293,67.5001
4641.6,249730.5,-77.77917,67.5254
10000.0,131124.8,-79.8193,67.5185
