Frequency,Impedance,Phase Angle,Temperature (Dry Bath)
10.0,23370380.0,-6.317263,68.2544
21.5,22568230.0,-16.34088,68.2819
46.4,19032870.0,-60.41535,68.2581
100.0,4407689.0,-38.23447,68.2565
215.4,3612122.0,-92.22773,68.2635
464.2,1920995.0,-88.70396,68.2647
1000.0,980953.4,-78.59855,68.2557
2154.4,496736.2,-81.87585,68.2695
4641.6,252721.2,-82.16345,68.269
10000.0,135171.1,-89.01728,68.2681
