Frequency,Impedance,Phase Angle,Temperature (Dry Bath)
10.0,115908.9,-24.37889,67.2156
21.5,96800.08,-21.17807,67.2058
46.4,84103.19,-17.94353,67.203
100.0,73348.86,-15.26139,67.1945
215.4,68622.94,8.255635,67.2042
464.2,60663.45,-12.66027,67.2022
1000.0,55760.15,-13.17511,67.1937
2154.4,51258.8,-16.04561,67.1991
4641.6,46203.3,-22.38266,67.1941
10000.0,38731.93,-34.97606,67.1908
