Frequency,Impedance,Phase Angle,Temperature (Dry Bath)
10.0,26407090.0,-15.46225,67.1428
21.5,29088170.0,-28.13391,67.1531
46.4,21831580.0,-58.69821,67.1435
100.0,4999684.0,17.69042,67.1358
215.4,17760810.0,42.27285,67.1327
464.2,2476766.0,-90.66382,67.1317
1000.0,1189258.0,-83.0624,67.1436
2154.4,590715.0,-88.47007,67.1433
4641.6,267583.6,-90.05437,67.1596
10000.0,131644.7,-87.34901,67.1414
