Frequency,Impedance,Phase Angle,Temperature (Dry Bath)
10.0,4866238.0,-28.11941,71.2658
21.544346900318832,7209642.0,31.3508,71.2613
46.41588833612777,3563548.0,-7.65763,71.2643
100.0,468420.3,4.418941,71.269
215.44346900318823,13275.57,-74.58553,71.2441
464.15888336127773,793896.1,-105.3353,71.25
1000.0,525344.4,-89.72063,71.268
2154.4346900318824,281867.7,-77.66161,71.2447
4641.588833612777,138308.0,-85.77086,71.2621
10000.0,66435.55,-92.35413,71.255
