Frequency,Impedance,Phase Angle,Temperature (Dry Bath)
10.0,139363.1,-5.860871,67.3034
21.5,134053.2,-4.80305,67.3039
46.4,130090.1,-4.487197,67.3057
100.0,125816.6,-4.371096,67.3084
215.4,122383.6,-4.325058,67.3045
464.2,119369.4,-6.250779,67.3088
1000.0,111293.5,-11.2449,67.3189
2154.4,105185.6,-18.79228,67.3076
4641.6,88079.94,-32.2915,67.2999
10000.0,64019.11,-50.77076,67.3005
