Frequency,Impedance,Phase Angle,Temperature (Dry Bath)
10.0,25936760.0,-2.366011,67.8188
21.5,38842040.0,-30.59809,67.8318
46.4,26057220.0,-57.61191,67.8255
100.0,6854468.0,-66.7454,67.8437
215.4,3029176.0,-96.06306,67.8258
464.2,2143728.0,-84.02173,67.8421
1000.0,1026392.0,-80.85396,67.8349
2154.4,562979.6,-76.71827,67.8348
4641.6,282941.7,-80.68884,67.8149
10000.0,150927.0,-91.4185,67.8418
