Frequency,Impedance,Phase Angle,Temperature (Dry Bath)
10.0,5144048.0,0.002965318,66.4081
21.544346900318832,8008985.0,-19.80505,66.4068
46.41588833612777,3705653.0,-18.87546,66.3968
100.0,809136.7,31.74031,66.3993
215.44346900318823,526575.5,-175.9418,66.3908
464.15888336127773,16001040.0,147.8502,66.4022
1000.0,676509.1,-86.35208,66.3955
2154.4346900318824,300309.1,-87.7194,66.4094
4641.588833612777,133953.8,-89.41636,66.3915
10000.0,58575.18,-89.25097,66.401
