Frequency,Impedance,Phase Angle,Temperature (Dry Bath)
10.0,139467.6,-5.889883,67.2103
21.5,134284.3,-4.842941,67.2254
46.4,129960.9,-4.63665,67.2223
100.0,124835.7,-4.214536,67.2157
215.4,85089.58,-55.96035,67.2192
464.2,118840.3,-8.260673,67.2415
1000.0,111952.7,-11.6689,67.2217
2154.4,105808.9,-20.93396,67.2244
4641.6,86118.82,-34.42288,67.2332
10000.0,61462.89,-51.59273,67.2369
