Frequency,Impedance,Phase Angle,Temperature (Dry Bath)
10.0,115196.2,-9.641429,67.3718
21.5,108068.0,-8.765871,67.366
46.4,103467.5,-9.058489,67.3816
100.0,97488.9,-7.957645,67.3853
215.4,92378.0,-10.39429,67.3771
464.2,86350.84,-12.73588,67.3774
1000.0,76855.07,-15.14974,67.3645
2154.4,66643.52,-21.59312,67.3797
4641.6,56191.66,-28.86367,67.371
10000.0,43674.68,-38.02486,67.3716
