Frequency,Impedance,Phase Angle,Temperature (Dry Bath)
10.0,1424591.0,-7.969676,67.3316
21.5,1345745.0,-9.271915,67.3256
46.4,1277960.0,-12.03574,67.3376
100.0,959008.0,-19.32413,67.324
215.4,889933.2,-31.46442,67.3577
464.2,871413.2,-29.96689,67.3379
1000.0,572504.4,-50.27196,67.3623
2154.4,357129.7,-62.22085,67.3542
4641.6,192643.8,-69.98335,67.3261
10000.0,103636.6,-73.91986,67.3272
