Frequency,Impedance,Phase Angle,Temperature (Dry Bath)
10.0,133506.4,-24.60995,67.3064
21.5,111197.2,-22.13653,67.2933
46.4,95912.43,-19.18323,67.303
100.0,82927.73,-16.85702,67.304
215.4,76082.99,-13.94878,67.3022
464.2,68649.56,-13.76828,67.3064
1000.0,62763.45,-15.52748,67.3013
2154.4,56356.71,-19.24141,67.3243
4641.6,49236.18,-25.60782,67.3146
10000.0,40181.24,-36.2398,67.3107
