Frequency,Impedance,Phase Angle,Temperature (Dry Bath)
10.0,24481.11,-19.9996,71.3132
21.544346900318832,20924.62,-17.66588,71.3307
46.41588833612777,18206.9,-15.70223,71.3247
100.0,16381.78,-12.3425,71.3283
215.44346900318823,14467.33,-12.55893,71.3155
464.15888336127773,13079.52,-11.2203,71.3166
1000.0,12221.23,-9.580569,71.3216
2154.4346900318824,11506.52,-10.21252,71.3153
4641.588833612777,10938.45,-11.23618,71.3285
10000.0,10245.59,-16.28072,71.327
