Frequency,Impedance,Phase Angle,Temperature (Dry Bath)
10.0,18973700.0,-20.13591,68.2357
21.5,20649230.0,-30.73938,68.2273
46.4,19246810.0,-48.88752,68.225
100.0,5249944.0,-22.25867,68.2299
215.4,2510111.0,-67.29913,68.2173
464.2,1913146.0,-71.26917,68.2311
1000.0,941613.5,-86.17986,68.2369
2154.4,489424.3,-82.03365,68.2329
4641.6,252082.2,-81.86823,68.2429
10000.0,115641.1,-92.79348,68.219
