Frequency,Impedance,Phase Angle,Temperature (Dry Bath)
10.0,794289.3,-9.822144,67.9804
21.5,750160.5,-10.80342,67.991
46.4,693471.8,-10.96663,67.9763
100.0,589606.1,-17.52428,67.9935
215.4,541790.3,-14.85228,67.9806
464.2,484312.6,-24.77981,67.9818
1000.0,370400.8,-34.79218,67.9896
2154.4,274282.4,-47.0263,67.9776
4641.6,185941.8,-56.28771,67.9896
10000.0,118269.9,-65.53265,67.9811
