Frequency,Impedance,Phase Angle,Temperature (Dry Bath)
10.0,4093980.0,-16.69955,72.2634
21.544346900318832,7879655.0,-64.77084,72.255
46.41588833612777,4458977.0,-19.74389,72.2653
100.0,519887.4,-22.05087,72.2453
215.44346900318823,563921.3,-77.31489,72.2777
464.15888336127773,728615.7,-57.28591,72.2538
1000.0,1834773.0,-45.17238,72.2566
2154.4346900318824,454171.4,-50.87804,72.2451
4641.588833612777,189913.0,-90.75072,72.2641
10000.0,143532.3,-78.69173,72.2583
