Frequency,Impedance,Phase Angle,Temperature (Dry Bath)
10.0,12320.89,-4.699611,67.0555
21.5,11999.94,-3.98935,67.0978
46.4,11684.63,-3.199818,67.0892
100.0,11602.56,-3.655649,67.0935
215.4,11402.25,-3.667976,67.089
464.2,11223.53,-3.858119,67.0766
1000.0,10970.9,-3.903601,67.0844
2154.4,10766.3,-4.528744,67.0964
4641.6,10510.61,-6.19931,67.072
10000.0,10200.27,-9.871493,67.0754
