Frequency,Impedance,Phase Angle,Temperature (Dry Bath)
10.0,13404.86,-28.30713,71.0692
21.544346900318832,10639.5,-25.68127,71.0763
46.41588833612777,8657.419,-22.92829,71.0673
100.0,7206.132,-19.94345,71.0613
215.44346900318823,6147.147,-17.31949,71.0721
464.15888336127773,5434.125,-15.80278,71.058
1000.0,4832.435,-13.88562,71.0719
2154.4346900318824,4381.696,-12.33865,71.0683
4641.588833612777,3985.65,-12.18055,71.0655
10000.0,3683.918,-12.55836,71.0701
