Frequency,Impedance,Phase Angle,Temperature (Dry Bath)
10.0,154731.9,-9.618372,71.4199
21.544346900318832,142775.5,-8.461033,71.434
46.41588833612777,135881.7,-7.78564,71.4237
100.0,199596.9,-0.556831,71.4161
215.44346900318823,10649.21,-0.8965174,71.4303
464.15888336127773,118120.1,-15.26744,71.429
1000.0,131231.6,-34.51745,71.4309
2154.4346900318824,97736.78,-34.53643,71.4233
4641.588833612777,76415.25,-43.76431,71.43
10000.0,43619.52,-69.54553,71.425
