Frequency,Impedance,Phase Angle,Temperature (Dry Bath)
10.0,133373.8,-6.552969,66.9725
21.5,127495.3,-5.613043,66.9745
46.4,122956.0,-5.294152,66.9587
100.0,121305.5,-7.222484,66.9839
215.4,117362.2,-7.419732,66.9808
464.2,111385.7,-8.332685,66.9674
1000.0,107142.7,-11.609,66.9693
2154.4,98908.22,-19.55271,66.9786
4641.6,82196.01,-32.94094,66.9892
10000.0,59059.32,-48.87971,66.9756
