Frequency,Impedance,Phase Angle,Temperature (Dry Bath)
10.0,6920.512,-25.53005,70.4749
21.544346900318832,5665.758,-22.37105,70.4606
46.41588833612777,4775.678,-19.55727,70.4725
100.0,4078.451,-16.64584,70.4813
215.44346900318823,3601.997,-14.51674,70.4953
464.15888336127773,3236.56,-12.85674,70.4886
1000.0,2981.409,-10.76086,70.4893
2154.4346900318824,2747.528,-9.515198,70.5069
4641.588833612777,2553.314,-8.623104,70.5098
10000.0,2400.3,-8.829864,70.5071
