Frequency,Impedance,Phase Angle,Temperature (Dry Bath)
10.0,19823790.0,-24.35433,68.1533
21.5,17443290.0,-30.45906,68.1452
46.4,17429060.0,-56.2608,68.146
100.0,6642062.0,-80.24379,68.1458
215.4,4080336.0,-93.47935,68.1564
464.2,2325976.0,-88.23669,68.1385
1000.0,1152694.0,-77.12884,68.1488
2154.4,533412.7,-80.75684,68.146
4641.6,268221.4,-78.68869,68.138
10000.0,142781.5,-87.5604,68.1506
