Frequency,Impedance,Phase Angle,Temperature (Dry Bath)
10.0,20970920.0,-21.89342,68.0964
21.5,27949650.0,-46.72999,68.1007
46.4,19591070.0,-53.64661,68.0954
100.0,10725740.0,-19.25618,68.1041
215.4,4792992.0,-74.6255,68.093
464.2,1910293.0,-77.51272,68.0827
1000.0,933285.8,-78.66347,68.0811
2154.4,502792.7,-76.17655,68.0942
4641.6,263930.2,-87.2331,68.0883
10000.0,135733.9,-92.69646,68.0845
