Frequency,Impedance,Phase Angle,Temperature (Dry Bath)
10.0,23820.42,-20.8693,71.3076
21.544346900318832,20164.21,-18.20962,71.2958
46.41588833612777,17475.42,-15.605,71.3085
100.0,15845.0,-11.49074,71.2921
215.44346900318823,13917.77,-10.72797,71.3033
464.15888336127773,13198.34,-10.21822,71.2997
1000.0,12205.81,-8.941824,71.3089
2154.4346900318824,11777.06,-9.827499,71.3014
4641.588833612777,11001.46,-11.65188,71.2986
10000.0,10270.05,-15.83046,71.3023
