Frequency,Impedance,Phase Angle,Temperature (Dry Bath)
10.0,8411498.0,-1.533743,71.5716
21.544346900318832,5837975.0,-2.20009,71.5755
46.41588833612777,5369264.0,-27.10168,71.5808
100.0,585677.3,-5.832854,71.5849
215.44346900318823,1230176.0,35.50511,71.5844
464.15888336127773,891975.6,-41.36941,71.5819
1000.0,1003041.0,-65.057,71.602
2154.4346900318824,490292.0,-95.96878,71.5791
4641.588833612777,268740.9,-83.52162,71.5897
10000.0,106867.9,-81.54783,71.5954
