Frequency,Impedance,Phase Angle,Temperature (Dry Bath)
10.0,37266890.0,-36.11253,67.3962
21.5,24764380.0,-43.03321,67.3893
46.4,12931910.0,-54.33646,67.383
100.0,11650990.0,-17.76721,67.3974
215.4,229444.5,-79.0528,67.3947
464.2,2665332.0,-73.75845,67.4026
1000.0,935883.5,-79.94886,67.4071
2154.4,523517.8,-76.69965,67.3845
4641.6,266766.9,-76.14069,67.402
10000.0,139554.1,-78.55769,67.4121
