Frequency,Impedance,Phase Angle,Temperature (Dry Bath)
10.0,12330.39,-4.346859,67.2188
21.5,12027.55,-3.575638,67.2252
46.4,11740.67,-3.051874,67.2359
100.0,11596.0,-3.154508,67.2159
215.4,11430.86,-3.345791,67.2324
464.2,11258.39,-3.271454,67.2319
1000.0,10976.77,-3.420451,67.2499
2154.4,10782.11,-4.127298,67.2677
4641.6,10548.72,-5.923077,67.2704
10000.0,10283.07,-9.512232,67.2834
