Frequency,Impedance,Phase Angle,Temperature (Dry Bath)
10.0,1857627.0,-8.764853,67.1168
21.5,1735071.0,-11.4542,67.1232
46.4,1601002.0,-15.84277,67.1229
100.0,1387192.0,-22.8077,67.1254
215.4,330965.7,179.6246,67.1414
464.2,993204.9,-38.9231,67.1182
1000.0,617103.9,-53.90501,67.1224
2154.4,355660.1,-63.45704,67.1242
4641.6,181851.1,-71.12788,67.1287
10000.0,100610.1,-74.58016,67.127
