Frequency,Impedance,Phase Angle,Temperature (Dry Bath)
10.0,3685951.0,-26.32119,66.3076
21.544346900318832,4649795.0,-21.27456,66.2929
46.41588833612777,6343068.0,-19.94024,66.2958
100.0,708023.6,-56.92407,66.3005
215.44346900318823,643495.8,-5.382005,66.2885
464.15888336127773,795674.7,-57.97048,66.2905
1000.0,545185.8,-89.06994,66.2832
2154.4346900318824,304718.4,-68.02723,66.2818
4641.588833612777,113943.7,-80.6536,66.2974
10000.0,57732.77,-83.65311,66.2902
