Frequency,Impedance,Phase Angle,Temperature (Dry Bath)
10.0,512256.8,-9.173163,67.8133
21.5,476031.8,-9.36237,67.8247
46.4,451241.2,-9.759138,67.8092
100.0,432985.8,-10.30572,67.8358
215.4,391146.9,-15.9303,67.8375
464.2,348206.1,-17.98526,67.8324
1000.0,308045.0,-30.25106,67.8257
2154.4,234628.7,-43.71643,67.8328
4641.6,153233.0,-53.07521,67.8413
10000.0,99288.95,-70.49156,67.8399
