Frequency,Impedance,Phase Angle,Temperature (Dry Bath)
10.0,2563488.0,-20.93652,67.1
21.544346900318832,2487745.0,-1.498119,67.1
46.41588833612777,2257403.0,6.548599,67.1
100.0,434983.7,55.91734,67.1
215.44346900318823,1492431.0,54.02617,67.1
464.15888336127773,983449.8,42.79617,67.1
1000.0,1141560.0,-176.59,67.1
2154.4346900318824,1224092.0,27.40833,67.1
4641.588833612777,2080264.0,-167.0221,67.1
10000.0,2119371.0,-84.75875,67.1
