Frequency,Impedance,Phase Angle,Temperature (Dry Bath)
10.0,22436130.0,-18.9005,68.0387
21.5,17715210.0,-35.73838,68.0328
46.4,16947410.0,-54.17918,68.0219
100.0,5390333.0,-36.65947,68.0576
215.4,3319123.0,-81.71062,68.0225
464.2,1892706.0,-73.72254,68.0524
1000.0,1021959.0,-79.81188,68.0427
2154.4,516484.2,-81.19097,68.0436
4641.6,262754.0,-81.36936,68.0447
10000.0,126778.9,-90.39425,68.0381
