Frequency,Impedance,Phase Angle,Temperature (Dry Bath)
10.0,32476800.0,-24.39826,67.3411
21.5,45554810.0,-8.232784,67.331
46.4,21168160.0,-52.54183,67.324
100.0,4194120.0,-5.634969,67.3317
215.4,11227960.0,-11.24705,67.3306
464.2,2764233.0,-99.63842,67.3344
1000.0,1110368.0,-85.96926,67.3287
2154.4,539240.9,-83.05142,67.3306
4641.6,277892.6,-84.4827,67.3196
10000.0,126998.7,-86.57142,67.3164
