Frequency,Impedance,Phase Angle,Temperature (Dry Bath)
10.0,28904.03,-20.57196,71.6384
21.544346900318832,24333.42,-21.88107,71.6453
46.41588833612777,20186.63,-23.38378,71.6285
100.0,17418.65,-25.51519,71.6355
215.44346900318823,13391.4,-27.70276,71.6476
464.15888336127773,10350.12,-27.86691,71.6287
1000.0,7851.649,-28.34007,71.6236
2154.4346900318824,6286.388,-25.31121,71.6523
4641.588833612777,5044.495,-23.9964,71.6353
10000.0,4184.515,-21.28009,71.6386
