Frequency,Impedance,Phase Angle,Temperature (Dry Bath)
10.0,187522.2,-26.37241,65.6385
21.544346900318832,153049.2,-25.2597,65.6294
46.41588833612777,123712.2,-22.29122,65.6397
100.0,89775.72,-33.34973,65.6257
215.44346900318823,11204.57,-74.49776,65.6456
464.15888336127773,87872.67,-14.83013,65.6499
1000.0,64731.91,-13.60532,65.6492
2154.4346900318824,62655.79,-21.26488,65.6546
4641.588833612777,55179.78,-33.08292,65.6286
10000.0,35758.18,-51.52683,65.6616
