Frequency,Impedance,Phase Angle,Temperature (Dry Bath)
10.0,124783.3,-24.87826,67.167
21.5,103357.3,-21.63789,67.1791
46.4,88487.35,-18.49857,67.179
100.0,78945.88,-15.47992,67.1704
215.4,81278.53,9.596553,67.1782
464.2,64586.16,-13.36082,67.1777
1000.0,59328.61,-13.63169,67.1819
2154.4,54321.87,-17.27279,67.1651
4641.6,48505.42,-23.61617,67.1918
10000.0,39872.64,-35.95738,67.1869
