Frequency,Impedance,Phase Angle,Temperature (Dry Bath)
10.0,4107361.0,-12.52916,68.0025
21.5,4593045.0,-14.41237,68.0106
46.4,5083648.0,-22.4625,67.9968
100.0,2897206.0,-9.81133,68.0131
215.4,1823566.0,-25.89091,67.999
464.2,1512565.0,-67.70869,68.0092
1000.0,858285.8,-69.81174,68.0071
2154.4,443855.1,-75.99329,68.0146
4641.6,222484.2,-79.57168,67.9992
10000.0,115139.8,-85.65218,68.0179
