Frequency,Impedance,Phase Angle,Temperature (Dry Bath)
10.0,1234108.0,-9.243494,68.2499
21.5,1127628.0,-8.993862,68.2499
46.4,1012222.0,-10.15992,68.2499
100.0,872795.7,-13.19161,68.2499
215.4,878326.3,-14.71993,68.2499
464.2,752626.6,-18.82094,68.2499
1000.0,641635.1,-30.0616,68.2499
2154.4,515398.6,-44.40971,68.2499
4641.6,357428.4,-58.77767,68.2499
10000.0,183800.5,-81.60197,68.2499
