Frequency,Impedance,Phase Angle,Temperature (Dry Bath)
10.0,29943590.0,-28.69909,67.4947
21.5,24335160.0,-40.02834,67.4864
46.4,11947430.0,-62.14442,67.48
100.0,3923714.0,-23.6911,67.4737
215.4,229233.1,39.83667,67.4694
464.2,1573950.0,-78.31227,67.4734
1000.0,795455.7,-80.43331,67.4639
2154.4,440750.7,-81.52403,67.4842
4641.6,224154.1,-83.57795,67.4827
10000.0,111123.4,-84.41057,67.4884
