Frequency,Impedance,Phase Angle,Temperature (Dry Bath)
10.0,28535720.0,-28.78582,67.3257
21.5,22348670.0,-33.05561,67.3146
46.4,14361660.0,-59.0283,67.3154
100.0,4669915.0,-64.13966,67.3292
215.4,5422119.0,-103.5512,67.3304
464.2,1827552.0,-92.87032,67.3189
1000.0,872780.1,-81.71922,67.332
2154.4,470632.4,-85.01914,67.3346
4641.6,219708.7,-81.7676,67.3065
10000.0,111343.5,-83.01734,67.3203
