Frequency,Impedance,Phase Angle,Temperature (Dry Bath)
10.0,22399540.0,-34.21824,67.3741
21.5,17490590.0,-38.61179,67.3729
46.4,12162490.0,-62.43015,67.3784
100.0,5437651.0,-33.0497,67.3623
215.4,1739865.0,-117.5696,67.3808
464.2,1619208.0,-70.25241,67.3689
1000.0,836782.5,-71.36929,67.3782
2154.4,406388.9,-76.29539,67.3693
4641.6,223628.8,-77.53209,67.3748
10000.0,116138.4,-81.39577,67.37
