Frequency,Impedance,Phase Angle,Temperature (Dry Bath)
10.0,115992.2,-24.68741,67.4467
21.5,97463.82,-21.40882,67.4449
46.4,83786.17,-17.99722,67.4461
100.0,74561.83,-15.45753,67.4574
215.4,72822.7,-34.45973,67.4587
464.2,61968.13,-13.17475,67.4405
1000.0,55449.17,-13.64271,67.4261
2154.4,51692.09,-16.06344,67.4502
4641.6,46498.94,-22.88033,67.4401
10000.0,38373.51,-34.50738,67.445
