Frequency,Impedance,Phase Angle,Temperature (Dry Bath)
10.0,124305.1,-14.82125,65.8522
21.544346900318832,111943.6,-12.62994,65.853
46.41588833612777,101708.2,-12.0252,65.8391
100.0,74409.99,-9.09635,65.8451
215.44346900318823,85502.09,-3.178348,65.8436
464.15888336127773,83114.53,-14.89513,65.8503
1000.0,71962.77,-12.37732,65.8497
2154.4346900318824,60827.23,-20.23506,65.8369
4641.588833612777,48422.99,-33.04492,65.8348
10000.0,35328.67,-42.83318,65.8378
