Frequency,Impedance,Phase Angle,Temperature (Dry Bath)
10.0,26486100.0,-16.62229,66.6431
21.5,21683720.0,-39.93198,66.6526
46.4,13978770.0,-56.78335,66.6455
100.0,3867390.0,-61.79294,66.6475
215.4,102919.9,-157.4529,66.6519
464.2,1805561.0,-83.42595,66.6474
1000.0,845398.5,-75.67203,66.6442
2154.4,433579.2,-79.80987,66.6534
4641.6,227156.3,-83.21182,66.6609
10000.0,108721.0,-83.96213,66.6664
