Frequency,Impedance,Phase Angle,Temperature (Dry Bath)
10.0,155094.2,-10.71481,71.2549
21.544346900318832,145357.9,-8.648876,71.2471
46.41588833612777,138693.0,-8.005269,71.256
100.0,116811.1,7.073902,71.2631
215.44346900318823,201161.8,15.39155,71.2587
464.15888336127773,114646.6,-18.6015,71.2607
1000.0,94070.5,-20.96779,71.2501
2154.4346900318824,99954.85,-28.06715,71.2633
4641.588833612777,68481.85,-40.1635,71.2657
10000.0,43884.85,-64.88869,71.2643
