Frequency,Impedance,Phase Angle,Temperature (Dry Bath)
10.0,22425900.0,-20.52201,67.0575
21.5,23475190.0,-37.81655,67.069
46.4,14543920.0,-60.7887,67.065
100.0,11795170.0,-27.28618,67.0703
215.4,2038388.0,-94.46823,67.0598
464.2,1543099.0,-65.66629,67.0713
1000.0,928505.0,-79.76414,67.0505
2154.4,458113.4,-80.02431,67.0461
4641.6,223292.4,-82.0449,67.0547
10000.0,107369.4,-83.09317,67.0552
