Frequency,Impedance,Phase Angle,Temperature (Dry Bath)
10.0,50553960.0,-11.56328,67.5012
21.5,22304830.0,-40.62747,67.49
46.4,15949090.0,-60.42846,67.4978
100.0,2850328.0,-13.33313,67.5101
215.4,372109.8,30.70899,67.5045
464.2,1924111.0,-78.67471,67.4892
1000.0,891574.4,-75.56263,67.4914
2154.4,477394.3,-84.14345,67.4953
4641.6,222392.8,-82.39687,67.5028
10000.0,115065.2,-85.2274,67.4921
