Frequency,Impedance,Phase Angle,Temperature (Dry Bath)
10.0,137266.9,-25.51613,66.9834
21.5,112952.6,-22.5869,66.9822
46.4,96435.8,-19.41302,66.988
100.0,84791.82,-16.33116,66.9751
215.4,74987.86,-14.3546,66.9785
464.2,69066.9,-14.04552,66.9806
1000.0,61987.69,-15.15231,66.9825
2154.4,56458.33,-18.86141,66.9895
4641.6,49128.49,-26.35318,66.9821
10000.0,39490.91,-38.48336,66.9852
