Frequency,Impedance,Phase Angle,Temperature (Dry Bath)
10.0,37221660.0,-20.72073,68.0842
21.5,49523610.0,-40.0738,68.105
46.4,27107570.0,-47.29342,68.1066
100.0,2903040.0,-46.68941,68.1106
215.4,3526242.0,-83.29492,68.0832
464.2,2132390.0,-85.90131,68.0969
1000.0,1027518.0,-78.86841,68.0941
2154.4,481875.7,-85.99982,68.0977
4641.6,241108.4,-89.72961,68.1105
10000.0,116090.2,-96.86898,68.1113
