Frequency,Impedance,Phase Angle,Temperature (Dry Bath)
10.0,5248399.0,2.332755,70.9272
21.544346900318832,5797930.0,-4.736169,70.9414
46.41588833612777,4663977.0,-19.04199,70.9318
100.0,18834690.0,-31.98373,70.9428
215.44346900318823,665580.7,174.2125,70.9393
464.15888336127773,549013.0,-68.7732,70.9394
1000.0,248971.1,-64.62749,70.9442
2154.4346900318824,275839.2,-84.67968,70.9245
4641.588833612777,110688.7,-93.25878,70.9307
10000.0,55159.57,-94.34867,70.9275
