Frequency,Impedance,Phase Angle,Temperature (Dry Bath)
10.0,156135.8,-6.079425,68.053
21.5,149965.5,-5.248068,68.0677
46.4,144997.7,-4.682071,68.0506
100.0,137909.0,-5.089068,68.0488
215.4,133715.5,-5.436382,68.0681
464.2,127338.7,-6.933123,68.0426
1000.0,124810.8,-11.9652,68.0575
2154.4,110570.3,-20.02467,68.0596
4641.6,101620.4,-34.85836,68.0651
10000.0,72508.87,-56.02644,68.0625
