Frequency,Impedance,Phase Angle,Temperature (Dry Bath)
10.0,158824.7,-8.676776,65.6948
21.544346900318832,149466.3,-8.315985,65.7116
46.41588833612777,141760.2,-7.78025,65.7103
100.0,118626.5,-7.6569,65.7028
215.44346900318823,10754.21,96.0406,65.6979
464.15888336127773,119221.3,-14.49586,65.7023
1000.0,122442.0,-27.47762,65.6945
2154.4346900318824,89035.32,-17.27703,65.7156
4641.588833612777,83401.21,-41.80328,65.7011
10000.0,45549.92,-61.05395,65.6952
