Frequency,Impedance,Phase Angle,Temperature (Dry Bath)
10.0,137828.9,-6.368935,67.2705
21.5,131810.7,-5.382892,67.2912
46.4,127170.6,-5.104427,67.2737
100.0,123628.9,-4.26993,67.2881
215.4,121137.6,-5.55155,67.2828
464.2,115793.6,-9.293576,67.2767
1000.0,107162.8,-12.63603,67.2926
2154.4,101665.2,-19.42955,67.2931
4641.6,85478.64,-32.92963,67.2932
10000.0,61453.47,-49.89892,67.2788
