Frequency,Impedance,Phase Angle,Temperature (Dry Bath)
10.0,162953.6,-8.485864,65.7826
21.544346900318832,151192.0,-6.939487,65.7846
46.41588833612777,143625.3,-7.338521,65.7914
100.0,121506.7,-9.329929,65.7741
215.44346900318823,10618.92,164.453,65.7759
464.15888336127773,131398.1,-16.69854,65.8007
1000.0,131053.0,-14.28295,65.7916
2154.4346900318824,103003.2,-30.05728,65.7875
4641.588833612777,79172.16,-44.7615,65.795
10000.0,48420.8,-60.0884,65.7816
