Frequency,Impedance,Phase Angle,Temperature (Dry Bath)
10.0,1484717.0,-8.10513,67.4158
21.5,1395604.0,-9.724077,67.4293
46.4,1303026.0,-12.71606,67.4099
100.0,1164594.0,-12.61143,67.4007
215.4,1247366.0,-21.84209,67.4121
464.2,951758.9,-36.1997,67.3913
1000.0,569198.3,-49.82283,67.4114
2154.4,360673.2,-59.30256,67.3743
4641.6,194040.5,-70.58303,67.4072
10000.0,102386.0,-75.02669,67.3875
