Frequency,Impedance,Phase Angle,Temperature (Dry Bath)
10.0,578727.8,-11.5402,68.1471
21.5,535843.8,-10.69905,68.1434
46.4,495651.5,-11.54118,68.1244
100.0,422259.4,-14.13827,68.133
215.4,402539.2,-16.66302,68.1392
464.2,352298.3,-23.90268,68.1323
1000.0,292938.8,-26.99334,68.1534
2154.4,229604.0,-37.23589,68.1526
4641.6,163706.9,-46.20059,68.1274
10000.0,107365.4,-60.00697,68.1342
