Frequency,Impedance,Phase Angle,Temperature (Dry Bath)
10.0,33661920.0,-35.76834,67.2345
21.5,20218990.0,-25.95662,67.2304
46.4,16858420.0,-71.94983,67.2299
100.0,5248754.0,-24.83932,67.2334
215.4,417765.7,-178.7584,67.255
464.2,1760273.0,-65.55528,67.2347
1000.0,912873.1,-84.59102,67.2451
2154.4,418576.1,-79.52166,67.2385
4641.6,223479.7,-84.33021,67.2324
10000.0,107789.8,-83.24323,67.2362
