Frequency,Impedance,Phase Angle,Temperature (Dry Bath)
10.0,262031.2,-5.400575,67.129
21.5,253544.2,-5.51482,67.127
46.4,245036.0,-5.946368,67.1139
100.0,216931.1,-8.566488,67.1125
215.4,232346.5,-9.341656,67.1139
464.2,211038.9,-15.18822,67.1149
1000.0,192760.3,-26.25128,67.1075
2154.4,152472.5,-35.84143,67.1018
4641.6,103689.5,-51.58247,67.1132
10000.0,60556.45,-62.10698,67.1089
