Frequency,Impedance,Phase Angle,Temperature (Dry Bath)
10.0,7455849.0,8.175215,71.409
21.544346900318832,4380139.0,-8.271865,71.4012
46.41588833612777,5023616.0,-37.46059,71.405
100.0,259334.1,84.08456,71.4088
215.44346900318823,10587.98,28.34324,71.4148
464.15888336127773,1311935.0,-65.71403,71.4109
1000.0,248141.0,-73.01566,71.4115
2154.4346900318824,265760.5,-76.20989,71.4165
4641.588833612777,124357.9,-81.94896,71.4163
10000.0,55384.92,-85.2989,71.4113
