Frequency,Impedance,Phase Angle,Temperature (Dry Bath)
10.0,18421010.0,-14.14108,68.0521
21.5,19873550.0,-34.82438,68.0521
46.4,19588480.0,-53.20373,68.0521
100.0,4465508.0,-43.9544,68.0521
215.4,4060925.0,-77.03916,68.0521
464.2,1629437.0,-87.72056,68.0521
1000.0,908633.0,-79.14741,68.0521
2154.4,456690.1,-82.81104,68.0521
4641.6,233812.0,-82.68817,68.0521
10000.0,118159.4,-92.10259,68.0521
