Frequency,Impedance,Phase Angle,Temperature (Dry Bath)
10.0,131185.7,-25.26437,67.2269
21.5,108183.5,-22.0722,67.243
46.4,93176.92,-18.83742,67.226
100.0,82632.67,-16.21725,67.2244
215.4,101635.9,29.37175,67.2222
464.2,67596.08,-13.88718,67.2237
1000.0,61826.63,-14.20422,67.2132
2154.4,56441.31,-18.1964,67.2504
4641.6,49167.08,-24.79366,67.2241
10000.0,39620.46,-37.38618,67.2021
