Frequency,Impedance,Phase Angle,Temperature (Dry Bath)
10.0,23806590.0,-13.58491,68.104
21.5,20239210.0,-31.2443,68.1063
46.4,18941640.0,-47.89713,68.107
100.0,6110741.0,-45.27824,68.104
215.4,5825496.0,-97.09359,68.0921
464.2,2763916.0,-84.34561,68.1047
1000.0,1470864.0,-89.38779,68.1008
2154.4,703225.9,-85.92824,68.1122
4641.6,318054.5,-90.0089,68.0978
10000.0,147784.6,-93.93977,68.0976
