Frequency,Impedance,Phase Angle,Temperature (Dry Bath)
10.0,2077766.0,-10.02004,68.0809
21.5,1975870.0,-11.72715,68.0907
46.4,1849898.0,-15.46048,68.0759
100.0,1465235.0,-13.04331,68.089
215.4,1199401.0,-44.00306,68.0881
464.2,882173.4,-40.09004,68.0752
1000.0,633794.9,-53.38091,68.0789
2154.4,386422.7,-68.70614,68.1048
4641.6,210249.1,-75.0576,68.0732
10000.0,105354.3,-79.15939,68.0934
