Frequency,Impedance,Phase Angle,Temperature (Dry Bath)
10.0,24612.37,-20.96808,71.2768
21.544346900318832,20828.22,-18.19191,71.265
46.41588833612777,18078.61,-15.69018,71.2793
100.0,16232.53,-12.32325,71.2699
215.44346900318823,14118.28,-10.98036,71.2803
464.15888336127773,13486.71,-9.680833,71.2599
1000.0,12154.4,-8.607904,71.2602
2154.4346900318824,11624.01,-10.13001,71.2684
4641.588833612777,10957.82,-10.7733,71.2616
10000.0,10487.39,-14.78927,71.2673
