Frequency,Impedance,Phase Angle,Temperature (Dry Bath)
10.0,155415.0,-6.134133,68.091
21.5,149190.5,-5.082345,68.0918
46.4,144406.4,-4.667641,68.0989
100.0,138841.7,-5.330167,68.087
215.4,139600.7,-6.363281,68.0974
464.2,133507.6,-8.036121,68.0958
1000.0,124177.8,-11.91631,68.099
2154.4,114333.8,-20.3104,68.1034
4641.6,98726.85,-32.88247,68.0969
10000.0,72286.43,-49.08658,68.0918
