Frequency,Impedance,Phase Angle,Temperature (Dry Bath)
10.0,246074.0,-5.441136,67.0535
21.5,237818.1,-5.455015,67.0695
46.4,230543.8,-5.969543,67.0486
100.0,228701.3,-4.599861,67.0661
215.4,232548.1,-8.048301,67.0667
464.2,207053.4,-13.63376,67.0595
1000.0,177407.6,-23.59376,67.0712
2154.4,144724.7,-38.1486,67.0696
4641.6,98340.47,-49.97896,67.0752
10000.0,57090.95,-62.85301,67.0672
