Frequency,Impedance,Phase Angle,Temperature (Dry Bath)
10.0,161164.4,-9.646424,66.3857
21.544346900318832,150158.6,-8.673899,66.3811
46.41588833612777,141551.7,-8.252857,66.4014
100.0,117388.7,-28.01744,66.4069
215.44346900318823,121265.6,-3.620646,66.3983
464.15888336127773,117577.8,-1.793007,66.3995
1000.0,119410.1,-21.52031,66.4049
2154.4346900318824,101822.8,-21.16118,66.392
4641.588833612777,70263.48,-49.97013,66.4022
10000.0,44959.05,-64.46619,66.4211
