Frequency,Impedance,Phase Angle,Temperature (Dry Bath)
10.0,277772.9,-8.702782,66.6
21.544346900318832,296876.3,-9.603839,66.6
46.41588833612777,279165.5,-9.183947,66.6
100.0,314427.7,44.31066,66.6
215.44346900318823,267352.7,-17.83919,66.6
464.15888336127773,208237.5,-44.21815,66.6
1000.0,180622.5,26.05825,66.6
2154.4346900318824,216753.6,-28.36878,66.6
4641.588833612777,157487.5,-32.99177,66.6
10000.0,116251.0,-44.26916,66.6
