Frequency,Impedance,Phase Angle,Temperature (Dry Bath)
10.0,113361.8,-24.45635,67.3585
21.5,93895.97,-21.44752,67.3512
46.4,81303.06,-18.18071,67.3639
100.0,70785.06,-15.62175,67.3609
215.4,66440.94,-15.95576,67.3587
464.2,57816.8,-12.83205,67.3886
1000.0,53288.03,-13.49056,67.3662
2154.4,50039.49,-16.22274,67.373
4641.6,44897.22,-22.59461,67.379
10000.0,37744.78,-33.86886,67.3571
