Frequency,Impedance,Phase Angle,Temperature (Dry Bath)
10.0,4766813.0,1.016593,70.6191
21.544346900318832,4921115.0,-1.76753,70.6204
46.41588833612777,4409352.0,-18.35192,70.6086
100.0,355812.7,-0.8679753,70.6084
215.44346900318823,707297.9,77.78388,70.6148
464.15888336127773,905290.4,-44.43028,70.6218
1000.0,603187.1,125.7729,70.6073
2154.4346900318824,244063.8,-75.89085,70.6136
4641.588833612777,166845.6,-94.96898,70.6295
10000.0,64655.97,-87.08493,70.6231
