Frequency,Impedance,Phase Angle,Temperature (Dry Bath)
10.0,5719757.0,-37.07613,70.849
21.544346900318832,6179055.0,-9.176487,70.8686
46.41588833612777,4503988.0,-23.652,70.846
100.0,1067896.0,171.0527,70.8503
215.44346900318823,608259.5,-94.37067,70.8552
464.15888336127773,545424.8,-9.225223,70.8544
1000.0,360589.1,-84.75856,70.851
2154.4346900318824,235505.9,-92.21268,70.8615
4641.588833612777,111794.6,-79.85043,70.8544
10000.0,55865.49,-85.80719,70.8682
