Frequency,Impedance,Phase Angle,Temperature (Dry Bath)
10.0,23930440.0,-4.688575,67.9727
21.5,20865800.0,-30.52899,67.9549
46.4,15841910.0,-56.80425,67.9676
100.0,4728748.0,-49.78299,67.9779
215.4,3686846.0,-79.0679,67.9479
464.2,1765760.0,-78.35413,67.9614
1000.0,957841.3,-73.18206,67.9587
2154.4,529985.3,-75.37856,67.9637
4641.6,269740.2,-85.6641,67.9615
10000.0,141598.7,-88.00532,67.975
