Frequency,Impedance,Phase Angle,Temperature (Dry Bath)
10.0,127726.1,-24.92321,67.0982
21.5,105762.0,-21.78335,67.0992
46.4,91336.38,-18.451,67.1081
100.0,80522.72,-16.95122,67.1203
215.4,54901.79,-37.58023,67.1094
464.2,66791.3,-12.62917,67.1115
1000.0,60255.02,-14.26004,67.1264
2154.4,55807.74,-17.84634,67.1099
4641.6,48757.17,-24.6549,67.1205
10000.0,39721.79,-36.9775,67.1152
