Frequency,Impedance,Phase Angle,Temperature (Dry Bath)
10.0,1414534.0,-20.76154,65.7672
21.544346900318832,1247003.0,-8.154337,65.7471
46.41588833612777,1143121.0,-8.889153,65.7346
100.0,193116.9,-96.06211,65.7563
215.44346900318823,161794.5,-130.0625,65.7524
464.15888336127773,501400.6,-4.560043,65.7616
1000.0,425336.5,-103.5698,65.7375
2154.4346900318824,390967.6,-46.21886,65.7471
4641.588833612777,122207.3,-64.28397,65.7609
10000.0,69184.22,-75.45003,65.7658
