Frequency,Impedance,Phase Angle,Temperature (Dry Bath)
10.0,36717020.0,5.278406,67.2265
21.5,29077600.0,-32.08511,67.2142
46.4,20526730.0,-55.14972,67.2077
100.0,10714880.0,49.16201,67.2149
215.4,1040899.0,153.2565,67.2108
464.2,2555811.0,-64.87394,67.2243
1000.0,1023382.0,-75.80359,67.2054
2154.4,493705.2,-81.26968,67.2042
4641.6,259545.8,-76.60598,67.2136
10000.0,136023.9,-79.43823,67.1828
