Frequency,Impedance,Phase Angle,Temperature (Dry Bath)
10.0,147907.3,-6.511648,68.1367
21.5,142815.1,-5.135468,68.1367
46.4,137555.3,-4.887581,68.1367
100.0,128664.6,-7.563723,68.1367
215.4,128127.1,-7.117192,68.1367
464.2,123493.5,-7.633135,68.1367
1000.0,119076.8,-10.96891,68.1367
2154.4,109247.0,-19.07957,68.1367
4641.6,97108.26,-31.33553,68.1367
10000.0,73245.27,-51.74382,68.1367
