Frequency,Impedance,Phase Angle,Temperature (Dry Bath)
10.0,4478102.0,-11.41894,66.5907
21.544346900318832,4159862.0,-22.91262,66.5938
46.41588833612777,3570184.0,-10.41526,66.5924
100.0,1758483.0,37.6622,66.5902
215.44346900318823,1233519.0,-27.55527,66.5971
464.15888336127773,3949617.0,-35.82594,66.5957
1000.0,838547.5,-88.75366,66.58
2154.4346900318824,870248.0,-40.89712,66.5903
4641.588833612777,602521.7,-98.78901,66.5838
10000.0,260999.9,-83.84282,66.5764
