Frequency,Impedance,Phase Angle,Temperature (Dry Bath)
10.0,5808832.0,-2.029213,71.7574
21.544346900318832,6116891.0,-12.25996,71.7637
46.41588833612777,4100835.0,-13.07524,71.7601
100.0,829835.5,-92.14197,71.7617
215.44346900318823,325894.0,76.41007,71.7475
464.15888336127773,838905.8,46.78051,71.7524
1000.0,320953.1,-83.19476,71.7729
2154.4346900318824,2456478.0,147.6356,71.7567
4641.588833612777,267731.9,-29.06961,71.749
10000.0,158525.8,-100.3257,71.7557
