Frequency,Impedance,Phase Angle,Temperature (Dry Bath)
10.0,16839.65,-24.44402,71.5702
21.544346900318832,13559.97,-25.66134,71.5853
46.41588833612777,10776.43,-26.39813,71.5732
100.0,8611.862,-26.19732,71.5644
215.44346900318823,6829.425,-25.02687,71.5619
464.15888336127773,5495.73,-23.09646,71.5472
1000.0,4554.03,-20.97214,71.5708
2154.4346900318824,3837.767,-18.89719,71.5674
4641.588833612777,3332.21,-16.48092,71.5617
10000.0,2920.644,-15.43977,71.562
