Frequency,Impedance,Phase Angle,Temperature (Dry Bath)
10.0,16570180.0,-13.48324,68.0079
21.5,22530250.0,-36.35104,68.008
46.4,26971300.0,-50.93407,68.001
100.0,10039960.0,-8.24636,68.0148
215.4,7044684.0,-53.43381,68.0173
464.2,1768872.0,-83.12749,68.0298
1000.0,966618.4,-77.4889,68.0104
2154.4,530091.2,-84.34268,68.0117
4641.6,277378.4,-79.97675,68.0191
10000.0,142580.8,-89.56768,68.0072
