Frequency,Impedance,Phase Angle,Temperature (Dry Bath)
10.0,22545.32,-21.57142,65.8579
21.544346900318832,18990.83,-18.46425,65.87
46.41588833612777,16472.49,-15.26835,65.8488
100.0,14606.22,-12.38525,65.8554
215.44346900318823,5946.4,13.56744,65.8673
464.15888336127773,12292.02,-8.663347,65.8582
1000.0,11847.0,-8.139236,65.8536
2154.4346900318824,11431.05,-8.446263,65.8422
4641.588833612777,10737.06,-9.199373,65.8666
10000.0,10151.02,-14.50576,65.853
