Frequency,Impedance,Phase Angle,Temperature (Dry Bath)
10.0,28978970.0,-27.8037,67.4131
21.5,24165330.0,-38.54545,67.4144
46.4,14816200.0,-46.58749,67.4215
100.0,9496350.0,-91.37513,67.4228
215.4,209907.9,138.7472,67.4232
464.2,2244787.0,-80.69723,67.4074
1000.0,834937.5,-78.60886,67.4263
2154.4,443632.4,-80.7581,67.4335
4641.6,230648.4,-82.44873,67.4316
10000.0,110645.3,-83.97999,67.4208
