Frequency,Impedance,Phase Angle,Temperature (Dry Bath)
10.0,12336.23,-4.409874,67.1553
21.5,12037.65,-3.785009,67.177
46.4,11821.35,-3.549177,67.1596
100.0,11666.83,-3.539922,67.1733
215.4,11137.92,-5.834266,67.175
464.2,11254.43,-3.596827,67.1714
1000.0,10992.95,-3.752948,67.1445
2154.4,10760.65,-4.229127,67.1666
4641.6,10563.49,-6.014515,67.1558
10000.0,10254.87,-9.383718,67.1634
