Frequency,Impedance,Phase Angle,Temperature (Dry Bath)
10.0,34366850.0,-38.77568,67.9678
21.5,29993360.0,-50.3029,67.9792
46.4,16017990.0,-60.05606,67.9634
100.0,3358772.0,-14.64435,67.9599
215.4,3499007.0,-72.09085,67.9881
464.2,1499814.0,-73.44375,67.9527
1000.0,1030025.0,-75.92006,67.9675
2154.4,536293.8,-79.07654,67.9652
4641.6,279942.6,-84.77468,67.9667
10000.0,143450.7,-89.34151,67.9654
