Frequency,Impedance,Phase Angle,Temperature (Dry Bath)
10.0,18633910.0,-16.31824,68.0066
21.5,14957430.0,-32.64387,68.005
46.4,11792920.0,-63.06934,68.0068
100.0,3829956.0,-40.97927,68.01
215.4,4230181.0,-72.63524,68.0029
464.2,2077018.0,-75.30547,68.0081
1000.0,895515.9,-75.14624,68.001
2154.4,539236.9,-80.04235,67.9955
4641.6,272862.4,-81.93344,68.0037
10000.0,138255.4,-92.77089,68.0008
