Frequency,Impedance,Phase Angle,Temperature (Dry Bath)
10.0,5877405.0,-1.175899,65.8462
21.544346900318832,22943450.0,-13.01478,65.8463
46.41588833612777,4782660.0,-13.11272,65.8646
100.0,3431920.0,-166.5182,65.8625
215.44346900318823,209902.7,142.5505,65.8469
464.15888336127773,766215.6,-21.69957,65.8625
1000.0,532304.2,-68.74102,65.8504
2154.4346900318824,225333.2,-75.04921,65.8387
4641.588833612777,158149.9,-86.51757,65.8623
10000.0,69832.76,-88.03353,65.8521
