Frequency,Impedance,Phase Angle,Temperature (Dry Bath)
10.0,5254049.0,1.758791,71.8558
21.544346900318832,10424420.0,-22.71348,71.8515
46.41588833612777,4191356.0,-0.8230632,71.857
100.0,637450.5,29.88184,71.8486
215.44346900318823,930077.2,-29.29403,71.8521
464.15888336127773,338875.7,-87.99593,71.851
1000.0,481243.6,81.74029,71.8548
2154.4346900318824,676105.3,105.674,71.8382
4641.588833612777,220113.9,-70.73831,71.8484
10000.0,209460.6,-88.79226,71.8393
