Frequency,Impedance,Phase Angle,Temperature (Dry Bath)
10.0,51371630.0,-37.54396,67.737
21.5,44012870.0,-27.17697,67.731
46.4,15959520.0,-49.65588,67.7209
100.0,5160715.0,-33.53879,67.7259
215.4,8273864.0,-72.89136,67.7305
464.2,2221713.0,-94.22687,67.7191
1000.0,1475724.0,-83.62092,67.7285
2154.4,637972.7,-86.85009,67.7272
4641.6,321666.0,-89.96419,67.7243
10000.0,148012.3,-94.9993,67.7273
