Frequency,Impedance,Phase Angle,Temperature (Dry Bath)
10.0,20753290.0,-27.20946,68.1791
21.5,16470240.0,-36.98021,68.1727
46.4,15863390.0,-54.94542,68.173
100.0,3617069.0,-46.61057,68.1971
215.4,3109567.0,-79.60287,68.1567
464.2,1745211.0,-66.6847,68.1736
1000.0,1016187.0,-85.85309,68.1723
2154.4,479118.1,-84.54629,68.1803
4641.6,226389.4,-90.4721,68.1772
10000.0,109461.1,-95.46584,68.1735
