Frequency,Impedance,Phase Angle,Temperature (Dry Bath)
10.0,187095.6,-20.91235,65.7529
21.544346900318832,160569.4,-19.00053,65.7585
46.41588833612777,140116.4,-17.69388,65.756
100.0,127354.2,-16.60559,65.7778
215.44346900318823,9620.599,99.68151,65.7687
464.15888336127773,90175.58,-9.460716,65.7647
1000.0,82454.98,-21.05126,65.7627
2154.4346900318824,65326.42,-31.36671,65.7798
4641.588833612777,51933.28,-41.59423,65.7693
10000.0,41954.36,-48.07437,65.7555
