Frequency,Impedance,Phase Angle,Temperature (Dry Bath)
10.0,11222.85,-25.59899,71.4458
21.544346900318832,9166.067,-22.62933,71.4404
46.41588833612777,7657.721,-19.92494,71.4447
100.0,6610.894,-17.09517,71.4315
215.44346900318823,5730.358,-14.79939,71.4376
464.15888336127773,5123.317,-13.28652,71.4482
1000.0,4626.967,-10.17996,71.4541
2154.4346900318824,4243.185,-9.687781,71.4583
4641.588833612777,3980.265,-9.025899,71.4534
10000.0,3779.677,-10.77716,71.4425
