Frequency,Impedance,Phase Angle,Temperature (Dry Bath)
10.0,45084290.0,-34.61671,67.1123
21.5,26512680.0,-29.6225,67.1203
46.4,16595270.0,-55.15248,67.0812
100.0,10588970.0,-82.7184,67.091
215.4,2438221.0,-64.68948,67.1147
464.2,1866365.0,-77.38618,67.1082
1000.0,922463.5,-84.97587,67.1067
2154.4,452167.1,-83.61942,67.0824
4641.6,234738.2,-80.64574,67.0936
10000.0,115626.7,-79.84754,67.0909
