Frequency,Impedance,Phase Angle,Temperature (Dry Bath)
10.0,73165200.0,-10.71265,67.1089
21.5,33333170.0,-30.99345,67.1401
46.4,16651380.0,-48.3,67.1171
100.0,4891563.0,-61.70666,67.1251
215.4,5865896.0,-86.71544,67.1228
464.2,2347441.0,-94.61956,67.1283
1000.0,1182159.0,-84.68658,67.1101
2154.4,604208.1,-91.79955,67.1185
4641.6,266524.9,-88.19431,67.1091
10000.0,128645.1,-87.74965,67.1179
