Frequency,Impedance,Phase Angle,Temperature (Dry Bath)
10.0,23842910.0,-12.26328,67.77
21.5,26004290.0,-42.41596,67.7558
46.4,27372580.0,-56.16107,67.7737
100.0,5206738.0,-23.94303,67.7647
215.4,2550326.0,-78.92988,67.774
464.2,1999398.0,-80.91625,67.7692
1000.0,892098.8,-78.55888,67.7693
2154.4,514945.0,-82.26151,67.7763
4641.6,288711.4,-85.29159,67.7648
10000.0,133677.4,-90.68892,67.7764
