Frequency,Impedance,Phase Angle,Temperature (Dry Bath)
10.0,5674178.0,16.77962,70.6527
21.544346900318832,5213114.0,2.880566,70.6363
46.41588833612777,5082661.0,-22.62663,70.6498
100.0,252342.9,29.95002,70.6405
215.44346900318823,1069057.0,4.669448,70.6514
464.15888336127773,917544.7,-37.81022,70.6543
1000.0,456351.7,-51.40525,70.6547
2154.4346900318824,369334.6,-100.8856,70.6447
4641.588833612777,118722.6,-82.73271,70.6674
10000.0,74079.14,-97.68557,70.6511
