Frequency,Impedance,Phase Angle,Temperature (Dry Bath)
10.0,18456170.0,-2.978512,67.8907
21.5,23672700.0,-42.67003,67.8938
46.4,23529080.0,-61.88828,67.8794
100.0,6685517.0,-40.1867,67.8837
215.4,3876530.0,-79.00386,67.8803
464.2,1892197.0,-86.70981,67.8863
1000.0,969569.7,-78.831,67.8845
2154.4,528097.1,-77.4001,67.8834
4641.6,248188.8,-84.66944,67.9045
10000.0,121603.7,-94.66157,67.8923
