Frequency,Impedance,Phase Angle,Temperature (Dry Bath)
10.0,26838.67,-16.81936,71.4111
21.544346900318832,23340.76,-15.72728,71.4146
46.41588833612777,20535.55,-14.77337,71.4067
100.0,17754.49,-13.32786,71.4001
215.44346900318823,16829.58,-11.50575,71.3954
464.15888336127773,14974.29,-10.4042,71.4116
1000.0,13632.46,-11.11211,71.3869
2154.4346900318824,12796.03,-11.94072,71.4118
4641.588833612777,11418.37,-11.60909,71.3901
10000.0,10770.79,-14.21453,71.4219
