Frequency,Impedance,Phase Angle,Temperature (Dry Bath)
10.0,31131480.0,-12.05924,67.2266
21.5,27045970.0,-32.27806,67.2343
46.4,16594190.0,-50.55891,67.2192
100.0,5821251.0,-26.88286,67.2303
215.4,321405.8,96.67805,67.2099
464.2,1428202.0,-83.22554,67.2288
1000.0,868088.0,-74.9696,67.2222
2154.4,473547.2,-79.04571,67.2172
4641.6,226445.0,-83.93436,67.2299
10000.0,116661.8,-78.57704,67.2324
