Frequency,Impedance,Phase Angle,Temperature (Dry Bath)
10.0,158952.9,-8.548893,65.7708
21.544346900318832,151182.8,-8.153084,65.7688
46.41588833612777,144953.9,-6.733306,65.7514
100.0,111590.2,-4.952365,65.7567
215.44346900318823,10773.85,71.51528,65.7583
464.15888336127773,116304.0,-12.06553,65.7565
1000.0,96241.86,-17.53774,65.7442
2154.4346900318824,135431.4,-23.54055,65.7274
4641.588833612777,80277.79,-43.35457,65.7381
10000.0,45198.92,-61.1257,65.7308
