Frequency,Impedance,Phase Angle,Temperature (Dry Bath)
10.0,23682200.0,-20.41123,67.7582
21.5,20893990.0,-44.31061,67.7552
46.4,19331440.0,-58.26544,67.7658
100.0,5748444.0,-97.34232,67.7829
215.4,3758906.0,-77.00858,67.777
464.2,1583127.0,-82.86191,67.79
1000.0,897438.6,-73.86873,67.7882
2154.4,486308.9,-71.97337,67.7675
4641.6,250320.7,-82.95664,67.7813
10000.0,136525.4,-84.70322,67.7999
