Frequency,Impedance,Phase Angle,Temperature (Dry Bath)
10.0,14866.03,-26.46616,71.5779
21.544346900318832,11792.29,-27.03784,71.5529
46.41588833612777,9282.955,-26.98898,71.5517
100.0,7255.013,-25.19232,71.56
215.44346900318823,5925.125,-23.68405,71.5718
464.15888336127773,4874.794,-21.34861,71.5593
1000.0,4079.252,-18.86511,71.5548
2154.4346900318824,3552.134,-16.46069,71.561
4641.588833612777,3125.31,-14.37817,71.5637
10000.0,2822.373,-13.56858,71.5725
