Frequency,Impedance,Phase Angle,Temperature (Dry Bath)
10.0,593870.1,-9.326372,67.8571
21.5,560802.2,-9.606848,67.8333
46.4,519740.0,-10.00126,67.8377
100.0,477662.3,-12.08814,67.8389
215.4,423446.9,-15.17718,67.829
464.2,381295.8,-19.8226,67.8337
1000.0,334774.5,-32.12106,67.8384
2154.4,251446.4,-45.49523,67.8379
4641.6,157888.5,-57.56599,67.8325
10000.0,98420.25,-69.93902,67.8291
