Frequency,Impedance,Phase Angle,Temperature (Dry Bath)
10.0,148747.6,-6.437378,68.0326
21.5,143199.9,-5.230949,68.0326
46.4,137599.9,-4.880309,68.0326
100.0,130743.2,-5.578239,68.0326
215.4,126866.6,-6.735553,68.0326
464.2,123336.8,-10.26316,68.0326
1000.0,120677.1,-9.8582,68.0326
2154.4,107504.9,-18.17529,68.0326
4641.6,96164.39,-32.78775,68.0326
10000.0,71822.28,-52.62118,68.0326
