Frequency,Impedance,Phase Angle,Temperature (Dry Bath)
10.0,9578.168,-27.28538,70.591
21.544346900318832,7601.446,-26.46078,70.5947
46.41588833612777,6063.995,-25.06785,70.6033
100.0,4896.822,-23.15866,70.592
215.44346900318823,4079.578,-20.07127,70.6055
464.15888336127773,3460.131,-18.13662,70.5892
1000.0,3053.073,-14.59399,70.6011
2154.4346900318824,2712.607,-13.03972,70.6018
4641.588833612777,2471.414,-12.13554,70.6049
10000.0,2266.728,-11.97134,70.5997
