Frequency,Impedance,Phase Angle,Temperature (Dry Bath)
10.0,61449650.0,-22.86109,67.9217
21.5,34919060.0,-37.65181,67.9248
46.4,16345800.0,-52.81884,67.9119
100.0,3709741.0,-36.59855,67.9194
215.4,3055813.0,-57.72545,67.8886
464.2,2231440.0,-70.30181,67.9124
1000.0,992514.5,-74.47509,67.8933
2154.4,503256.5,-80.41975,67.8978
4641.6,249490.2,-85.72131,67.9079
10000.0,129879.0,-88.36552,67.9062
