Frequency,Impedance,Phase Angle,Temperature (Dry Bath)
10.0,19074110.0,-5.694552,68.2607
21.5,27868090.0,-46.72475,68.2599
46.4,24819480.0,-60.90674,68.2599
100.0,5462503.0,-28.12646,68.2643
215.4,4498396.0,-63.69957,68.2683
464.2,2650262.0,-68.09183,68.2587
1000.0,1064763.0,-86.08387,68.2616
2154.4,498445.0,-82.44108,68.2545
4641.6,267496.8,-81.57647,68.2623
10000.0,143585.5,-90.18668,68.2691
