Frequency,Impedance,Phase Angle,Temperature (Dry Bath)
10.0,113994.0,-24.87834,67.7113
21.5,95416.02,-22.0627,67.7423
46.4,82281.6,-19.03748,67.7151
100.0,71071.11,-15.06203,67.72
215.4,64770.45,-13.88191,67.7251
464.2,59562.67,-11.25232,67.7232
1000.0,54529.0,-13.62354,67.7156
2154.4,51023.97,-15.49774,67.7175
4641.6,45405.32,-20.82299,67.7185
10000.0,39052.68,-33.41201,67.7221
