Frequency,Impedance,Phase Angle,Temperature (Dry Bath)
10.0,6608482.0,11.74011,65.8749
21.544346900318832,4349826.0,4.118773,65.8768
46.41588833612777,3952293.0,-22.1292,65.871
100.0,1140090.0,-56.86713,65.8653
215.44346900318823,428912.3,-133.6833,65.861
464.15888336127773,1273189.0,-51.54727,65.8522
1000.0,213477.0,-90.58226,65.8678
2154.4346900318824,378914.5,-83.56004,65.8634
4641.588833612777,142638.0,-78.33982,65.8653
10000.0,71893.54,-79.54173,65.8642
