Frequency,Impedance,Phase Angle,Temperature (Dry Bath)
10.0,158368.0,-8.510859,65.7731
21.544346900318832,145335.0,-7.852283,65.7617
46.41588833612777,138030.0,-7.635825,65.7712
100.0,132427.2,5.946163,65.7525
215.44346900318823,138192.1,-6.349021,65.7672
464.15888336127773,109939.6,-6.661132,65.752
1000.0,99164.61,-16.36096,65.7633
2154.4346900318824,103474.7,-24.84484,65.7493
4641.588833612777,69126.46,-44.37749,65.7427
10000.0,45316.8,-60.92775,65.7588
