Frequency,Impedance,Phase Angle,Temperature (Dry Bath)
10.0,5094847.0,13.87347,65.7039
21.544346900318832,8881924.0,-20.9091,65.7056
46.41588833612777,4129096.0,-34.23796,65.6864
100.0,1472807.0,110.0502,65.7139
215.44346900318823,463045.6,-162.379,65.7092
464.15888336127773,545654.1,-59.03849,65.7165
1000.0,802965.6,-90.85629,65.7128
2154.4346900318824,207807.1,-77.6612,65.7085
4641.588833612777,184955.5,-76.61663,65.7087
10000.0,78409.1,-85.01837,65.7186
