Frequency,Impedance,Phase Angle,Temperature (Dry Bath)
10.0,20066.58,-22.34637,71.5208
21.544346900318832,16627.22,-21.45207,71.4869
46.41588833612777,13809.42,-20.49228,71.4987
100.0,11722.06,-18.02091,71.497
215.44346900318823,10027.67,-15.98981,71.4965
464.15888336127773,8807.646,-14.30141,71.5029
1000.0,7957.801,-12.05016,71.4975
2154.4346900318824,7289.916,-10.4377,71.4947
4641.588833612777,6784.946,-10.71673,71.4941
10000.0,6356.636,-11.68225,71.501
