Frequency,Impedance,Phase Angle,Temperature (Dry Bath)
10.0,22957.84,-21.33547,66.4279
21.544346900318832,19351.11,-18.34868,66.432
46.41588833612777,16797.52,-15.51705,66.4042
100.0,15142.27,-12.9118,66.4246
215.44346900318823,14043.51,-14.0631,66.4181
464.15888336127773,12688.56,-7.912428,66.4155
1000.0,11871.99,-9.192035,66.4254
2154.4346900318824,11450.69,-9.332117,66.4265
4641.588833612777,10853.54,-8.835877,66.4234
10000.0,10197.18,-14.55684,66.4277
