Frequency,Impedance,Phase Angle,Temperature (Dry Bath)
10.0,127254.2,-24.84391,67.2888
21.5,105524.8,-21.81586,67.3018
46.4,90515.28,-18.6283,67.2896
100.0,81529.62,-14.83664,67.2928
215.4,75224.32,-41.20908,67.299
464.2,66010.73,-13.60563,67.3014
1000.0,59998.62,-13.82534,67.3029
2154.4,55373.81,-17.39427,67.3034
4641.6,48611.27,-25.15858,67.2902
10000.0,39795.48,-36.97621,67.2908
