Frequency,Impedance,Phase Angle,Temperature (Dry Bath)
10.0,288358.7,-14.33057,71.7486
21.544346900318832,253001.6,-14.99548,71.7594
46.41588833612777,230272.8,-14.35662,71.7466
100.0,183275.5,22.74887,71.7469
215.44346900318823,189883.6,-30.25577,71.7642
464.15888336127773,166461.0,-12.94087,71.7438
1000.0,368369.4,1.432759,71.7482
2154.4346900318824,121704.1,-45.2918,71.7486
4641.588833612777,107306.9,-44.61617,71.7586
10000.0,60704.17,-50.70391,71.7476
