Frequency,Impedance,Phase Angle,Temperature (Dry Bath)
10.0,292606.7,-8.716979,67.0985
21.5,275644.8,-8.440782,67.1194
46.4,258638.2,-8.748465,67.1012
100.0,258967.5,-10.30472,67.0971
215.4,95006.48,-61.71108,67.1052
464.2,218537.1,-12.45234,67.1185
1000.0,195672.9,-19.60145,67.1121
2154.4,166989.2,-29.60379,67.1087
4641.6,121434.6,-43.5071,67.0999
10000.0,78722.36,-57.17812,67.1032
