Frequency,Impedance,Phase Angle,Temperature (Dry Bath)
10.0,18532700.0,-21.44046,68.0473
21.5,15370600.0,-37.09588,68.0473
46.4,15402780.0,-52.56677,68.0473
100.0,4249183.0,-65.41603,68.0473
215.4,4162499.0,-84.56769,68.0473
464.2,1943956.0,-80.94629,68.0473
1000.0,1023236.0,-77.49229,68.0473
2154.4,556589.1,-77.02041,68.0473
4641.6,302476.0,-79.85566,68.0473
10000.0,162874.4,-87.66773,68.0473
