Frequency,Impedance,Phase Angle,Temperature (Dry Bath)
10.0,4835766.0,-5.666103,71.4509
21.544346900318832,7245339.0,-15.03662,71.4409
46.41588833612777,5525438.0,-27.6188,71.4562
100.0,1274341.0,-167.795,71.4513
215.44346900318823,1349565.0,8.564561,71.4536
464.15888336127773,836918.9,-77.03602,71.4683
1000.0,323195.0,-32.38944,71.473
2154.4346900318824,260106.4,-97.55834,71.4616
4641.588833612777,115977.8,-80.69997,71.466
10000.0,69203.47,-87.30191,71.4894
