Frequency,Impedance,Phase Angle,Temperature (Dry Bath)
10.0,813984.6,-10.81126,68.0344
21.5,759988.9,-10.12282,68.0325
46.4,715495.0,-11.26376,68.0592
100.0,670637.5,-14.92233,68.0426
215.4,614026.2,-22.70579,68.0374
464.2,505187.7,-26.58737,68.0377
1000.0,401715.8,-36.61388,68.0532
2154.4,277155.7,-43.17167,68.0423
4641.6,186293.0,-56.34076,68.0406
10000.0,111085.5,-67.66193,68.0403
