Frequency,Impedance,Phase Angle,Temperature (Dry Bath)
10.0,4597940.0,11.49333,71.0532
21.544346900318832,5138136.0,4.112714,71.0713
46.41588833612777,6954793.0,-14.86284,71.0563
100.0,396593.5,104.5175,71.0818
215.44346900318823,730802.8,-5.836157,71.0866
464.15888336127773,3783343.0,49.93505,71.0847
1000.0,245276.9,-58.82195,71.0863
2154.4346900318824,351913.4,-27.66254,71.0728
4641.588833612777,391697.4,-119.9519,71.0755
10000.0,181143.1,-74.8489,71.0777
