Frequency,Impedance,Phase Angle,Temperature (Dry Bath)
10.0,303816.6,-6.091743,67.112
21.5,292299.4,-5.422933,67.104
46.4,281572.3,-5.293518,67.1164
100.0,253564.3,-7.609359,67.1064
215.4,133999.0,-16.87616,67.1174
464.2,248016.0,-12.06851,67.1205
1000.0,227245.8,-18.66864,67.1027
2154.4,199240.6,-29.49967,67.1128
4641.6,147486.1,-45.52328,67.1015
10000.0,93771.21,-60.5629,67.121
