Frequency,Impedance,Phase Angle,Temperature (Dry Bath)
10.0,5057725.0,7.547696,65.8134
21.544346900318832,4865842.0,-18.12435,65.8163
46.41588833612777,4040317.0,-15.05019,65.8215
100.0,916154.7,-94.54886,65.8196
215.44346900318823,13523430.0,-161.3601,65.8145
464.15888336127773,749384.6,-39.72693,65.8103
1000.0,451806.6,-92.51294,65.7926
2154.4346900318824,607900.2,-105.2876,65.7993
4641.588833612777,252255.9,-101.3648,65.8307
10000.0,72860.21,-80.35761,65.8126
