Frequency,Impedance,Phase Angle,Temperature (Dry Bath)
10.0,138585.4,-5.981766,67.0775
21.5,133026.1,-5.163885,67.0925
46.4,128775.7,-4.783667,67.0841
100.0,128331.7,-4.784371,67.0785
215.4,122150.2,-5.560502,67.0836
464.2,115365.6,-8.348248,67.1048
1000.0,110122.8,-13.53997,67.0798
2154.4,101464.3,-19.89117,67.0829
4641.6,85625.02,-33.0581,67.1054
10000.0,59944.01,-51.07273,67.0938
