Frequency,Impedance,Phase Angle,Temperature (Dry Bath)
10.0,1881357.0,-7.115106,72.1568
21.544346900318832,2047194.0,-1.063402,72.1611
46.41588833612777,1895903.0,-11.61089,72.1522
100.0,409739.5,-58.12356,72.1571
215.44346900318823,1195326.0,59.63895,72.1605
464.15888336127773,1000847.0,-32.9732,72.156
1000.0,966781.9,-40.68177,72.1485
2154.4346900318824,304619.8,-41.09651,72.1414
4641.588833612777,118931.1,-62.88938,72.1555
10000.0,92213.36,-78.43772,72.1612
