Frequency,Impedance,Phase Angle,Temperature (Dry Bath)
10.0,17774220.0,-14.5139,67.9098
21.5,22872800.0,-26.34111,67.8814
46.4,23022410.0,-54.6695,67.8936
100.0,5665328.0,-37.19629,67.907
215.4,2903380.0,-69.98656,67.9099
464.2,1706097.0,-82.81421,67.9097
1000.0,984157.4,-86.11024,67.9117
2154.4,489058.4,-81.08029,67.9003
4641.6,251088.7,-88.49476,67.9021
10000.0,113201.2,-94.44917,67.9137
