Frequency,Impedance,Phase Angle,Temperature (Dry Bath)
10.0,12324.1,-4.326327,67.1394
21.5,12039.35,-3.749301,67.1135
46.4,11711.02,-2.956058,67.123
100.0,11624.1,-3.327689,67.1069
215.4,10989.82,-6.609524,67.1071
464.2,11236.19,-3.402351,67.111
1000.0,10989.11,-3.655734,67.0987
2154.4,10772.3,-4.169939,67.1005
4641.6,10555.26,-5.865162,67.1013
10000.0,10298.5,-9.430607,67.0948
