Frequency,Impedance,Phase Angle,Temperature (Dry Bath)
10.0,96625.53,-15.38588,71.4385
21.544346900318832,86357.24,-13.52283,71.4253
46.41588833612777,77817.34,-11.91296,71.4506
100.0,67515.2,-7.840371,71.4463
215.44346900318823,64369.5,-6.355677,71.4571
464.15888336127773,60873.61,-15.2699,71.4328
1000.0,53679.18,-10.22444,71.4227
2154.4346900318824,54681.73,-14.91796,71.4429
4641.588833612777,48985.38,-18.08277,71.4356
10000.0,42861.23,-28.61543,71.4402
