Frequency,Impedance,Phase Angle,Temperature (Dry Bath)
10.0,192439.3,-26.14498,65.6978
21.544346900318832,151817.9,-25.21552,65.7038
46.41588833612777,124068.6,-21.86603,65.703
100.0,92545.09,-16.29557,65.6928
215.44346900318823,12119.95,39.54134,65.7041
464.15888336127773,73458.81,-20.48944,65.6989
1000.0,69222.23,-19.5636,65.7025
2154.4346900318824,62022.69,-19.59703,65.6951
4641.588833612777,49425.95,-37.56141,65.693
10000.0,36001.07,-48.8616,65.6948
