Frequency,Impedance,Phase Angle,Temperature (Dry Bath)
10.0,21894.09,-20.99322,71.2705
21.544346900318832,18153.91,-22.71021,71.2702
46.41588833612777,14807.62,-23.91221,71.2696
100.0,11827.1,-23.5893,71.2681
215.44346900318823,9558.745,-25.62364,71.2598
464.15888336127773,7779.59,-23.79339,71.282
1000.0,6283.908,-24.45529,71.2719
2154.4346900318824,5077.736,-22.6173,71.2626
4641.588833612777,4269.437,-22.25994,71.2746
10000.0,3644.965,-19.75695,71.2653
