Frequency,Impedance,Phase Angle,Temperature (Dry Bath)
10.0,11002.32,-41.24337,71.4096
21.544346900318832,7811.789,-38.00257,71.3921
46.41588833612777,5701.071,-33.99565,71.3961
100.0,4369.588,-29.45892,71.3976
215.44346900318823,3475.607,-24.13265,71.3994
464.15888336127773,2920.646,-20.21872,71.3887
1000.0,2518.099,-16.96266,71.3976
2154.4346900318824,2221.085,-14.28273,71.4085
4641.588833612777,1995.511,-12.50672,71.4053
10000.0,1826.149,-10.83495,71.4143
