Frequency,Impedance,Phase Angle,Temperature (Dry Bath)
10.0,30703930.0,-30.83887,67.0782
21.5,23051820.0,-33.76974,67.0651
46.4,17587680.0,-56.06992,67.0615
100.0,4943873.0,-32.21572,67.056
215.4,3782003.0,-72.64278,67.0429
464.2,1891395.0,-89.66408,67.0697
1000.0,990657.2,-79.89722,67.0585
2154.4,489113.1,-82.42045,67.0689
4641.6,240005.3,-79.27745,67.0748
10000.0,119658.9,-79.05521,67.0817
