Frequency,Impedance,Phase Angle,Temperature (Dry Bath)
10.0,23516930.0,-23.20121,68.0535
21.5,25162770.0,-28.36381,68.0515
46.4,19615440.0,-60.41554,68.0552
100.0,3491988.0,-40.21785,68.0433
215.4,5440028.0,-61.06973,68.0505
464.2,1942701.0,-74.04437,68.0557
1000.0,1021200.0,-82.72073,68.0447
2154.4,496255.2,-88.97911,68.0423
4641.6,236423.4,-89.12071,68.0535
10000.0,108586.8,-92.49137,68.0554
