Frequency,Impedance,Phase Angle,Temperature (Dry Bath)
10.0,3409102.0,3.365888,66.4144
21.544346900318832,6006530.0,-8.236724,66.3805
46.41588833612777,4567445.0,-25.26282,66.3967
100.0,748332.7,112.5619,66.371
215.44346900318823,2147356.0,-8.525629,66.3814
464.15888336127773,1187118.0,-38.37362,66.3891
1000.0,514269.5,-76.79591,66.3694
2154.4346900318824,312869.5,-94.29147,66.3825
4641.588833612777,135121.9,-82.96163,66.4016
10000.0,67494.2,-87.66893,66.3807
