Frequency,Impedance,Phase Angle,Temperature (Dry Bath)
10.0,29300730.0,-15.48367,67.1641
21.5,20874840.0,-41.69111,67.1481
46.4,13232090.0,-58.35763,67.1573
100.0,12270780.0,93.12936,67.1551
215.4,2423652.0,-54.44327,67.1639
464.2,1658500.0,-89.94395,67.1605
1000.0,882426.3,-83.26265,67.1617
2154.4,448251.2,-82.45458,67.1586
4641.6,223651.7,-81.54291,67.1634
10000.0,109284.5,-83.8511,67.1696
