Frequency,Impedance,Phase Angle,Temperature (Dry Bath)
10.0,34741100.0,-47.5131,68.0045
21.5,33959510.0,-43.77231,67.982
46.4,22285270.0,-60.81808,67.9819
100.0,7713926.0,-58.08334,67.9828
215.4,4698114.0,-87.8592,67.9883
464.2,2406552.0,-83.82088,67.9856
1000.0,1068060.0,-76.28773,68.0083
2154.4,519648.6,-89.65299,67.9765
4641.6,250603.9,-93.13679,68.005
10000.0,110647.3,-90.74208,67.9912
