Frequency,Impedance,Phase Angle,Temperature (Dry Bath)
10.0,12228.72,-4.799492,67.1082
21.5,11946.04,-4.17369,67.0994
46.4,11725.89,-3.842418,67.1088
100.0,11540.28,-3.840601,67.1298
215.4,11425.25,-4.035744,67.1113
464.2,11210.41,-3.994449,67.1159
1000.0,10933.29,-4.459047,67.1105
2154.4,10706.5,-4.871802,67.12
4641.6,10453.25,-6.51815,67.1222
10000.0,10105.66,-9.924135,67.1118
