Frequency,Impedance,Phase Angle,Temperature (Dry Bath)
10.0,141655.2,-13.43669,71.3821
21.544346900318832,127053.8,-12.75351,71.3804
46.41588833612777,113595.6,-12.21599,71.3974
100.0,109125.7,-12.24057,71.3816
215.44346900318823,110886.9,-10.05751,71.3864
464.15888336127773,93061.16,-10.49289,71.38
1000.0,82153.64,-14.08335,71.3816
2154.4346900318824,79599.62,-16.19701,71.3847
4641.588833612777,66356.19,-28.51513,71.3735
10000.0,56478.65,-42.26478,71.3908
