Frequency,Impedance,Phase Angle,Temperature (Dry Bath)
10.0,2445056.0,-8.45077,71.4168
21.544346900318832,2348131.0,-9.580019,71.4164
46.41588833612777,2039318.0,-13.40463,71.4245
100.0,308843.8,-123.2638,71.4154
215.44346900318823,247634.8,36.67579,71.4209
464.15888336127773,1601575.0,140.6284,71.4158
1000.0,307698.5,-57.16375,71.4197
2154.4346900318824,354136.5,10.50223,71.4268
4641.588833612777,363372.8,-124.6528,71.4394
10000.0,120214.6,-88.21126,71.4236
