Frequency,Impedance,Phase Angle,Temperature (Dry Bath)
10.0,194997.9,-27.57102,65.8206
21.544346900318832,155347.9,-24.27378,65.8215
46.41588833612777,124131.7,-20.2585,65.8199
100.0,116867.3,-28.20915,65.8181
215.44346900318823,18513.39,-27.27734,65.82
464.15888336127773,74444.76,-19.80397,65.8168
1000.0,69634.8,-11.82844,65.8175
2154.4346900318824,60624.49,-23.05332,65.8156
4641.588833612777,55937.73,-30.5709,65.8216
10000.0,35275.26,-49.44029,65.8095
