Frequency,Impedance,Phase Angle,Temperature (Dry Bath)
10.0,18116310.0,-16.22428,67.9677
21.5,23799350.0,-34.58762,67.9677
46.4,31796680.0,-53.80594,67.9677
100.0,7643946.0,-45.72268,67.9677
215.4,5518417.0,-91.35955,67.9677
464.2,3604086.0,-87.26879,67.9677
1000.0,1325201.0,-92.4335,67.9677
2154.4,730091.3,-89.90337,67.9677
4641.6,341376.0,-94.3075,67.9677
10000.0,145898.1,-95.4444,67.9677
