Frequency,Impedance,Phase Angle,Temperature (Dry Bath)
10.0,30560010.0,-15.7734,67.2574
21.5,24252340.0,-29.79542,67.2615
46.4,17515810.0,-52.65403,67.2619
100.0,14731620.0,-61.5948,67.2766
215.4,5921572.0,-106.1002,67.2603
464.2,2446377.0,-73.84783,67.2452
1000.0,1088453.0,-84.59939,67.2664
2154.4,587235.4,-89.79662,67.2677
4641.6,267859.4,-89.68684,67.2721
10000.0,126473.5,-86.78269,67.2593
