Frequency,Impedance,Phase Angle,Temperature (Dry Bath)
10.0,27339710.0,-7.247465,67.3866
21.5,24712520.0,-39.12798,67.3826
46.4,18057690.0,-40.22624,67.393
100.0,3874681.0,-32.61234,67.386
215.4,1598306.0,14.37575,67.3875
464.2,1355627.0,-72.76053,67.3802
1000.0,909486.4,-80.23629,67.3814
2154.4,475564.8,-84.32931,67.3909
4641.6,225066.3,-81.26483,67.3949
10000.0,109542.7,-83.53889,67.392
