Frequency,Impedance,Phase Angle,Temperature (Dry Bath)
10.0,866748.3,-10.76333,67.1234
21.5,805778.2,-10.93761,67.1126
46.4,749958.5,-12.1366,67.1191
100.0,654140.7,-9.28562,67.1212
215.4,645065.4,107.2251,67.1213
464.2,521720.2,-26.80726,67.1166
1000.0,410680.1,-37.8592,67.119
2154.4,293130.5,-54.2541,67.1186
4641.6,178480.5,-60.02479,67.1185
10000.0,97188.89,-67.9559,67.1235
