Frequency,Impedance,Phase Angle,Temperature (Dry Bath)
10.0,133242.6,-6.51661,67.2778
21.5,127672.2,-5.539933,67.2789
46.4,123293.5,-5.157386,67.28
100.0,117742.1,-4.114969,67.289
215.4,110723.4,37.55684,67.2912
464.2,111845.4,-9.346676,67.2954
1000.0,103716.0,-12.50877,67.2759
2154.4,99090.46,-20.4301,67.2894
4641.6,83605.55,-31.39131,67.2852
10000.0,60802.47,-48.57597,67.2821
