Frequency,Impedance,Phase Angle,Temperature (Dry Bath)
10.0,17541.83,-24.02282,71.4421
21.544346900318832,14210.1,-25.2953,71.4667
46.41588833612777,11307.58,-26.26194,71.4493
100.0,9020.161,-26.20222,71.4551
215.44346900318823,7170.153,-25.74242,71.4469
464.15888336127773,5799.932,-23.59841,71.4406
1000.0,4740.132,-21.44475,71.4207
2154.4346900318824,3985.805,-19.45361,71.4482
4641.588833612777,3423.329,-17.36463,71.4377
10000.0,3008.343,-15.85289,71.4418
