Frequency,Impedance,Phase Angle,Temperature (Dry Bath)
10.0,12333.22,-4.571709,67.2581
21.5,12019.48,-3.851386,67.2483
46.4,11689.03,-3.014591,67.2542
100.0,11598.71,-3.505932,67.2471
215.4,11011.94,-3.148184,67.2447
464.2,11256.24,-3.773516,67.2613
1000.0,10974.02,-3.771326,67.2578
2154.4,10782.44,-4.305792,67.2732
4641.6,10524.57,-5.99825,67.2802
10000.0,10243.95,-9.752497,67.2736
