Frequency,Impedance,Phase Angle,Temperature (Dry Bath)
10.0,20326.35,-22.17758,71.5335
21.544346900318832,16847.14,-21.49072,71.5395
46.41588833612777,14017.05,-20.39784,71.543
100.0,11285.07,-19.29344,71.5322
215.44346900318823,10125.01,-16.75811,71.5348
464.15888336127773,8959.717,-13.65099,71.5477
1000.0,8055.296,-12.54863,71.5462
2154.4346900318824,7424.497,-10.37458,71.5227
4641.588833612777,6779.896,-11.7045,71.523
10000.0,6430.047,-11.22438,71.5209
