Frequency,Impedance,Phase Angle,Temperature (Dry Bath)
10.0,19375.55,-19.71749,67.9622
21.5,16591.44,-16.42901,67.9524
46.4,14718.53,-12.94458,67.9789
100.0,13349.81,-11.02127,67.9695
215.4,12471.1,-7.473167,67.9622
464.2,11973.41,-7.215667,67.9567
1000.0,11625.59,-5.881391,67.958
2154.4,11159.29,-5.006542,67.9464
4641.6,10672.96,-6.226603,67.9571
10000.0,10645.46,-11.03546,67.942
