Frequency,Impedance,Phase Angle,Temperature (Dry Bath)
10.0,21605690.0,-35.52773,67.9795
21.5,32204840.0,-37.42216,67.9861
46.4,25381600.0,-51.47065,67.9902
100.0,3697967.0,-46.44147,67.9903
215.4,3930669.0,-85.38352,67.986
464.2,2255854.0,-91.09928,68.0017
1000.0,1113290.0,-79.14144,67.9789
2154.4,513088.8,-86.05975,67.9939
4641.6,248354.8,-85.9844,67.995
10000.0,113815.6,-93.1977,67.9815
