Frequency,Impedance,Phase Angle,Temperature (Dry Bath)
10.0,157738.6,-8.313838,65.8074
21.544346900318832,150084.7,-7.942398,65.7991
46.41588833612777,139137.6,-7.6395,65.8087
100.0,127274.7,-14.74412,65.8079
215.44346900318823,128554.2,-2.228203,65.809
464.15888336127773,113667.9,-16.21524,65.8007
1000.0,125737.8,-15.84628,65.8212
2154.4346900318824,113510.7,-43.08366,65.8103
4641.588833612777,75617.78,-43.27028,65.8246
10000.0,47006.48,-60.68316,65.8078
