Frequency,Impedance,Phase Angle,Temperature (Dry Bath)
10.0,2243359.0,-10.80712,68.3157
21.5,2121837.0,-11.98467,68.3157
46.4,2131746.0,-14.05976,68.3157
100.0,1667006.0,-10.68439,68.3157
215.4,1505822.0,-31.78398,68.3157
464.2,1257398.0,-32.24409,68.3157
1000.0,973208.6,-58.79128,68.3157
2154.4,555503.3,-67.41541,68.3157
4641.6,292197.2,-78.98833,68.3157
10000.0,138389.0,-89.02229,68.3157
