Frequency,Impedance,Phase Angle,Temperature (Dry Bath)
10.0,32943180.0,-15.65387,67.9793
21.5,42895010.0,-38.97032,67.9782
46.4,23015690.0,-58.52368,67.9856
100.0,5996613.0,-39.36903,67.9898
215.4,4192423.0,-64.58898,67.995
464.2,1974290.0,-76.35511,67.9786
1000.0,968857.5,-78.90691,67.9734
2154.4,540061.7,-86.36184,67.9822
4641.6,272004.4,-82.80916,67.9792
10000.0,122173.2,-91.46496,67.9821
