Frequency,Impedance,Phase Angle,Temperature (Dry Bath)
10.0,151630.9,-6.450451,67.9677
21.5,146048.9,-5.155768,67.9677
46.4,140802.7,-4.793115,67.9677
100.0,132407.6,-4.324902,67.9677
215.4,129207.8,-5.824374,67.9677
464.2,127055.4,-9.060933,67.9677
1000.0,120244.5,-11.33157,67.9677
2154.4,112046.2,-20.5461,67.9677
4641.6,95006.51,-30.86668,67.9677
10000.0,75664.66,-51.84633,67.9677
