Frequency,Impedance,Phase Angle,Temperature (Dry Bath)
10.0,8318.902,-25.75744,70.9758
21.544346900318832,6793.974,-22.56783,70.9699
46.41588833612777,5706.107,-19.50183,70.9622
100.0,4930.165,-17.05252,70.9673
215.44346900318823,4350.57,-14.49328,70.9605
464.15888336127773,3916.173,-12.38586,70.9883
1000.0,3548.915,-10.2312,70.9845
2154.4346900318824,3306.493,-9.313358,70.9736
4641.588833612777,3090.436,-8.398389,70.96
10000.0,2930.232,-9.104382,70.9915
