Frequency,Impedance,Phase Angle,Temperature (Dry Bath)
10.0,132961.4,-25.43256,67.0774
21.5,109902.6,-22.14403,67.0664
46.4,93440.18,-19.10661,67.0804
100.0,83851.42,-17.55628,67.0867
215.4,74513.47,-13.41153,67.1053
464.2,68157.48,-14.02324,67.1025
1000.0,61947.77,-14.62588,67.103
2154.4,55967.24,-18.64249,67.0933
4641.6,49243.04,-25.30919,67.0797
10000.0,39923.44,-37.43555,67.0781
