Frequency,Impedance,Phase Angle,Temperature (Dry Bath)
10.0,5958052.0,-34.49312,70.6415
21.544346900318832,4267162.0,-8.010141,70.6358
46.41588833612777,3467764.0,-25.32013,70.6229
100.0,660526.1,-18.87804,70.6312
215.44346900318823,609528.2,-31.21215,70.6241
464.15888336127773,712750.9,-45.45567,70.6375
1000.0,882754.8,-134.3432,70.6093
2154.4346900318824,360241.5,-66.78724,70.6113
4641.588833612777,135590.6,-68.82528,70.6112
10000.0,57821.29,-91.2021,70.6127
