Frequency,Impedance,Phase Angle,Temperature (Dry Bath)
10.0,29183320.0,-17.99337,67.6889
21.5,43023520.0,-31.57356,67.6813
46.4,34777360.0,-41.92781,67.6802
100.0,5510833.0,-53.80195,67.6829
215.4,11258080.0,-70.95419,67.6769
464.2,2536633.0,-77.47645,67.6798
1000.0,1315239.0,-82.70694,67.6543
2154.4,635697.6,-88.85248,67.6967
4641.6,302565.3,-92.73875,67.6794
10000.0,163804.9,-96.73376,67.6546
