Frequency,Impedance,Phase Angle,Temperature (Dry Bath)
10.0,34154740.0,-9.198668,67.9773
21.5,22188200.0,-46.49825,68.0021
46.4,11553770.0,-54.50973,68.0007
100.0,4573071.0,-58.48517,67.999
215.4,3139927.0,-78.23368,67.9828
464.2,1750360.0,-74.37853,67.984
1000.0,1095052.0,-76.22915,67.9921
2154.4,518497.6,-83.83307,68.0012
4641.6,263202.9,-87.56854,67.9912
10000.0,127976.0,-91.17479,67.9786
