Frequency,Impedance,Phase Angle,Temperature (Dry Bath)
10.0,23563460.0,-14.86354,68.0821
21.5,21633360.0,-43.40404,68.0952
46.4,18861710.0,-63.37634,68.1073
100.0,4101121.0,-20.29353,68.1024
215.4,3614971.0,-85.09546,68.0869
464.2,1655112.0,-64.8725,68.0884
1000.0,876960.8,-71.50633,68.098
2154.4,496890.3,-75.73289,68.0968
4641.6,274071.6,-82.58935,68.0913
10000.0,137547.6,-93.18285,68.0907
