Frequency,Impedance,Phase Angle,Temperature (Dry Bath)
10.0,23516.49,-21.18208,71.4021
21.544346900318832,19855.26,-18.34393,71.4136
46.41588833612777,17195.41,-15.47585,71.4073
100.0,14727.56,-12.9905,71.4025
215.44346900318823,13999.23,-11.38323,71.3958
464.15888336127773,13002.69,-8.906335,71.4116
1000.0,12322.16,-2.881641,71.4004
2154.4346900318824,11481.02,-8.587854,71.391
4641.588833612777,10975.77,-11.27131,71.3873
10000.0,9964.827,-15.17462,71.3919
