Frequency,Impedance,Phase Angle,Temperature (Dry Bath)
10.0,21512800.0,-5.529183,67.977
21.5,26864310.0,-50.64025,67.9924
46.4,22541510.0,-55.83009,67.9846
100.0,5398773.0,-43.44727,67.9812
215.4,5547457.0,-28.76288,67.9887
464.2,2338677.0,-89.41102,67.9923
1000.0,1018358.0,-78.32435,67.98
2154.4,519175.8,-79.775,67.9964
4641.6,294149.5,-80.78703,67.9897
10000.0,150378.8,-89.14883,67.9862
