Frequency,Impedance,Phase Angle,Temperature (Dry Bath)
10.0,77037.53,-14.91908,71.5652
21.544346900318832,68540.05,-13.25023,71.5549
46.41588833612777,62488.05,-11.98784,71.581
100.0,56108.03,-8.125645,71.5818
215.44346900318823,54113.61,-15.08226,71.5673
464.15888336127773,48725.77,-10.69112,71.551
1000.0,44203.34,-9.522079,71.5649
2154.4346900318824,42585.57,-9.256221,71.5791
4641.588833612777,38247.78,-13.80328,71.5667
10000.0,36959.46,-20.39159,71.5671
