Frequency,Impedance,Phase Angle,Temperature (Dry Bath)
10.0,2220051.0,5.967114,66.5
21.544346900318832,2287508.0,-3.556711,66.5
46.41588833612777,2623237.0,1.711292,66.5
100.0,2439007.0,166.0536,66.5
215.44346900318823,1436390.0,148.0981,66.5
464.15888336127773,2799441.0,168.0373,66.5
1000.0,1058877.0,37.86639,66.5
2154.4346900318824,2450671.0,-45.85568,66.5
4641.588833612777,932147.4,70.74,66.5
10000.0,2458922.0,-62.69014,66.5
