Frequency,Impedance,Phase Angle,Temperature (Dry Bath)
10.0,4723140.0,6.476994,71.299
21.544346900318832,5339853.0,7.48167,71.2871
46.41588833612777,4563644.0,-29.59383,71.307
100.0,493697.1,77.58567,71.3032
215.44346900318823,526367.6,-70.58656,71.292
464.15888336127773,1894870.0,-89.64851,71.2973
1000.0,1004684.0,0.9199984,71.3151
2154.4346900318824,216840.8,-91.75352,71.2995
4641.588833612777,137697.5,-95.19839,71.2917
10000.0,62316.81,-81.97051,71.2934
