Frequency,Impedance,Phase Angle,Temperature (Dry Bath)
10.0,139659.6,-5.830887,67.2523
21.5,134280.1,-4.743773,67.2461
46.4,130544.5,-4.683405,67.2443
100.0,127654.1,-4.152337,67.2407
215.4,125493.3,-17.55427,67.2535
464.2,119850.0,-7.055848,67.2551
1000.0,112876.7,-11.24748,67.2518
2154.4,105840.0,-18.89475,67.2428
4641.6,89462.07,-33.48003,67.2515
10000.0,63728.92,-51.02867,67.2399
