Frequency,Impedance,Phase Angle,Temperature (Dry Bath)
10.0,23560170.0,-8.964362,67.9677
21.5,21786190.0,-39.71045,67.9677
46.4,19222870.0,-51.80783,67.9677
100.0,7154515.0,-22.52759,67.9677
215.4,2579777.0,-90.78554,67.9677
464.2,1900856.0,-98.14789,67.9677
1000.0,999536.5,-77.95993,67.9677
2154.4,410750.9,-82.11565,67.9677
4641.6,243799.9,-81.39032,67.9677
10000.0,114418.9,-91.30986,67.9677
