Frequency,Impedance,Phase Angle,Temperature (Dry Bath)
10.0,4425241.0,-22.18627,70.7975
21.544346900318832,3296265.0,-16.50509,70.7896
46.41588833612777,5980624.0,-11.5771,70.8096
100.0,856019.2,-119.7461,70.7894
215.44346900318823,2969700.0,147.1947,70.807
464.15888336127773,1573015.0,26.49644,70.8075
1000.0,444624.1,-100.8581,70.796
2154.4346900318824,445297.0,-89.36629,70.7955
4641.588833612777,112881.6,-95.94142,70.8124
10000.0,61028.28,-82.40692,70.7842
