Frequency,Impedance,Phase Angle,Temperature (Dry Bath)
10.0,13333.97,-29.6135,70.7722
21.544346900318832,10580.38,-26.8511,70.7713
46.41588833612777,8571.203,-24.28633,70.7792
100.0,7195.647,-21.75132,70.774
215.44346900318823,5972.621,-18.40806,70.7747
464.15888336127773,5191.119,-16.42925,70.7643
1000.0,4644.893,-12.9286,70.7704
2154.4346900318824,4236.875,-10.68155,70.7704
4641.588833612777,3990.048,-10.21004,70.7878
10000.0,3735.192,-9.807757,70.7849
