Frequency,Impedance,Phase Angle,Temperature (Dry Bath)
10.0,22611.38,-21.61056,65.8059
21.544346900318832,19022.1,-18.44064,65.7902
46.41588833612777,16497.4,-15.35949,65.7707
100.0,15118.85,-12.37207,65.7909
215.44346900318823,10279.73,10.47987,65.7801
464.15888336127773,12448.36,-7.733609,65.796
1000.0,11615.45,-6.630321,65.7593
2154.4346900318824,11413.53,-7.929417,65.789
4641.588833612777,10905.93,-9.717939,65.7728
10000.0,10216.49,-14.43172,65.7881
