Frequency,Impedance,Phase Angle,Temperature (Dry Bath)
10.0,449329.1,-8.400637,67.0238
21.5,423862.7,-9.298426,67.0462
46.4,396298.5,-10.25783,67.0242
100.0,359258.1,-17.81493,67.0329
215.4,370167.9,-17.29608,67.0307
464.2,298137.6,-17.77465,67.0311
1000.0,271494.1,-24.46606,67.0133
2154.4,214905.1,-35.03712,67.033
4641.6,147125.3,-49.03084,67.0371
10000.0,88601.75,-59.21498,67.036
