Frequency,Impedance,Phase Angle,Temperature (Dry Bath)
10.0,2933238.0,-12.70861,68.0508
21.5,3241515.0,-14.26262,68.0471
46.4,2936781.0,-16.98386,68.0532
100.0,1516306.0,-22.81344,68.0676
215.4,1803831.0,-43.65277,68.0591
464.2,1246593.0,-51.71807,68.0536
1000.0,741817.5,-67.72002,68.0515
2154.4,411413.3,-73.19683,68.0673
4641.6,230226.7,-78.15521,68.0774
10000.0,115817.2,-82.95906,68.0726
