Frequency,Impedance,Phase Angle,Temperature (Dry Bath)
10.0,198121.3,-27.82636,65.7084
21.544346900318832,154371.7,-23.88638,65.6577
46.41588833612777,127960.6,-22.21957,65.6898
100.0,97939.93,-16.87094,65.6758
215.44346900318823,60872.82,-1.574259,65.6859
464.15888336127773,78781.33,-14.19742,65.7019
1000.0,77680.45,-20.74373,65.6915
2154.4346900318824,58489.17,-24.89346,65.6761
4641.588833612777,53353.64,-36.69019,65.6603
10000.0,36623.5,-50.56655,65.6623
