Frequency,Impedance,Phase Angle,Temperature (Dry Bath)
10.0,123066.2,-24.88662,67.4891
21.5,101695.2,-21.65592,67.4985
46.4,87736.66,-18.34297,67.5116
100.0,77473.12,-15.95697,67.5047
215.4,94723.34,-68.80764,67.4794
464.2,63868.87,-13.47306,67.4873
1000.0,59464.05,-13.2879,67.4878
2154.4,54133.98,-17.27288,67.4941
4641.6,47731.31,-23.81728,67.4767
10000.0,39784.89,-35.9932,67.4964
