Frequency,Impedance,Phase Angle,Temperature (Dry Bath)
10.0,60010210.0,-17.66742,68.3745
21.5,29014830.0,-33.67983,68.3734
46.4,13762490.0,-56.2498,68.3635
100.0,5113007.0,-34.66965,68.3887
215.4,4643469.0,-72.4829,68.3667
464.2,1837919.0,-80.51614,68.3627
1000.0,965337.3,-79.00568,68.3598
2154.4,496586.5,-79.61756,68.3659
4641.6,243269.4,-88.40797,68.3745
10000.0,120167.0,-91.10805,68.3782
