Frequency,Impedance,Phase Angle,Temperature (Dry Bath)
10.0,2825079.0,-12.96091,67.964
21.5,2628551.0,-15.00117,67.9671
46.4,2499778.0,-16.6628,67.9526
100.0,1464803.0,-8.256682,67.9565
215.4,1768681.0,-26.26698,67.9662
464.2,1214602.0,-58.17557,67.9564
1000.0,704465.7,-56.40764,67.9604
2154.4,416868.8,-67.328,67.984
4641.6,233868.5,-75.43418,67.9591
10000.0,122861.6,-81.88334,67.9648
