Frequency,Impedance,Phase Angle,Temperature (Dry Bath)
10.0,21323490.0,-21.49319,67.8693
21.5,24821190.0,-52.61853,67.8747
46.4,19910420.0,-60.46004,67.8537
100.0,5770432.0,-76.62491,67.8526
215.4,4109836.0,-85.86592,67.8441
464.2,1731937.0,-77.18421,67.8945
1000.0,1007775.0,-82.36501,67.8681
2154.4,502088.2,-79.16385,67.8553
4641.6,272408.7,-84.10843,67.8819
10000.0,125535.5,-92.99901,67.8786
