Frequency,Impedance,Phase Angle,Temperature (Dry Bath)
10.0,9804.745,-25.61475,70.7329
21.544346900318832,8003.371,-22.48937,70.7378
46.41588833612777,6713.844,-19.5533,70.7442
100.0,5822.754,-16.78962,70.7334
215.44346900318823,5079.82,-14.50497,70.7254
464.15888336127773,4570.748,-12.78241,70.7327
1000.0,4138.601,-10.40546,70.7204
2154.4346900318824,3841.888,-9.412941,70.7437
4641.588833612777,3616.297,-8.999171,70.732
10000.0,3379.566,-10.30537,70.7386
