Frequency,Impedance,Phase Angle,Temperature (Dry Bath)
10.0,23590560.0,-17.20597,68.0673
21.5,21349520.0,-35.65835,68.0846
46.4,22851410.0,-60.82321,68.0556
100.0,7650870.0,-83.36426,68.0649
215.4,4162268.0,-87.39402,68.0588
464.2,2401950.0,-83.97212,68.0628
1000.0,1015956.0,-70.95952,68.0675
2154.4,580303.7,-76.13648,68.0587
4641.6,257708.7,-87.21082,68.0613
10000.0,135360.3,-88.83686,68.0596
