Frequency,Impedance,Phase Angle,Temperature (Dry Bath)
10.0,50135650.0,-18.65142,67.345
21.5,19333630.0,-50.73213,67.3512
46.4,14227100.0,-58.29813,67.3663
100.0,5639618.0,4.155882,67.3447
215.4,4672105.0,-8.839089,67.354
464.2,2296564.0,-85.17675,67.3511
1000.0,872292.2,-73.7662,67.3769
2154.4,466183.2,-84.08268,67.3732
4641.6,238895.3,-82.07996,67.3556
10000.0,114720.9,-83.91845,67.3614
