Frequency,Impedance,Phase Angle,Temperature (Dry Bath)
10.0,23019.67,-21.38685,66.4117
21.544346900318832,19450.73,-18.31511,66.4197
46.41588833612777,16878.66,-15.53408,66.4163
100.0,14951.8,-12.05629,66.4158
215.44346900318823,13574.24,-12.37535,66.4206
464.15888336127773,12680.24,-9.224309,66.4055
1000.0,11968.19,-8.69834,66.4183
2154.4346900318824,11260.43,-7.84159,66.3998
4641.588833612777,10782.07,-10.54545,66.3992
10000.0,10117.38,-15.79603,66.4009
