Frequency,Impedance,Phase Angle,Temperature (Dry Bath)
10.0,29445790.0,-34.13403,67.6746
21.5,22422130.0,-33.73779,67.6728
46.4,18855330.0,-60.58614,67.6816
100.0,3693886.0,-43.53043,67.6781
215.4,4206890.0,-76.28153,67.6677
464.2,1753247.0,-75.6896,67.6624
1000.0,850114.7,-74.42834,67.6803
2154.4,490435.7,-76.50655,67.657
4641.6,265378.4,-89.48868,67.6584
10000.0,140315.8,-90.53908,67.6731
