Frequency,Impedance,Phase Angle,Temperature (Dry Bath)
10.0,152644.3,-6.35825,68.03
21.5,146738.9,-5.316852,68.0114
46.4,142066.3,-4.795656,68.0114
100.0,137420.0,-4.399236,68.0076
215.4,137489.3,-6.130709,68.0236
464.2,130571.6,-7.724601,68.0077
1000.0,120611.6,-13.17764,68.0218
2154.4,112771.6,-19.43037,68.018
4641.6,95752.92,-34.48048,68.0126
10000.0,73398.48,-53.0124,68.007
