Frequency,Impedance,Phase Angle,Temperature (Dry Bath)
10.0,24516550.0,-14.89053,67.3568
21.5,27934510.0,-38.89134,67.3563
46.4,11057150.0,-78.63893,67.3573
100.0,6820600.0,-166.6926,67.3509
215.4,168670.1,-162.5183,67.3584
464.2,2047510.0,-75.39704,67.3449
1000.0,841650.0,-73.18572,67.3405
2154.4,474016.7,-76.76749,67.3452
4641.6,239663.7,-80.41325,67.3714
10000.0,122856.9,-81.56587,67.3783
