Frequency,Impedance,Phase Angle,Temperature (Dry Bath)
10.0,32903950.0,-19.0294,67.4154
21.5,29009960.0,-16.90358,67.4024
46.4,14517650.0,-60.3086,67.3939
100.0,4275144.0,-66.60965,67.408
215.4,3535481.0,45.56516,67.4151
464.2,1693382.0,-91.2824,67.4201
1000.0,1034235.0,-86.90826,67.4075
2154.4,477143.8,-84.89322,67.4136
4641.6,228849.8,-83.94337,67.4199
10000.0,111864.9,-82.58084,67.4126
