Frequency,Impedance,Phase Angle,Temperature (Dry Bath)
10.0,12825.77,-27.7418,71.1329
21.544346900318832,10239.97,-25.28407,71.1223
46.41588833612777,8351.881,-22.6149,71.1283
100.0,6959.306,-21.20108,71.1369
215.44346900318823,6044.663,-17.97961,71.127
464.15888336127773,5223.111,-15.5948,71.132
1000.0,4582.953,-12.98272,71.1289
2154.4346900318824,4189.453,-13.05025,71.1321
4641.588833612777,3824.088,-12.0836,71.1247
10000.0,3507.11,-12.09618,71.1205
