Frequency,Impedance,Phase Angle,Temperature (Dry Bath)
10.0,149297.6,-6.526131,68.007
21.5,143266.9,-5.205725,68.007
46.4,138648.6,-4.806217,68.007
100.0,128943.6,-5.928256,68.007
215.4,129321.1,-5.64998,68.007
464.2,126201.7,-8.560518,68.007
1000.0,118592.1,-12.04391,68.007
2154.4,110362.0,-18.70417,68.007
4641.6,95871.95,-31.35234,68.007
10000.0,71578.6,-52.42396,68.007
