Frequency,Impedance,Phase Angle,Temperature (Dry Bath)
10.0,9604903.0,12.89958,71.8522
21.544346900318832,4676070.0,-12.96806,71.8544
46.41588833612777,4840416.0,-3.328382,71.8586
100.0,497979.6,14.51858,71.8522
215.44346900318823,338856.6,-28.02937,71.8388
464.15888336127773,1349142.0,-129.891,71.8525
1000.0,386882.3,-32.05845,71.8583
2154.4346900318824,456935.4,-46.95025,71.8595
4641.588833612777,240138.5,-74.08489,71.8522
10000.0,185695.6,-81.61901,71.8617
