Frequency,Impedance,Phase Angle,Temperature (Dry Bath)
10.0,19738.59,-24.01799,71.4522
21.544346900318832,16089.06,-24.03483,71.4617
46.41588833612777,13116.31,-23.54824,71.4814
100.0,10681.86,-22.53425,71.4467
215.44346900318823,9003.274,-21.73713,71.4634
464.15888336127773,7638.204,-20.20627,71.4669
1000.0,6485.348,-19.12019,71.4534
2154.4346900318824,5557.138,-18.21448,71.4582
4641.588833612777,4726.384,-17.28052,71.4551
10000.0,4071.139,-17.04996,71.4544
