Frequency,Impedance,Phase Angle,Temperature (Dry Bath)
10.0,563047.9,-11.61663,68.0519
21.5,516716.3,-10.77713,68.0406
46.4,473562.5,-11.5893,68.0612
100.0,432081.6,-14.65184,68.0417
215.4,389295.8,-18.5874,68.0763
464.2,338659.8,-23.0838,68.0643
1000.0,285514.3,-29.38949,68.0556
2154.4,219698.7,-37.43825,68.0514
4641.6,156886.6,-45.1317,68.0463
10000.0,106458.3,-60.37713,68.0447
