Frequency,Impedance,Phase Angle,Temperature (Dry Bath)
10.0,20819.18,-20.0115,71.0754
21.544346900318832,17911.89,-17.49831,71.068
46.41588833612777,15631.32,-15.64747,71.0517
100.0,13686.04,-14.22528,71.071
215.44346900318823,12237.45,-13.13491,71.055
464.15888336127773,11399.45,-12.92062,71.05
1000.0,10287.78,-11.2851,71.0598
2154.4346900318824,9702.679,-9.99015,71.0476
4641.588833612777,9113.108,-11.64965,71.07
10000.0,8472.596,-15.12617,71.0564
