Frequency,Impedance,Phase Angle,Temperature (Dry Bath)
10.0,187414.5,-26.90927,65.7038
21.544346900318832,151131.7,-24.92003,65.7033
46.41588833612777,124982.2,-22.4311,65.6987
100.0,101693.8,-22.76504,65.695
215.44346900318823,9475.836,-90.7952,65.708
464.15888336127773,77514.18,-14.55546,65.6898
1000.0,73895.88,-20.73813,65.6946
2154.4346900318824,58984.98,-22.67383,65.6872
4641.588833612777,52463.74,-32.85129,65.6963
10000.0,37241.25,-49.69385,65.7069
