Frequency,Impedance,Phase Angle,Temperature (Dry Bath)
10.0,1705688.0,-9.462575,67.2596
21.5,1592839.0,-11.36936,67.2665
46.4,1478291.0,-13.66258,67.2585
100.0,1109745.0,-21.32129,67.2776
215.4,1040952.0,-19.16998,67.2697
464.2,873991.3,-36.34365,67.2606
1000.0,608043.1,-52.32726,67.2612
2154.4,357579.8,-62.57257,67.2771
4641.6,180411.6,-70.44889,67.2647
10000.0,97892.04,-73.11908,67.2743
