Frequency,Impedance,Phase Angle,Temperature (Dry Bath)
10.0,19414.04,-19.56069,67.7039
21.5,16703.29,-16.09229,67.6973
46.4,14867.94,-12.70861,67.6982
100.0,13391.47,-8.83544,67.7079
215.4,12805.75,-7.995379,67.7012
464.2,12283.45,-5.426307,67.7016
1000.0,11577.46,-5.986321,67.6893
2154.4,11287.26,-5.621337,67.6828
4641.6,10981.06,-7.084828,67.6917
10000.0,10782.16,-10.87656,67.6791
