Frequency,Impedance,Phase Angle,Temperature (Dry Bath)
10.0,21412420.0,-24.21828,67.913
21.5,23355380.0,-27.06149,67.902
46.4,28205660.0,-53.26521,67.8886
100.0,6050897.0,-56.94321,67.9071
215.4,5096622.0,-115.2001,67.9043
464.2,2615924.0,-72.28759,67.9085
1000.0,1370746.0,-86.0494,67.8713
2154.4,652154.0,-85.39945,67.8838
4641.6,330199.5,-92.21822,67.8846
10000.0,143655.3,-97.27125,67.868
