Frequency,Impedance,Phase Angle,Temperature (Dry Bath)
10.0,1993798.0,-8.955715,67.1676
21.5,1851462.0,-11.92787,67.1655
46.4,1773593.0,-13.7586,67.1592
100.0,1407951.0,-37.17082,67.1538
215.4,194402.0,25.91128,67.1661
464.2,1008523.0,-48.0652,67.1557
1000.0,654205.3,-52.15754,67.1434
2154.4,347939.6,-68.5543,67.1527
4641.6,185986.4,-71.4793,67.1527
10000.0,103430.8,-72.90373,67.172
