Frequency,Impedance,Phase Angle,Temperature (Dry Bath)
10.0,134402.8,-6.464904,67.373
21.5,128437.4,-5.566072,67.3756
46.4,124009.8,-5.166904,67.376
100.0,117265.8,-3.332771,67.3855
215.4,110973.0,-8.454573,67.3661
464.2,112829.8,-8.218309,67.3683
1000.0,105204.2,-12.36619,67.3842
2154.4,100052.1,-18.3374,67.3809
4641.6,84024.98,-30.88296,67.3904
10000.0,61004.78,-49.10738,67.3834
