Frequency,Impedance,Phase Angle,Temperature (Dry Bath)
10.0,13272010.0,17.46412,66.3487
21.544346900318832,5484744.0,-28.07404,66.3373
46.41588833612777,4178150.0,3.111378,66.3553
100.0,657852.7,-68.86076,66.3363
215.44346900318823,483756.2,-94.19305,66.3497
464.15888336127773,1803112.0,47.14379,66.345
1000.0,337405.7,-87.74413,66.3353
2154.4346900318824,257373.3,-95.665,66.3407
4641.588833612777,128734.3,-84.68071,66.3405
10000.0,58614.97,-80.74025,66.3485
