Frequency,Impedance,Phase Angle,Temperature (Dry Bath)
10.0,6601.82,-28.40955,70.9139
21.544346900318832,5223.682,-26.14818,70.908
46.41588833612777,4226.04,-23.34413,70.9009
100.0,3537.661,-19.90662,70.9293
215.44346900318823,3004.488,-17.82065,70.9201
464.15888336127773,2633.555,-15.2206,70.9182
1000.0,2353.23,-12.5112,70.9072
2154.4346900318824,2132.884,-11.30137,70.9204
4641.588833612777,1976.755,-10.11125,70.9068
10000.0,1838.951,-10.32873,70.9308
