Frequency,Impedance,Phase Angle,Temperature (Dry Bath)
10.0,28631770.0,-5.591846,67.1489
21.5,29079620.0,-19.89696,67.1558
46.4,21721180.0,-41.57817,67.1597
100.0,9812651.0,3.402838,67.1539
215.4,14987570.0,-173.687,67.1363
464.2,3064657.0,-96.88232,67.1606
1000.0,938814.9,-80.50185,67.158
2154.4,601508.8,-89.79748,67.1578
4641.6,284220.7,-86.40626,67.1779
10000.0,132749.2,-86.33336,67.1544
