Frequency,Impedance,Phase Angle,Temperature (Dry Bath)
10.0,106628.3,-24.45063,67.7105
21.5,89849.39,-21.82559,67.721
46.4,77775.3,-19.11736,67.7103
100.0,67501.69,-16.06367,67.7061
215.4,62105.93,-12.28227,67.6974
464.2,55669.29,-14.31792,67.7167
1000.0,52357.56,-13.67113,67.6969
2154.4,49283.01,-14.8157,67.7004
4641.6,44365.99,-24.07265,67.7073
10000.0,37328.72,-31.64426,67.7076
