Frequency,Impedance,Phase Angle,Temperature (Dry Bath)
10.0,28342.7,-23.14071,28.7212
21.544346900318832,23514.88,-22.7249,29.107
46.41588833612777,19453.36,-22.39668,28.8978
100.0,16164.66,-22.48464,29.1063
215.44346900318823,13464.87,-21.60323,29.117
464.15888336127773,10973.31,-21.47029,28.9856
1000.0,9422.454,-22.82393,28.9432
2154.4346900318824,7751.735,-22.10603,28.9549
4641.588833612777,6365.912,-21.87191,29.1304
10000.0,5322.726,-19.89169,29.0992
