Frequency,Impedance,Phase Angle,Temperature (Dry Bath)
10.0,136101.9,-25.46541,67.3097
21.5,112996.8,-22.51256,67.3166
46.4,96861.85,-19.42421,67.307
100.0,85307.04,-15.98525,67.2913
215.4,75612.0,-16.16378,67.2934
464.2,69567.58,-14.02553,67.2971
1000.0,62846.13,-15.43941,67.2959
2154.4,57152.89,-19.3876,67.2887
4641.6,49400.88,-26.84781,67.313
10000.0,39450.98,-37.75489,67.279
