Frequency,Impedance,Phase Angle,Temperature (Dry Bath)
10.0,21687790.0,-9.917922,68.1401
21.5,20777230.0,-35.65243,68.1507
46.4,23277500.0,-58.51826,68.1594
100.0,6919422.0,-41.94747,68.1583
215.4,3544512.0,-79.05327,68.1611
464.2,1751423.0,-89.27532,68.1555
1000.0,1065705.0,-82.14898,68.1466
2154.4,529418.6,-85.5582,68.1613
4641.6,248365.0,-87.9479,68.1558
10000.0,123711.7,-96.03109,68.1583
