Frequency,Impedance,Phase Angle,Temperature (Dry Bath)
10.0,190307.1,-21.54,65.8383
21.544346900318832,158432.5,-17.5709,65.8359
46.41588833612777,138386.5,-16.93286,65.8357
100.0,125610.9,-31.42424,65.8399
215.44346900318823,14231.54,122.8652,65.8491
464.15888336127773,82137.15,-23.77646,65.8355
1000.0,80200.37,-16.07706,65.8348
2154.4346900318824,69124.6,-35.65904,65.8435
4641.588833612777,58344.21,-45.93358,65.8571
10000.0,37076.63,-45.73055,65.8426
