Frequency,Impedance,Phase Angle,Temperature (Dry Bath)
10.0,25077520.0,-5.354142,67.925
21.5,21406200.0,-37.69711,67.9456
46.4,28176440.0,-39.62368,67.9242
100.0,4096563.0,-37.28529,67.9288
215.4,4902979.0,-27.36984,67.9413
464.2,2116558.0,-69.77047,67.9347
1000.0,1519106.0,-87.87185,67.9485
2154.4,631115.5,-90.6984,67.9292
4641.6,314707.2,-92.65506,67.9236
10000.0,143022.7,-96.99818,67.9195
