Frequency,Impedance,Phase Angle,Temperature (Dry Bath)
10.0,17028650.0,-21.49267,67.9894
21.5,16804040.0,-20.37859,67.9815
46.4,11371970.0,-54.40482,67.9898
100.0,4799814.0,-34.20247,67.9981
215.4,3560089.0,-81.73947,67.9895
464.2,2386178.0,-75.48563,67.9914
1000.0,1149655.0,-85.4699,68.0114
2154.4,542907.9,-86.80628,67.9838
4641.6,246616.4,-84.93879,67.9905
10000.0,120913.4,-91.07168,67.9986
