Frequency,Impedance,Phase Angle,Temperature (Dry Bath)
10.0,27373720.0,-30.36634,67.5229
21.5,19447060.0,-37.90394,67.5155
46.4,15153260.0,-57.03517,67.5085
100.0,6326634.0,-73.05071,67.518
215.4,226381.2,-38.04158,67.5106
464.2,2422080.0,-73.27451,67.4954
1000.0,959463.2,-80.04956,67.4955
2154.4,451746.1,-83.09022,67.4929
4641.6,232954.6,-81.84014,67.5084
10000.0,111384.2,-84.39186,67.5043
