Frequency,Impedance,Phase Angle,Temperature (Dry Bath)
10.0,41640350.0,-11.86122,67.3836
21.5,28730540.0,-23.62776,67.3888
46.4,18779290.0,-53.65092,67.3747
100.0,14414570.0,25.38907,67.3804
215.4,3809796.0,-67.41922,67.3771
464.2,2294594.0,-84.14692,67.3717
1000.0,1294594.0,-82.83805,67.3841
2154.4,618152.8,-90.78049,67.3876
4641.6,297760.1,-87.37533,67.3943
10000.0,130902.5,-88.48436,67.378
