Frequency,Impedance,Phase Angle,Temperature (Dry Bath)
10.0,531327.9,-10.27437,67.0884
21.5,486839.8,-11.21003,67.0861
46.4,448870.4,-12.81068,67.0737
100.0,425179.2,-16.47939,67.0741
215.4,359370.2,-22.36766,67.0873
464.2,340353.7,-20.92914,67.0813
1000.0,267706.6,-30.16009,67.0892
2154.4,216112.6,-40.95714,67.1155
4641.6,139247.9,-50.75515,67.0907
10000.0,86652.44,-60.0521,67.0628
