Frequency,Impedance,Phase Angle,Temperature (Dry Bath)
10.0,14979720.0,-9.695124,68.1612
21.5,20199490.0,-45.44067,68.1438
46.4,16626660.0,-54.53101,68.1436
100.0,5010778.0,-56.80939,68.1565
215.4,4853025.0,-82.07164,68.1667
464.2,2136987.0,-85.86659,68.1594
1000.0,1051234.0,-84.52166,68.1693
2154.4,478941.3,-88.14105,68.1661
4641.6,269972.0,-89.6083,68.1673
10000.0,140366.8,-87.22679,68.1708
