Frequency,Impedance,Phase Angle,Temperature (Dry Bath)
10.0,23173100.0,-33.51734,67.9537
21.5,29928530.0,-46.82071,67.9511
46.4,26026710.0,-56.52454,67.9628
100.0,9910112.0,-80.8023,67.9294
215.4,2772693.0,-83.58677,67.952
464.2,1837601.0,-73.33598,67.9666
1000.0,968225.1,-80.97948,67.9444
2154.4,504277.3,-81.19781,67.9683
4641.6,249921.1,-86.91152,67.9413
10000.0,129232.7,-94.23319,67.9488
