Frequency,Impedance,Phase Angle,Temperature (Dry Bath)
10.0,500472.3,-15.73549,71.375
21.544346900318832,435554.8,-17.16656,71.3756
46.41588833612777,407641.1,-18.29008,71.3825
100.0,206145.0,-29.11607,71.3731
215.44346900318823,59123.04,-179.9903,71.3805
464.15888336127773,256891.8,-28.17855,71.3915
1000.0,194441.4,-26.51232,71.3744
2154.4346900318824,187672.5,-49.59589,71.3779
4641.588833612777,98935.32,-52.21639,71.3951
10000.0,59993.78,-72.14708,71.3784
