Frequency,Impedance,Phase Angle,Temperature (Dry Bath)
10.0,1169716.0,-11.44066,67.9845
21.5,1058570.0,-11.02393,67.9987
46.4,982304.5,-12.38533,67.9973
100.0,922047.6,-12.50419,67.9794
215.4,782827.5,-24.60431,67.9857
464.2,643346.4,-28.39949,67.9863
1000.0,487401.4,-41.40433,67.9896
2154.4,326988.9,-51.87773,67.9894
4641.6,213916.8,-60.78715,67.9959
10000.0,122349.3,-71.42271,67.976
