Frequency,Impedance,Phase Angle,Temperature (Dry Bath)
10.0,153988.8,-6.47162,68.0203
21.5,147547.9,-5.232359,68.0007
46.4,142865.0,-4.82488,68.0082
100.0,140623.8,-4.478633,68.0069
215.4,138087.9,-6.874362,67.999
464.2,125417.8,-7.150254,67.9875
1000.0,121115.4,-11.60103,68.0123
2154.4,112202.3,-20.19535,68.0238
4641.6,93243.19,-32.85594,68.0265
10000.0,71456.94,-57.04088,67.9986
