Frequency,Impedance,Phase Angle,Temperature (Dry Bath)
10.0,16398600.0,-12.45713,68.1635
21.5,16999720.0,-25.17429,68.1884
46.4,21797320.0,-45.09659,68.1684
100.0,10482710.0,-22.62357,68.1936
215.4,13471210.0,9.859867,68.1763
464.2,2793284.0,-69.39357,68.1791
1000.0,1348416.0,-93.64412,68.1853
2154.4,658143.5,-83.63325,68.1797
4641.6,321702.3,-92.67911,68.1806
10000.0,152026.0,-97.56547,68.1706
