Frequency,Impedance,Phase Angle,Temperature (Dry Bath)
10.0,12360.3,-8.448469,67.3838
21.5,11823.63,-5.300812,67.3976
46.4,11682.83,-5.388164,67.4028
100.0,11557.94,-5.462382,67.4067
215.4,11537.04,-6.108569,67.3731
464.2,11367.61,-6.009246,67.387
1000.0,10963.28,-5.876613,67.3966
2154.4,10657.12,-5.932318,67.4044
4641.6,10293.95,-6.872959,67.3918
10000.0,9935.95,-9.55682,67.3901
