Frequency,Impedance,Phase Angle,Temperature (Dry Bath)
10.0,11542.24,-5.027234,67.2693
21.5,11310.97,-3.951008,67.2544
46.4,11114.78,-3.694315,67.257
100.0,10925.32,-3.920051,67.2636
215.4,11190.07,-6.051981,67.2481
464.2,10619.04,-4.081824,67.2438
1000.0,10331.36,-3.951118,67.2746
2154.4,10122.32,-4.278193,67.2707
4641.6,9909.809,-5.644526,67.2453
10000.0,9641.877,-8.89563,67.2553
