Frequency,Impedance,Phase Angle,Temperature (Dry Bath)
10.0,19629180.0,-23.11125,67.3233
21.5,23576780.0,-33.32055,67.326
46.4,13274350.0,-55.04845,67.3302
100.0,5751237.0,-34.63241,67.3352
215.4,7013748.0,-44.1455,67.3548
464.2,1445476.0,-77.96312,67.3382
1000.0,870635.3,-81.13924,67.3389
2154.4,445541.1,-78.90309,67.3369
4641.6,212863.0,-82.66263,67.3318
10000.0,110373.8,-83.40824,67.3251
