Frequency,Impedance,Phase Angle,Temperature (Dry Bath)
10.0,569956.7,-11.33805,68.1031
21.5,533023.9,-11.01287,68.1153
46.4,491994.0,-11.9051,68.1247
100.0,428337.1,-15.7331,68.1074
215.4,402550.8,-15.5463,68.1253
464.2,352878.7,-22.39528,68.1103
1000.0,285988.8,-27.32462,68.1004
2154.4,221797.3,-37.45456,68.0962
4641.6,152672.9,-47.52074,68.098
10000.0,108475.2,-62.00333,68.0954
