Frequency,Impedance,Phase Angle,Temperature (Dry Bath)
10.0,25580800.0,-15.61899,68.3637
21.5,16585530.0,-18.24484,68.3473
46.4,13268260.0,-49.5158,68.3465
100.0,7392106.0,-14.15861,68.3617
215.4,6495044.0,-49.46607,68.3562
464.2,2838372.0,-95.89606,68.3284
1000.0,1412068.0,-87.0435,68.338
2154.4,750002.0,-86.26896,68.3529
4641.6,319545.3,-96.96655,68.3368
10000.0,159488.2,-95.01691,68.3441
