Frequency,Impedance,Phase Angle,Temperature (Dry Bath)
10.0,155455.2,-6.262021,68.1021
21.5,149643.3,-5.188016,68.1003
46.4,145169.8,-4.664099,68.1209
100.0,134485.6,-5.625997,68.1027
215.4,135781.8,-5.95263,68.0946
464.2,131014.6,-7.944183,68.103
1000.0,124854.1,-11.70668,68.121
2154.4,118796.5,-20.77385,68.0939
4641.6,101577.0,-33.4551,68.0971
10000.0,72649.41,-51.93438,68.0938
