Frequency,Impedance,Phase Angle,Temperature (Dry Bath)
10.0,2090377.0,-10.67616,67.365
21.5,1938121.0,-11.92941,67.3734
46.4,1775550.0,-14.52437,67.3807
100.0,1317811.0,-21.39782,67.3873
215.4,1656157.0,-43.94107,67.3822
464.2,1048882.0,-43.4695,67.3823
1000.0,746906.6,-59.71844,67.3746
2154.4,371598.6,-68.87357,67.3723
4641.6,195193.8,-72.0695,67.387
10000.0,104771.3,-70.8421,67.3821
