Frequency,Impedance,Phase Angle,Temperature (Dry Bath)
10.0,4860583.0,-26.63364,71.3152
21.544346900318832,4492489.0,13.52186,71.3118
46.41588833612777,3739835.0,-25.66345,71.3282
100.0,705035.9,152.1239,71.3204
215.44346900318823,1600026.0,156.7074,71.3204
464.15888336127773,1046919.0,-72.41466,71.3256
1000.0,1768471.0,-64.33487,71.3165
2154.4346900318824,250771.7,-88.61382,71.3179
4641.588833612777,155177.7,-77.30697,71.3173
10000.0,61589.79,-81.40874,71.3068
