Frequency,Impedance,Phase Angle,Temperature (Dry Bath)
10.0,6989493.0,-14.60527,68.2903
21.5,6275873.0,-19.70445,68.2822
46.4,6778341.0,-34.18092,68.2947
100.0,4976228.0,-20.89974,68.2781
215.4,2266920.0,-71.59805,68.2699
464.2,1452264.0,-90.27562,68.2771
1000.0,897292.0,-83.50265,68.286
2154.4,455047.0,-76.96811,68.2726
4641.6,213946.5,-83.93778,68.2784
10000.0,109763.4,-87.91025,68.2745
