Frequency,Impedance,Phase Angle,Temperature (Dry Bath)
10.0,21800.36,-21.68873,71.1107
21.544346900318832,17966.56,-23.26318,71.1001
46.41588833612777,14565.65,-24.64034,71.0864
100.0,11983.85,-24.65421,71.0938
215.44346900318823,9386.669,-25.60009,71.0807
464.15888336127773,7623.173,-24.42624,71.0939
1000.0,6232.089,-25.72407,71.0921
2154.4346900318824,5052.949,-22.69936,71.096
4641.588833612777,4111.759,-20.17104,71.1026
10000.0,3507.544,-18.65439,71.0901
