Frequency,Impedance,Phase Angle,Temperature (Dry Bath)
10.0,3702025.0,-8.045029,71.2977
21.544346900318832,6483143.0,-22.9996,71.3028
46.41588833612777,3021660.0,-33.42959,71.3067
100.0,1293701.0,-139.7323,71.2817
215.44346900318823,241472.3,-32.82993,71.2829
464.15888336127773,820410.6,-118.6004,71.2941
1000.0,291706.3,-51.39831,71.298
2154.4346900318824,210305.6,-88.24699,71.291
4641.588833612777,103737.7,-81.75102,71.2982
10000.0,61925.44,-85.41365,71.3011
