Frequency,Impedance,Phase Angle,Temperature (Dry Bath)
10.0,5406801.0,-10.69971,68.0009
21.5,5079781.0,-17.57107,67.9847
46.4,4949794.0,-27.53956,67.9792
100.0,2350712.0,-36.87339,67.9736
215.4,2744261.0,-57.6936,67.9893
464.2,1380379.0,-72.00588,67.9773
1000.0,794101.4,-73.61071,67.9885
2154.4,388138.4,-76.55891,67.9688
4641.6,232020.4,-79.09123,67.9911
10000.0,112938.8,-85.26102,67.9749
