Frequency,Impedance,Phase Angle,Temperature (Dry Bath)
10.0,156551.1,-6.15379,68.237
21.5,150657.2,-5.030555,68.2429
46.4,145451.5,-4.68284,68.2585
100.0,138443.6,-5.915923,68.2432
215.4,136743.7,-7.180001,68.2445
464.2,128024.6,-6.999801,68.2546
1000.0,123984.2,-12.35222,68.2618
2154.4,114894.6,-19.24647,68.2545
4641.6,98768.74,-33.67291,68.2551
10000.0,73757.92,-55.6236,68.237
