Frequency,Impedance,Phase Angle,Temperature (Dry Bath)
10.0,580383.2,-11.37148,68.1354
21.5,525905.1,-11.08495,68.1568
46.4,487279.3,-11.29248,68.1261
100.0,432484.3,-12.17301,68.1223
215.4,396625.0,-15.06858,68.1308
464.2,348082.2,-21.57536,68.1239
1000.0,288894.2,-27.37148,68.1541
2154.4,224157.4,-35.80151,68.135
4641.6,163122.4,-48.35127,68.1269
10000.0,108201.1,-59.91578,68.1421
