Frequency,Impedance,Phase Angle,Temperature (Dry Bath)
10.0,37036650.0,-15.74547,67.9677
21.5,23238800.0,-30.32404,67.9677
46.4,27103700.0,-47.06036,67.9677
100.0,6440091.0,-53.91808,67.9677
215.4,3557822.0,-76.34984,67.9677
464.2,2253452.0,-83.98205,67.9677
1000.0,1044106.0,-82.96961,67.9677
2154.4,511662.3,-82.96805,67.9677
4641.6,269195.2,-80.32118,67.9677
10000.0,129625.8,-86.45763,67.9677
