Frequency,Impedance,Phase Angle,Temperature (Dry Bath)
10.0,1146812.0,-11.63987,68.042
21.5,1108742.0,-8.760464,68.042
46.4,1044176.0,-10.50458,68.042
100.0,855914.4,-15.70896,68.042
215.4,851741.3,-10.22129,68.042
464.2,722766.4,-19.51768,68.042
1000.0,696241.8,-27.82221,68.042
2154.4,563134.3,-44.57737,68.042
4641.6,333843.3,-63.54862,68.042
10000.0,183955.8,-82.85621,68.042
