Frequency,Impedance,Phase Angle,Temperature (Dry Bath)
10.0,25839540.0,-21.96485,68.1949
21.5,25844750.0,-46.55759,68.1949
46.4,20078850.0,-51.28911,68.1949
100.0,4774744.0,-48.68407,68.1949
215.4,3411481.0,-74.56975,68.1949
464.2,1625488.0,-72.52027,68.1949
1000.0,898781.6,-74.32612,68.1949
2154.4,516709.6,-78.31942,68.1949
4641.6,270548.8,-84.97226,68.1949
10000.0,146097.0,-89.82354,68.1949
