Frequency,Impedance,Phase Angle,Temperature (Dry Bath)
10.0,4816871.0,-12.66576,70.8874
21.544346900318832,4199926.0,4.984206,70.8774
46.41588833612777,5028780.0,-44.92934,70.894
100.0,897632.7,-14.01295,70.8727
215.44346900318823,1203157.0,-163.2322,70.8777
464.15888336127773,579498.7,-47.33576,70.883
1000.0,278253.8,-73.96649,70.8806
2154.4346900318824,285138.9,-95.75633,70.8796
4641.588833612777,114156.8,-87.32749,70.8856
10000.0,53317.66,-82.31979,70.8768
