Frequency,Impedance,Phase Angle,Temperature (Dry Bath)
10.0,11651.1,-4.385186,67.1933
21.5,11343.74,-3.723063,67.2074
46.4,11296.84,-3.487041,67.2074
100.0,11111.19,-3.308637,67.2058
215.4,10963.94,-3.729017,67.196
464.2,10818.47,-3.680033,67.198
1000.0,10573.51,-3.782456,67.2018
2154.4,10372.51,-4.218972,67.1909
4641.6,10147.1,-5.805762,67.202
10000.0,9860.331,-9.087605,67.1999
