Frequency,Impedance,Phase Angle,Temperature (Dry Bath)
10.0,23824920.0,-11.01174,66.9795
21.5,28239440.0,-41.26692,66.9803
46.4,21467250.0,-42.35574,67.0004
100.0,6844362.0,-77.39558,66.991
215.4,494776.3,-131.2476,66.9938
464.2,1779796.0,-77.30486,67.0025
1000.0,892450.7,-76.58083,67.0008
2154.4,468063.1,-87.29241,66.9776
4641.6,229380.0,-82.6297,66.9853
10000.0,115336.2,-79.17472,66.9683
