Frequency,Impedance,Phase Angle,Temperature (Dry Bath)
10.0,7028519.0,-1.596766,70.7786
21.544346900318832,5341381.0,23.07557,70.7766
46.41588833612777,3522628.0,-22.26296,70.7738
100.0,657903.1,-95.91507,70.7759
215.44346900318823,786749.3,-112.4025,70.7764
464.15888336127773,2119717.0,-4.896243,70.7645
1000.0,874266.6,25.22239,70.7801
2154.4346900318824,233954.7,-73.84509,70.7811
4641.588833612777,72440.32,-86.1278,70.7746
10000.0,54905.8,-89.35553,70.7682
