Frequency,Impedance,Phase Angle,Temperature (Dry Bath)
10.0,554585.9,-8.397361,66.9583
21.5,520645.8,-8.803601,66.9773
46.4,489344.0,-10.09747,66.9772
100.0,447648.0,-6.272973,66.9544
215.4,409474.2,-8.926408,66.9693
464.2,424422.0,-23.53074,66.9663
1000.0,306573.7,-31.27412,66.9774
2154.4,245772.1,-42.4285,66.9854
4641.6,156767.4,-54.37934,66.9722
10000.0,92335.89,-62.55048,66.96
