Frequency,Impedance,Phase Angle,Temperature (Dry Bath)
10.0,38707480.0,-10.47353,68.0196
21.5,21769260.0,-27.09331,68.0196
46.4,37754380.0,-52.96684,68.0196
100.0,4392555.0,-20.90231,68.0196
215.4,4191146.0,-93.23327,68.0196
464.2,2564280.0,-84.30075,68.0196
1000.0,1422487.0,-85.39243,68.0196
2154.4,701354.9,-87.91428,68.0196
4641.6,330308.2,-88.32257,68.0196
10000.0,150189.6,-98.88075,68.0196
