Frequency,Impedance,Phase Angle,Temperature (Dry Bath)
10.0,163264.6,-6.140111,67.8034
21.5,157266.9,-5.20041,67.7967
46.4,152498.0,-4.80391,67.7869
100.0,141609.0,-6.349582,67.7913
215.4,142380.6,-7.833651,67.7928
464.2,137238.7,-9.501942,67.7888
1000.0,131214.4,-13.27733,67.7881
2154.4,121104.2,-22.51321,67.8028
4641.6,103618.5,-35.06635,67.7989
10000.0,72918.08,-57.09931,67.788
