Frequency,Impedance,Phase Angle,Temperature (Dry Bath)
10.0,186406.3,-26.68927,65.8328
21.544346900318832,148155.4,-25.06034,65.8455
46.41588833612777,121378.8,-21.96739,65.8392
100.0,102342.9,-16.9032,65.8349
215.44346900318823,145583.8,-20.03362,65.8282
464.15888336127773,77319.36,-14.84017,65.8287
1000.0,70072.53,-17.27926,65.822
2154.4346900318824,69049.09,-21.93063,65.8189
4641.588833612777,50010.06,-32.45934,65.7961
10000.0,36259.05,-49.76514,65.8154
