Frequency,Impedance,Phase Angle,Temperature (Dry Bath)
10.0,1313148.0,-10.41375,68.0452
21.5,1206363.0,-11.17502,68.0311
46.4,1062700.0,-11.97336,68.0537
100.0,791896.6,-16.98259,68.036
215.4,814077.1,-20.50096,68.0516
464.2,758640.7,-26.3994,68.0467
1000.0,523098.2,-38.8504,68.0396
2154.4,400761.1,-52.53291,68.0475
4641.6,255818.8,-61.45473,68.0347
10000.0,134757.1,-72.97203,68.0432
