Frequency,Impedance,Phase Angle,Temperature (Dry Bath)
10.0,35963000.0,-17.17778,67.0586
21.5,33734680.0,-8.201288,67.0665
46.4,18682820.0,-43.27957,67.0609
100.0,6513761.0,15.8861,67.0423
215.4,3514742.0,-74.51346,67.0633
464.2,2648323.0,-100.7739,67.0492
1000.0,1369184.0,-89.78588,67.0617
2154.4,584326.5,-89.4802,67.0449
4641.6,283189.7,-87.26407,67.0504
10000.0,130180.0,-86.63297,67.0643
