Frequency,Impedance,Phase Angle,Temperature (Dry Bath)
10.0,451923.9,-5.601911,67.4096
21.5,438543.4,-5.723703,67.4178
46.4,421115.4,-5.5874,67.3918
100.0,386399.6,-12.35901,67.4016
215.4,233234.1,40.98485,67.4022
464.2,363098.1,-13.34665,67.4062
1000.0,332161.4,-22.01905,67.3987
2154.4,274997.0,-36.75924,67.4092
4641.6,182070.6,-53.12598,67.4065
10000.0,102980.7,-69.16378,67.4161
