Frequency,Impedance,Phase Angle,Temperature (Dry Bath)
10.0,395920.0,-9.996562,67.0849
21.5,368808.6,-10.66803,67.0699
46.4,343883.7,-11.7625,67.0742
100.0,328164.0,-11.72745,67.0666
215.4,285842.6,-21.70986,67.0461
464.2,258786.1,-19.03508,67.0825
1000.0,241838.5,-24.77554,67.0696
2154.4,192813.6,-33.30284,67.0779
4641.6,129575.7,-46.42993,67.0588
10000.0,81843.75,-59.23703,67.0818
