Frequency,Impedance,Phase Angle,Temperature (Dry Bath)
10.0,309551.2,-7.852178,67.2924
21.5,293620.1,-7.756449,67.2825
46.4,277062.1,-8.053554,67.2646
100.0,255464.3,-11.16362,67.2764
215.4,247760.5,-11.34947,67.2664
464.2,240514.8,-12.61432,67.2642
1000.0,209879.5,-16.3206,67.2426
2154.4,184748.7,-30.33303,67.243
4641.6,141754.6,-42.20698,67.2345
10000.0,87654.12,-59.66031,67.248
