Frequency,Impedance,Phase Angle,Temperature (Dry Bath)
10.0,1785994.0,-8.803702,67.3
21.544346900318832,2063266.0,-6.361389,67.3
46.41588833612777,2235179.0,-11.19952,67.3
100.0,4933854.0,-8.363586,67.3
215.44346900318823,2157611.0,-48.16651,67.3
464.15888336127773,1175672.0,0.3440731,67.3
1000.0,651089.8,14.79493,67.3
2154.4346900318824,1409177.0,-35.15947,67.3
4641.588833612777,723964.6,-62.81013,67.3
10000.0,255423.5,-85.11346,67.3
