Frequency,Impedance,Phase Angle,Temperature (Dry Bath)
10.0,27703.62,-21.27389,71.8481
21.544346900318832,23115.15,-22.41491,71.867
46.41588833612777,19009.89,-23.59016,71.8526
100.0,15438.81,-23.92542,71.8546
215.44346900318823,11873.43,-26.63827,71.8532
464.15888336127773,10203.44,-27.33877,71.8551
1000.0,7823.008,-27.51948,71.8519
2154.4346900318824,6030.516,-25.85236,71.8589
4641.588833612777,4886.983,-23.61394,71.8585
10000.0,4087.472,-21.63037,71.8527
