Frequency,Impedance,Phase Angle,Temperature (Dry Bath)
10.0,5714987.0,-20.15963,71.0714
21.544346900318832,4343947.0,-25.14306,71.0904
46.41588833612777,4995115.0,-14.5561,71.0826
100.0,987785.5,-173.441,71.0655
215.44346900318823,780815.8,-14.40964,71.08
464.15888336127773,375132.9,12.0148,71.0755
1000.0,664870.6,-55.91181,71.0855
2154.4346900318824,246919.7,-72.12185,71.0824
4641.588833612777,124339.8,-89.93557,71.0607
10000.0,53568.92,-84.10869,71.0834
