Frequency,Impedance,Phase Angle,Temperature (Dry Bath)
10.0,136165.2,-25.63034,67.0702
21.5,112558.2,-22.39804,67.052
46.4,96002.33,-19.1886,67.0656
100.0,84657.17,-16.77137,67.0683
215.4,74698.6,-16.68864,67.0816
464.2,68534.09,-13.88742,67.0813
1000.0,62021.57,-14.44498,67.0544
2154.4,56553.43,-18.76658,67.083
4641.6,50078.14,-26.00179,67.0679
10000.0,39422.81,-38.07183,67.0708
