Frequency,Impedance,Phase Angle,Temperature (Dry Bath)
10.0,18069910.0,-22.32214,68.1745
21.5,18680440.0,-36.61595,68.1681
46.4,29133870.0,-52.74332,68.1626
100.0,7378041.0,-62.0288,68.1567
215.4,4042907.0,-98.11391,68.1708
464.2,2004265.0,-80.98041,68.1604
1000.0,1007949.0,-80.99374,68.1511
2154.4,503020.6,-87.7938,68.1635
4641.6,227512.3,-89.32675,68.1614
10000.0,107120.5,-93.2054,68.1666
