Frequency,Impedance,Phase Angle,Temperature (Dry Bath)
10.0,4297874.0,-0.660199,71.3523
21.544346900318832,3993954.0,-14.15671,71.3465
46.41588833612777,5026869.0,-26.95177,71.3289
100.0,413881.9,54.67332,71.3406
215.44346900318823,578802.6,29.05005,71.3416
464.15888336127773,911767.2,1.202195,71.3385
1000.0,498157.2,-25.49727,71.3353
2154.4346900318824,249752.2,-92.85266,71.3296
4641.588833612777,164024.6,-82.06734,71.3309
10000.0,60325.48,-87.86873,71.3473
