Frequency,Impedance,Phase Angle,Temperature (Dry Bath)
10.0,29011250.0,-13.88758,67.3663
21.5,26405250.0,-45.8509,67.3692
46.4,14912910.0,-56.94941,67.361
100.0,5856474.0,-14.81315,67.3769
215.4,1464832.0,-77.84768,67.3636
464.2,1922906.0,-89.40909,67.3782
1000.0,985120.0,-75.43241,67.3869
2154.4,450243.9,-80.90237,67.3693
4641.6,226792.0,-83.18628,67.3654
10000.0,113634.1,-84.54923,67.3779
