Frequency,Impedance,Phase Angle,Temperature (Dry Bath)
10.0,7421579.0,-12.94775,71.3175
21.544346900318832,6066841.0,-17.41613,71.3127
46.41588833612777,5097616.0,-16.62665,71.3163
100.0,581061.9,-8.6565,71.3078
215.44346900318823,799231.6,0.03023037,71.3182
464.15888336127773,2026519.0,47.32247,71.3322
1000.0,1248171.0,-125.1932,71.3262
2154.4346900318824,578185.7,-90.84793,71.3266
4641.588833612777,265174.6,-90.38348,71.3191
10000.0,101402.2,-78.51574,71.3198
