Frequency,Impedance,Phase Angle,Temperature (Dry Bath)
10.0,154760.3,-6.305507,68.2283
21.5,148728.8,-5.2103,68.2137
46.4,143682.3,-4.785213,68.2357
100.0,136313.7,-4.694126,68.2248
215.4,133814.8,-4.82316,68.2277
464.2,133389.6,-8.091256,68.2216
1000.0,120171.3,-11.41484,68.2232
2154.4,117095.8,-19.09687,68.232
4641.6,97807.52,-32.58199,68.2237
10000.0,76559.78,-51.55909,68.2427
