Frequency,Impedance,Phase Angle,Temperature (Dry Bath)
10.0,24639.99,-29.29865,70.5101
21.544346900318832,19314.48,-27.23426,70.5164
46.41588833612777,15424.97,-25.15279,70.5161
100.0,12587.82,-21.27039,70.508
215.44346900318823,10453.7,-19.02015,70.5059
464.15888336127773,8980.893,-18.21603,70.5116
1000.0,7762.98,-15.61789,70.5105
2154.4346900318824,7146.878,-12.70261,70.5113
4641.588833612777,6638.157,-13.02262,70.5079
10000.0,6164.628,-13.42077,70.5122
