Frequency,Impedance,Phase Angle,Temperature (Dry Bath)
10.0,676040.7,-9.66216,67.0714
21.5,640424.6,-9.848541,67.0736
46.4,601305.1,-10.8947,67.0595
100.0,483302.4,-13.33259,67.0731
215.4,99275.53,37.59061,67.0652
464.2,457014.1,-14.7778,67.0524
1000.0,360285.6,-30.12006,67.0639
2154.4,274167.3,-47.91284,67.065
4641.6,164363.2,-56.71768,67.0547
10000.0,94206.4,-65.61651,67.043
