Frequency,Impedance,Phase Angle,Temperature (Dry Bath)
10.0,748684.2,-10.54091,67.9819
21.5,701607.6,-9.952669,67.9921
46.4,666396.6,-11.1898,67.9809
100.0,581745.1,-14.52666,67.9961
215.4,553313.9,-16.38487,68.0105
464.2,444111.6,-22.99237,67.9988
1000.0,386878.1,-32.02772,68.0251
2154.4,281286.8,-44.30458,67.9838
4641.6,195554.3,-53.85785,67.995
10000.0,119694.9,-66.78097,67.9946
