Frequency,Impedance,Phase Angle,Temperature (Dry Bath)
10.0,193904.1,-27.01436,65.8543
21.544346900318832,156206.0,-23.89266,65.8578
46.41588833612777,126307.3,-21.44323,65.8531
100.0,114491.8,-20.67981,65.8506
215.44346900318823,4441.665,-26.67801,65.8523
464.15888336127773,87104.06,-19.24795,65.8549
1000.0,75966.61,-24.42825,65.8372
2154.4346900318824,65410.3,-22.24581,65.8399
4641.588833612777,52383.08,-42.10569,65.8488
10000.0,38842.9,-49.99584,65.8402
