Frequency,Impedance,Phase Angle,Temperature (Dry Bath)
10.0,204683.4,-26.67645,66.1704
21.544346900318832,163458.0,-25.15281,66.1768
46.41588833612777,132970.8,-22.3457,66.1878
100.0,117915.1,-20.0215,66.1828
215.44346900318823,117997.8,2.359551,66.1923
464.15888336127773,77500.48,-16.82292,66.1648
1000.0,68840.65,-21.55477,66.1492
2154.4346900318824,56386.75,-24.71346,66.1441
4641.588833612777,46571.54,-40.15471,66.1562
10000.0,31882.55,-53.41258,66.1215
