Frequency,Impedance,Phase Angle,Temperature (Dry Bath)
10.0,27522630.0,-33.50063,67.3327
21.5,24652790.0,-44.80424,67.3445
46.4,13794630.0,-65.18515,67.3209
100.0,7225202.0,15.9269,67.3366
215.4,7981659.0,-8.656475,67.3276
464.2,2088746.0,-75.85107,67.3408
1000.0,958099.8,-85.90051,67.3423
2154.4,457907.0,-80.51969,67.3425
4641.6,226903.9,-81.67624,67.3554
10000.0,114927.6,-84.52367,67.3435
