Frequency,Impedance,Phase Angle,Temperature (Dry Bath)
10.0,24059370.0,0.2509237,67.9879
21.5,17083580.0,-47.19109,68.0228
46.4,13602490.0,-64.00269,68.0076
100.0,4140208.0,-51.01985,68.0141
215.4,4673373.0,-87.1078,68.0087
464.2,2335643.0,-90.26819,67.9996
1000.0,1052686.0,-82.97789,67.9976
2154.4,511649.6,-77.52269,68.0138
4641.6,257920.1,-87.72912,68.015
10000.0,125006.9,-89.59037,68.0099
