Frequency,Impedance,Phase Angle,Temperature (Dry Bath)
10.0,113595.2,-9.61819,67.3207
21.5,106367.6,-8.424797,67.3216
46.4,102345.7,-9.102804,67.3248
100.0,96698.68,-9.227757,67.3246
215.4,91798.31,-8.407026,67.3288
464.2,84982.0,-12.64209,67.3148
1000.0,76200.6,-16.05853,67.3094
2154.4,66961.46,-21.44011,67.3084
4641.6,55423.9,-28.74011,67.3185
10000.0,43186.44,-38.36927,67.3217
