Frequency,Impedance,Phase Angle,Temperature (Dry Bath)
10.0,22669.0,-21.30914,65.7239
21.544346900318832,19125.25,-18.41945,65.7151
46.41588833612777,16590.99,-15.33525,65.7197
100.0,15704.78,-12.21721,65.7191
215.44346900318823,22411.08,-41.62405,65.7135
464.15888336127773,12798.32,-9.357382,65.7112
1000.0,11807.93,-7.981657,65.7424
2154.4346900318824,11508.84,-8.063829,65.7132
4641.588833612777,10413.41,-9.862301,65.6971
10000.0,10163.03,-14.85166,65.7068
