Frequency,Impedance,Phase Angle,Temperature (Dry Bath)
10.0,40950500.0,-30.50006,67.4358
21.5,22554510.0,-35.09362,67.4331
46.4,15990960.0,-68.95614,67.4302
100.0,4097545.0,-66.81133,67.4315
215.4,305334.9,-22.21928,67.4244
464.2,2077309.0,-79.9891,67.4431
1000.0,909797.3,-80.61915,67.4266
2154.4,497951.9,-83.82419,67.4258
4641.6,243404.7,-79.96422,67.4398
10000.0,127955.2,-79.8259,67.4539
