Frequency,Impedance,Phase Angle,Temperature (Dry Bath)
10.0,569454.5,-10.76174,67.2731
21.5,520317.3,-11.28909,67.2632
46.4,480324.7,-13.04446,67.269
100.0,417387.1,-17.20817,67.2677
215.4,375933.8,-22.51716,67.282
464.2,350849.5,-25.34827,67.2657
1000.0,299760.1,-30.48887,67.2718
2154.4,223636.4,-40.55174,67.2706
4641.6,142870.5,-53.34028,67.2795
10000.0,86541.54,-60.99442,67.2766
