Frequency,Impedance,Phase Angle,Temperature (Dry Bath)
10.0,34483850.0,-27.07551,67.0733
21.5,27131070.0,-26.60185,67.0579
46.4,18449170.0,-56.60763,67.0644
100.0,7455340.0,-72.88338,67.0665
215.4,4931628.0,-124.4117,67.0615
464.2,2105867.0,-82.1338,67.0609
1000.0,930032.3,-84.82972,67.0644
2154.4,455520.1,-87.79488,67.0609
4641.6,229219.6,-80.56916,67.068
10000.0,117706.9,-79.37564,67.063
