Frequency,Impedance,Phase Angle,Temperature (Dry Bath)
10.0,137166.5,-18.26789,71.3995
21.544346900318832,117091.5,-17.29537,71.4283
46.41588833612777,101565.4,-16.37461,71.4025
100.0,87953.46,-6.981734,71.4291
215.44346900318823,62305.3,-21.73198,71.4005
464.15888336127773,72548.7,-14.78513,71.4168
1000.0,58286.25,-22.924,71.413
2154.4346900318824,55082.91,-21.93766,71.4146
4641.588833612777,40700.57,-32.6707,71.41
10000.0,32804.91,-50.13454,71.4122
