Frequency,Impedance,Phase Angle,Temperature (Dry Bath)
10.0,12484.49,-27.04681,71.2339
21.544346900318832,10029.2,-24.38764,71.238
46.41588833612777,8262.681,-21.58085,71.2245
100.0,6961.677,-19.26485,71.2308
215.44346900318823,6069.157,-16.26884,71.2565
464.15888336127773,5346.712,-14.69383,71.2339
1000.0,4763.278,-12.83652,71.2509
2154.4346900318824,4324.42,-11.77513,71.2434
4641.588833612777,3977.948,-11.74452,71.2553
10000.0,3672.271,-11.96485,71.2556
