Frequency,Impedance,Phase Angle,Temperature (Dry Bath)
10.0,160062.6,-6.386877,67.9944
21.5,154755.4,-5.371409,68.0099
46.4,149301.9,-4.86018,67.9876
100.0,145845.7,-4.723853,67.9977
215.4,137776.7,-6.578013,68.0047
464.2,135806.4,-8.811619,67.9998
1000.0,130642.3,-12.41932,67.995
2154.4,119461.5,-20.8774,68.0152
4641.6,104016.6,-35.49148,68.0041
10000.0,69350.43,-54.36596,68.0027
