Frequency,Impedance,Phase Angle,Temperature (Dry Bath)
10.0,285652.2,-9.254082,66.9523
21.5,269047.3,-8.140881,66.9597
46.4,256079.6,-7.665139,66.9453
100.0,238116.5,-16.37995,66.9488
215.4,241317.5,-11.59125,66.9572
464.2,221533.4,-14.00509,66.9452
1000.0,189318.3,-21.89821,66.9438
2154.4,156542.2,-37.34543,66.9498
4641.6,107094.7,-50.40579,66.9682
10000.0,63165.2,-61.25895,66.9472
