Frequency,Impedance,Phase Angle,Temperature (Dry Bath)
10.0,17981540.0,-10.46123,68.3157
21.5,18402500.0,-29.44902,68.3157
46.4,13842880.0,-55.21382,68.3157
100.0,7379009.0,-54.68481,68.3157
215.4,4294954.0,-69.24012,68.3157
464.2,2071179.0,-83.31912,68.3157
1000.0,1208551.0,-73.84761,68.3157
2154.4,566815.1,-76.66909,68.3157
4641.6,375550.7,-82.42894,68.3157
10000.0,170151.1,-93.81518,68.3157
