Frequency,Impedance,Phase Angle,Temperature (Dry Bath)
10.0,4631822.0,-23.1597,65.7353
21.544346900318832,4448389.0,0.1569676,65.7196
46.41588833612777,4379385.0,-30.27007,65.7274
100.0,2040184.0,5.779833,65.7184
215.44346900318823,134278.2,-13.23181,65.7289
464.15888336127773,796044.7,-65.06875,65.7255
1000.0,402131.4,-76.014,65.7221
2154.4346900318824,316143.8,-79.31731,65.7245
4641.588833612777,146001.4,-73.9482,65.7275
10000.0,67416.46,-77.83798,65.7069
