Frequency,Impedance,Phase Angle,Temperature (Dry Bath)
10.0,160693.7,-8.966173,65.8423
21.544346900318832,155087.8,-8.298966,65.8562
46.41588833612777,143989.0,-7.706094,65.8446
100.0,80999.19,-2.641495,65.8436
215.44346900318823,13528.67,63.37893,65.8542
464.15888336127773,112895.3,-11.89302,65.854
1000.0,100809.3,-8.929632,65.8561
2154.4346900318824,106004.1,-30.50776,65.8676
4641.588833612777,71007.98,-50.8265,65.8507
10000.0,49214.56,-61.34721,65.8827
