Frequency,Impedance,Phase Angle,Temperature (Dry Bath)
10.0,138258.8,-5.95093,67.2638
21.5,132868.1,-5.037721,67.2586
46.4,128504.9,-4.93295,67.2735
100.0,129548.3,-5.308032,67.2767
215.4,107890.9,22.54786,67.2674
464.2,116926.2,-7.814683,67.2815
1000.0,110833.2,-12.89445,67.2799
2154.4,100698.6,-20.36575,67.2672
4641.6,84446.44,-33.47921,67.2815
10000.0,60765.36,-51.20112,67.2676
