Frequency,Impedance,Phase Angle,Temperature (Dry Bath)
10.0,11964.81,-5.30316,66.9742
21.5,11683.94,-4.29411,66.9925
46.4,11513.57,-4.204628,66.9864
100.0,11454.62,-4.770652,66.9824
215.4,11334.27,-5.146537,66.9831
464.2,11166.54,-5.123362,66.9996
1000.0,10822.15,-5.128397,66.9895
2154.4,10494.61,-5.416345,66.9899
4641.6,10210.81,-6.676497,66.9887
10000.0,9875.698,-9.919914,66.9933
