Frequency,Impedance,Phase Angle,Temperature (Dry Bath)
10.0,157475.8,-9.992419,71.4021
21.544346900318832,149106.6,-9.134891,71.3955
46.41588833612777,139150.9,-8.424719,71.3996
100.0,121915.6,-8.417661,71.4072
215.44346900318823,138542.6,-8.226652,71.4153
464.15888336127773,123589.1,-14.08228,71.4197
1000.0,101509.6,-30.40976,71.4235
2154.4346900318824,81943.77,-29.91719,71.407
4641.588833612777,77578.7,-44.9842,71.4289
10000.0,40534.22,-58.46339,71.4314
