Frequency,Impedance,Phase Angle,Temperature (Dry Bath)
10.0,2025958.0,-9.799905,67.4437
21.5,1925707.0,-12.0144,67.4457
46.4,1772645.0,-13.43459,67.4476
100.0,1412968.0,-27.74174,67.4417
215.4,246615.3,131.5546,67.4315
464.2,1106853.0,-34.73042,67.445
1000.0,667683.2,-63.0092,67.4414
2154.4,372480.4,-68.00432,67.4448
4641.6,189832.2,-69.96758,67.4442
10000.0,105334.7,-72.4524,67.4374
