Frequency,Impedance,Phase Angle,Temperature (Dry Bath)
10.0,5276545.0,-9.255217,71.521
21.544346900318832,4249281.0,-6.571897,71.5004
46.41588833612777,5512033.0,-22.61955,71.5011
100.0,580844.5,-57.28664,71.5127
215.44346900318823,2472712.0,-165.5623,71.4956
464.15888336127773,474500.3,-64.05819,71.5049
1000.0,503818.4,-78.03068,71.5208
2154.4346900318824,355668.5,-115.5912,71.4917
4641.588833612777,168960.5,-80.94998,71.4877
10000.0,86703.93,-97.27142,71.4909
