Frequency,Impedance,Phase Angle,Temperature (Dry Bath)
10.0,135265.4,-6.886542,66.6832
21.5,128818.3,-5.927752,66.6877
46.4,124084.7,-5.578303,66.6902
100.0,119425.2,-7.013479,66.6955
215.4,74090.18,-21.07997,66.6742
464.2,111374.2,-8.821992,66.6863
1000.0,105000.9,-11.60211,66.6857
2154.4,98378.81,-19.43311,66.6952
4641.6,84838.71,-33.39585,66.6944
10000.0,59981.63,-48.53441,66.6922
