Frequency,Impedance,Phase Angle,Temperature (Dry Bath)
10.0,27699620.0,-26.32376,67.3666
21.5,19356420.0,-46.02664,67.3934
46.4,15514910.0,-57.62411,67.3775
100.0,8156155.0,-61.68462,67.3858
215.4,3400696.0,-85.79563,67.3673
464.2,1922400.0,-70.16193,67.3743
1000.0,1035694.0,-83.29225,67.3638
2154.4,441142.6,-79.23147,67.3821
4641.6,232877.8,-82.91031,67.3706
10000.0,110179.0,-84.52603,67.3738
