Frequency,Impedance,Phase Angle,Temperature (Dry Bath)
10.0,6707639.0,4.444925,70.9351
21.544346900318832,5919932.0,-24.03531,70.9037
46.41588833612777,3849782.0,-21.54572,70.934
100.0,658671.1,17.11585,70.9245
215.44346900318823,1074409.0,1.87747,70.9207
464.15888336127773,314735.1,-53.06447,70.9384
1000.0,181454.1,-71.38025,70.9322
2154.4346900318824,182610.8,-91.9417,70.9174
4641.588833612777,93459.93,-72.54866,70.9259
10000.0,52348.5,-83.66361,70.9259
