Frequency,Impedance,Phase Angle,Temperature (Dry Bath)
10.0,24049.32,-20.97832,71.3715
21.544346900318832,20390.64,-18.20217,71.3608
46.41588833612777,17678.16,-15.63251,71.3718
100.0,16103.79,-13.01771,71.3532
215.44346900318823,13808.63,-9.749085,71.3592
464.15888336127773,13211.37,-10.44513,71.3522
1000.0,12411.99,-7.361525,71.3675
2154.4346900318824,11519.0,-8.956278,71.3593
4641.588833612777,10884.84,-10.76261,71.3662
10000.0,10203.7,-14.96278,71.3637
