Frequency,Impedance,Phase Angle,Temperature (Dry Bath)
10.0,153772.8,-6.474416,68.1484
21.5,148235.8,-5.28243,68.1455
46.4,143463.5,-4.713504,68.14
100.0,138147.1,-3.883444,68.1518
215.4,135537.3,-4.832889,68.1249
464.2,129870.4,-7.74165,68.1373
1000.0,121825.1,-11.66229,68.1543
2154.4,111611.5,-17.754,68.1281
4641.6,105489.7,-32.08652,68.1406
10000.0,74908.07,-55.56571,68.1439
