Frequency,Impedance,Phase Angle,Temperature (Dry Bath)
10.0,6568070.0,-12.71987,65.8335
21.544346900318832,7423086.0,15.84543,65.8172
46.41588833612777,4853659.0,-24.23596,65.8305
100.0,956493.2,-75.49271,65.8173
215.44346900318823,598210.1,-131.1901,65.8178
464.15888336127773,797129.9,6.932781,65.834
1000.0,357390.2,-113.2874,65.8377
2154.4346900318824,307978.7,-67.50632,65.8321
4641.588833612777,188481.4,-91.9245,65.844
10000.0,66364.51,-94.90011,65.8355
