Frequency,Impedance,Phase Angle,Temperature (Dry Bath)
10.0,1229575.0,-11.10424,67.1486
21.5,1110197.0,-12.54505,67.1641
46.4,1019027.0,-14.16025,67.1555
100.0,885381.8,-12.61592,67.1779
215.4,478257.1,78.13931,67.1793
464.2,637808.3,-30.12748,67.1481
1000.0,456465.9,-44.78775,67.1485
2154.4,307402.3,-58.09667,67.1483
4641.6,177052.8,-65.66274,67.1509
10000.0,97670.36,-69.89694,67.1314
