Frequency,Impedance,Phase Angle,Temperature (Dry Bath)
10.0,27855960.0,-5.789193,68.0521
21.5,20092340.0,-25.96014,68.0521
46.4,21329760.0,-44.58758,68.0521
100.0,7894667.0,-43.45796,68.0521
215.4,7105611.0,-60.57887,68.0521
464.2,3249640.0,-63.28928,68.0521
1000.0,1414105.0,-88.78116,68.0521
2154.4,759787.3,-93.55259,68.0521
4641.6,315803.4,-88.15653,68.0521
10000.0,156152.9,-98.55971,68.0521
