Frequency,Impedance,Phase Angle,Temperature (Dry Bath)
10.0,30851.24,-21.65016,71.8474
21.544346900318832,25566.98,-23.11548,71.8439
46.41588833612777,20929.58,-24.50958,71.8596
100.0,17335.95,-23.49744,71.8552
215.44346900318823,13030.11,-27.24578,71.8577
464.15888336127773,10339.24,-28.04997,71.8626
1000.0,8177.582,-27.41388,71.8464
2154.4346900318824,6472.157,-27.51532,71.8435
4641.588833612777,4952.124,-24.22701,71.8572
10000.0,4156.207,-22.16982,71.8611
