Frequency,Impedance,Phase Angle,Temperature (Dry Bath)
10.0,12449.86,-8.778995,67.4591
21.5,11752.16,-4.612474,67.4495
46.4,11612.07,-4.710957,67.4621
100.0,11546.08,-5.366771,67.4605
215.4,11470.25,-6.022385,67.463
464.2,11347.73,-6.062904,67.4589
1000.0,10963.28,-5.833657,67.4662
2154.4,10644.73,-5.974267,67.4542
4641.6,10303.96,-6.830792,67.47
10000.0,9949.513,-9.817121,67.4647
