Frequency,Impedance,Phase Angle,Temperature (Dry Bath)
10.0,1100239.0,-11.58228,67.162
21.5,1007245.0,-12.73186,67.1567
46.4,910392.9,-14.10334,67.1808
100.0,725196.8,-10.61811,67.1809
215.4,626869.0,-33.60594,67.1586
464.2,637944.7,-24.58093,67.1554
1000.0,463695.5,-37.98347,67.1521
2154.4,322312.3,-55.47626,67.1663
4641.6,178390.1,-63.08086,67.1457
10000.0,97840.89,-68.72494,67.1465
