Frequency,Impedance,Phase Angle,Temperature (Dry Bath)
10.0,4318679.0,-11.16742,70.9722
21.544346900318832,5513932.0,-17.92497,70.9843
46.41588833612777,5276333.0,-24.42491,70.9762
100.0,966280.2,-17.42026,70.9839
215.44346900318823,1098099.0,-66.95186,70.9763
464.15888336127773,1415640.0,23.88818,70.982
1000.0,813314.8,-93.1336,70.9736
2154.4346900318824,337717.0,-102.3285,70.9721
4641.588833612777,107451.3,-88.83192,70.9808
10000.0,57557.53,-82.64493,70.9875
