Frequency,Impedance,Phase Angle,Temperature (Dry Bath)
10.0,4648493.0,-13.31852,71.4898
21.544346900318832,4838326.0,-13.85535,71.4779
46.41588833612777,7553081.0,-17.12639,71.4842
100.0,482758.7,48.48974,71.4929
215.44346900318823,8377831.0,137.4908,71.4988
464.15888336127773,1843074.0,-10.06646,71.4857
1000.0,1216345.0,-57.57112,71.4823
2154.4346900318824,487255.5,-62.43815,71.4804
4641.588833612777,290721.9,-85.58767,71.4824
10000.0,169122.4,-82.47328,71.4823
