Frequency,Impedance,Phase Angle,Temperature (Dry Bath)
10.0,4743734.0,2.869297,72.144
21.544346900318832,5017370.0,-11.95268,72.1817
46.41588833612777,5679349.0,-6.271272,72.1652
100.0,336844.2,-54.20911,72.1544
215.44346900318823,442933.1,-26.58938,72.1587
464.15888336127773,1273958.0,-55.29509,72.1633
1000.0,350519.7,-4.929685,72.152
2154.4346900318824,286439.5,-1.338004,72.1557
4641.588833612777,170646.9,-77.43942,72.1432
10000.0,122851.7,-102.279,72.1501
