Frequency,Impedance,Phase Angle,Temperature (Dry Bath)
10.0,28750970.0,-7.8113,67.2607
21.5,19455400.0,-30.14428,67.2614
46.4,22159000.0,-44.54315,67.2635
100.0,8642975.0,18.59016,67.2748
215.4,629454.2,-165.1826,67.269
464.2,4179832.0,-93.47657,67.276
1000.0,1104017.0,-81.79413,67.2829
2154.4,570515.4,-85.05883,67.2814
4641.6,267918.4,-88.69676,67.2731
10000.0,129895.4,-85.83021,67.2768
