Frequency,Impedance,Phase Angle,Temperature (Dry Bath)
10.0,21517510.0,-3.178059,68.1281
21.5,22122480.0,-32.36249,68.1372
46.4,30452440.0,-42.33757,68.1431
100.0,5472074.0,-56.2129,68.1413
215.4,4621181.0,-69.02086,68.1249
464.2,3429120.0,-102.4722,68.1377
1000.0,1560407.0,-93.01634,68.1499
2154.4,728820.1,-90.7501,68.1332
4641.6,298026.5,-89.45765,68.1534
10000.0,140922.4,-96.46832,68.1424
