Frequency,Impedance,Phase Angle,Temperature (Dry Bath)
10.0,40244560.0,-4.680173,67.7281
21.5,25836150.0,-47.55709,67.7242
46.4,11311530.0,-53.5275,67.7203
100.0,12265830.0,-66.916,67.7084
215.4,3689661.0,-70.19207,67.7095
464.2,1662355.0,-93.19427,67.704
1000.0,1020583.0,-75.25799,67.707
2154.4,575654.0,-68.52175,67.7205
4641.6,268129.1,-81.43624,67.7139
10000.0,134466.4,-94.59716,67.7185
