Frequency,Impedance,Phase Angle,Temperature (Dry Bath)
10.0,29148980.0,-6.557629,67.3265
21.5,31753560.0,-41.2846,67.3228
46.4,14442220.0,-57.90788,67.2965
100.0,7951248.0,-6.073812,67.3142
215.4,2210506.0,-54.52642,67.3098
464.2,1722124.0,-83.21632,67.3352
1000.0,885175.7,-71.13218,67.318
2154.4,441193.4,-84.14391,67.3045
4641.6,235988.2,-83.14015,67.2915
10000.0,112439.2,-83.25356,67.3115
