Frequency,Impedance,Phase Angle,Temperature (Dry Bath)
10.0,21147500.0,-32.6153,68.1837
21.5,19419750.0,-38.35523,68.182
46.4,16657390.0,-58.30719,68.1726
100.0,3704966.0,-56.82885,68.1873
215.4,4069791.0,-85.30658,68.1731
464.2,1999183.0,-77.33408,68.1715
1000.0,958878.6,-82.86417,68.1812
2154.4,536970.0,-82.64367,68.1873
4641.6,275735.8,-86.37578,68.1946
10000.0,116962.7,-91.01561,68.1829
