Frequency,Impedance,Phase Angle,Temperature (Dry Bath)
10.0,5946580.0,-7.862538,71.3149
21.544346900318832,3715205.0,-11.6492,71.3133
46.41588833612777,3162836.0,-25.26611,71.3128
100.0,3018797.0,132.9396,71.3136
215.44346900318823,658321.7,-61.95838,71.3338
464.15888336127773,529322.7,-53.13524,71.3154
1000.0,1984389.0,-105.4098,71.3145
2154.4346900318824,218862.4,-109.4114,71.3197
4641.588833612777,103617.3,-81.79686,71.3203
10000.0,67149.26,-88.09639,71.3063
