Frequency,Impedance,Phase Angle,Temperature (Dry Bath)
10.0,1804706.0,-9.86088,67.0986
21.5,1699369.0,-12.2119,67.0825
46.4,1570438.0,-14.14177,67.0942
100.0,1306235.0,-12.16995,67.097
215.4,1159248.0,-27.01588,67.0866
464.2,981926.3,-41.07081,67.0941
1000.0,593732.6,-59.68935,67.1026
2154.4,364107.6,-62.34977,67.0928
4641.6,189524.9,-70.39212,67.091
10000.0,101871.1,-72.23489,67.0897
