Frequency,Impedance,Phase Angle,Temperature (Dry Bath)
10.0,87379.04,-12.41463,72.2103
21.544346900318832,79391.62,-10.39773,72.2185
46.41588833612777,74240.69,-9.107714,72.2008
100.0,64813.67,-11.61017,72.1923
215.44346900318823,64360.29,-9.088568,72.2111
464.15888336127773,87002.67,-4.501484,72.194
1000.0,66446.67,-16.53978,72.2048
2154.4346900318824,50028.36,-14.05508,72.2071
4641.588833612777,61468.23,-11.8002,72.2005
10000.0,46422.83,-37.33648,72.2214
