Frequency,Impedance,Phase Angle,Temperature (Dry Bath)
10.0,26739.14,-21.53648,72.2945
21.544346900318832,22086.38,-23.0378,72.2776
46.41588833612777,17996.43,-24.2431,72.2825
100.0,14346.86,-23.80528,72.2878
215.44346900318823,11787.78,-27.13598,72.2907
464.15888336127773,9391.406,-27.22325,72.2774
1000.0,7271.951,-25.26483,72.271
2154.4346900318824,5925.553,-25.33693,72.2982
4641.588833612777,4755.042,-23.27683,72.2932
10000.0,3939.594,-20.8413,72.2724
