Frequency,Impedance,Phase Angle,Temperature (Dry Bath)
10.0,22831.22,-21.43511,65.6424
21.544346900318832,19245.93,-18.39624,65.6644
46.41588833612777,16674.35,-15.43538,65.6531
100.0,14772.78,-11.70052,65.6412
215.44346900318823,14963.48,-9.386362,65.6556
464.15888336127773,12811.39,-9.104205,65.6631
1000.0,11930.32,-6.927163,65.6506
2154.4346900318824,11356.72,-7.729602,65.6513
4641.588833612777,10807.75,-9.575991,65.6658
10000.0,10047.92,-13.35571,65.6661
