Frequency,Impedance,Phase Angle,Temperature (Dry Bath)
10.0,135640.9,-6.390078,67.0381
21.5,129714.2,-5.348232,67.0381
46.4,125038.7,-5.043772,67.0576
100.0,121046.2,-5.98142,67.0371
215.4,119975.6,-5.127273,67.0465
464.2,115480.6,-8.57029,67.0476
1000.0,107275.9,-13.06099,67.0458
2154.4,99394.77,-19.78421,67.0555
4641.6,85610.29,-33.24132,67.0529
10000.0,59551.22,-49.74883,67.0462
