Frequency,Impedance,Phase Angle,Temperature (Dry Bath)
10.0,4747990.0,13.68865,28.4624
21.544346900318832,4890675.0,9.959,28.1921
46.41588833612777,7363434.0,8.366671,28.5805
100.0,1677279.0,131.9837,28.5281
215.44346900318823,2273094.0,-157.3227,28.5563
464.15888336127773,2034918.0,-159.4811,28.6417
1000.0,1116531.0,-126.9647,28.6148
2154.4346900318824,400697.6,-90.65161,28.1578
4641.588833612777,266999.7,-77.20613,28.1854
10000.0,136066.4,-86.53787,28.0468
