Frequency,Impedance,Phase Angle,Temperature (Dry Bath)
10.0,138652.2,-6.027381,67.1684
21.5,132858.4,-5.063917,67.1846
46.4,128631.1,-4.818683,67.1841
100.0,122363.0,-5.592176,67.1649
215.4,120206.3,-5.942895,67.1355
464.2,117665.7,-7.332835,67.1651
1000.0,110207.0,-11.94472,67.1612
2154.4,104592.7,-21.60824,67.1582
4641.6,84576.4,-33.57836,67.1649
10000.0,60420.04,-51.3304,67.1511
