Frequency,Impedance,Phase Angle,Temperature (Dry Bath)
10.0,127085.2,-24.96672,67.394
21.5,104367.2,-21.73687,67.3903
46.4,90735.36,-18.52491,67.3936
100.0,79647.52,-15.75727,67.4025
215.4,54400.91,-18.27291,67.3887
464.2,66541.3,-12.81584,67.3861
1000.0,59901.37,-13.91572,67.4091
2154.4,54918.77,-17.02553,67.3903
4641.6,48628.95,-23.99928,67.3912
10000.0,39551.33,-36.37838,67.4104
