Frequency,Impedance,Phase Angle,Temperature (Dry Bath)
10.0,14797.18,-19.55373,71.1496
21.544346900318832,12744.62,-16.61088,71.1502
46.41588833612777,11241.93,-14.50886,71.1418
100.0,10097.32,-12.34257,71.1313
215.44346900318823,9255.371,-11.16674,71.1353
464.15888336127773,8460.305,-10.22316,71.1358
1000.0,7958.321,-7.897932,71.1384
2154.4346900318824,7290.381,-9.615119,71.1384
4641.588833612777,6835.213,-10.3988,71.1387
10000.0,6355.513,-13.55141,71.1274
