Frequency,Impedance,Phase Angle,Temperature (Dry Bath)
10.0,132819.8,-25.508,67.2866
21.5,108939.5,-22.2337,67.2681
46.4,93903.85,-19.06984,67.2691
100.0,83086.49,-15.39893,67.2689
215.4,73665.2,-39.54629,67.2756
464.2,68535.76,-13.57216,67.2723
1000.0,60685.43,-14.66465,67.2781
2154.4,56253.03,-18.73601,67.2702
4641.6,49595.36,-25.50697,67.2844
10000.0,39520.35,-37.07941,67.2927
