Frequency,Impedance,Phase Angle,Temperature (Dry Bath)
10.0,43387360.0,-23.15105,67.8531
21.5,45256680.0,-34.57227,67.8547
46.4,24105440.0,-53.57666,67.8639
100.0,5597266.0,-47.6302,67.8599
215.4,6617967.0,-85.83252,67.8578
464.2,2543315.0,-82.01524,67.8415
1000.0,981569.5,-77.88852,67.8599
2154.4,525212.0,-80.84984,67.8544
4641.6,249872.2,-84.50291,67.8544
10000.0,127701.5,-90.23591,67.8326
