Frequency,Impedance,Phase Angle,Temperature (Dry Bath)
10.0,157839.0,-8.395129,65.7309
21.544346900318832,147701.0,-8.303443,65.7251
46.41588833612777,140644.0,-7.217692,65.7101
100.0,121449.8,37.49037,65.7185
215.44346900318823,97810.9,-11.57927,65.7188
464.15888336127773,121174.1,-22.75923,65.7146
1000.0,100227.2,-25.00026,65.7197
2154.4346900318824,94596.48,-33.07456,65.7195
4641.588833612777,79610.95,-42.91129,65.7012
10000.0,44798.57,-54.53117,65.7146
