Frequency,Impedance,Phase Angle,Temperature (Dry Bath)
10.0,26080330.0,-10.16857,67.0827
21.5,24064680.0,-26.32135,67.0947
46.4,18596110.0,-34.94013,67.0611
100.0,5093165.0,-40.59411,67.0726
215.4,4715409.0,-81.50489,67.0614
464.2,1997854.0,-102.4962,67.0661
1000.0,1489117.0,-84.40663,67.0825
2154.4,581739.6,-87.7837,67.081
4641.6,273438.8,-88.46594,67.0892
10000.0,131345.0,-88.66276,67.0791
