Frequency,Impedance,Phase Angle,Temperature (Dry Bath)
10.0,5567651.0,-18.13308,65.7012
21.544346900318832,4320544.0,3.396007,65.6894
46.41588833612777,4206693.0,3.154502,65.6699
100.0,1065911.0,-119.0751,65.6774
215.44346900318823,19920.12,135.9068,65.686
464.15888336127773,605226.3,-67.629,65.6604
1000.0,815401.9,-51.68913,65.6679
2154.4346900318824,424104.6,-87.62072,65.6652
4641.588833612777,121364.0,-82.47466,65.6442
10000.0,66741.31,-83.39285,65.6479
