Frequency,Impedance,Phase Angle,Temperature (Dry Bath)
10.0,6498.709,-28.5917,70.9302
21.544346900318832,5131.619,-26.24092,70.923
46.41588833612777,4146.54,-23.3493,70.9384
100.0,3463.384,-20.23515,70.9298
215.44346900318823,2948.71,-17.75025,70.9165
464.15888336127773,2568.362,-14.77213,70.9253
1000.0,2304.476,-12.96036,70.9258
2154.4346900318824,2099.304,-11.12984,70.9302
4641.588833612777,1935.57,-9.946118,70.9281
10000.0,1802.947,-10.30407,70.9308
