Frequency,Impedance,Phase Angle,Temperature (Dry Bath)
10.0,1254741.0,-10.8849,67.1078
21.5,1157841.0,-11.68684,67.1082
46.4,1057517.0,-13.4923,67.1277
100.0,1059926.0,-5.798868,67.1321
215.4,1032895.0,-15.06532,67.1277
464.2,761355.8,-36.54397,67.1207
1000.0,598333.2,-47.40441,67.1127
2154.4,345469.6,-57.44808,67.1291
4641.6,179982.3,-64.8094,67.1153
10000.0,100468.3,-70.43909,67.1086
