Frequency,Impedance,Phase Angle,Temperature (Dry Bath)
10.0,22446.21,-21.8002,65.7306
21.544346900318832,18913.58,-18.51322,65.7311
46.41588833612777,16413.81,-15.5549,65.7178
100.0,14682.24,-12.27608,65.7452
215.44346900318823,13126.0,-13.66572,65.7152
464.15888336127773,12491.3,-9.194816,65.7145
1000.0,11937.15,-7.49356,65.7168
2154.4346900318824,11265.22,-7.070411,65.7204
4641.588833612777,10979.49,-9.548264,65.7219
10000.0,10051.61,-14.52244,65.7274
