Frequency,Impedance,Phase Angle,Temperature (Dry Bath)
10.0,560771.7,-7.73914,67.0117
21.5,528203.2,-8.995925,67.0079
46.4,495243.1,-10.54347,67.0028
100.0,418277.8,-8.448005,67.0009
215.4,104455.6,-60.59465,67.0163
464.2,394177.4,-18.67366,67.0286
1000.0,388728.7,-22.96724,67.0205
2154.4,235076.6,-44.29472,67.0091
4641.6,160991.9,-55.0996,67.0026
10000.0,92353.12,-63.46427,67.0236
