Frequency,Impedance,Phase Angle,Temperature (Dry Bath)
10.0,7322848.0,18.75788,71.3263
21.544346900318832,7572063.0,-13.90103,71.3388
46.41588833612777,4042730.0,-27.41202,71.3451
100.0,495868.9,161.4525,71.336
215.44346900318823,4297461.0,114.5767,71.3416
464.15888336127773,798552.6,-150.9483,71.3253
1000.0,460479.9,-164.6736,71.3593
2154.4346900318824,248283.0,-60.54462,71.3421
4641.588833612777,141513.1,-89.52116,71.3425
10000.0,63540.77,-86.79647,71.3331
