Frequency,Impedance,Phase Angle,Temperature (Dry Bath)
10.0,52291.33,-14.85365,70.466
21.544346900318832,46859.4,-13.62839,70.4861
46.41588833612777,42357.05,-12.59487,70.4681
100.0,43038.39,-8.314253,70.4735
215.44346900318823,32844.98,-13.67176,70.4763
464.15888336127773,32230.99,-16.44222,70.4639
1000.0,29370.75,-15.07935,70.4807
2154.4346900318824,25303.76,-21.69568,70.4709
4641.588833612777,23255.35,-22.16076,70.4804
10000.0,19060.37,-33.71574,70.4812
