Frequency,Impedance,Phase Angle,Temperature (Dry Bath)
10.0,25429060.0,-25.27244,66.9737
21.5,22529290.0,-29.93679,66.9826
46.4,13757720.0,-59.59227,66.9797
100.0,15407650.0,49.29615,66.9653
215.4,2813207.0,-83.73142,66.9782
464.2,1658464.0,-80.53576,66.9783
1000.0,878303.5,-77.8541,66.9703
2154.4,450000.1,-83.26183,66.9595
4641.6,218962.5,-82.78709,66.9729
10000.0,110639.7,-83.57967,66.988
