Frequency,Impedance,Phase Angle,Temperature (Dry Bath)
10.0,4422081.0,-20.58517,71.4083
21.544346900318832,5278582.0,8.972724,71.4211
46.41588833612777,3240887.0,-24.29032,71.4111
100.0,252182.4,62.17948,71.4026
215.44346900318823,1579091.0,-14.16653,71.4125
464.15888336127773,672894.7,-155.2125,71.4102
1000.0,1258425.0,44.12544,71.4356
2154.4346900318824,264264.4,-75.09404,71.4113
4641.588833612777,130004.3,-85.02584,71.4003
10000.0,62913.63,-90.78385,71.4177
