Frequency,Impedance,Phase Angle,Temperature (Dry Bath)
10.0,4289464.0,11.65035,65.7005
21.544346900318832,4291326.0,11.79912,65.705
46.41588833612777,3673568.0,5.031957,65.7091
100.0,1257774.0,60.75931,65.7109
215.44346900318823,24681.89,168.1577,65.7259
464.15888336127773,467790.7,-98.93675,65.7085
1000.0,1013187.0,175.0714,65.7145
2154.4346900318824,265742.6,-84.57434,65.7183
4641.588833612777,174739.6,-73.89162,65.7005
10000.0,74061.26,-86.85176,65.7105
