Frequency,Impedance,Phase Angle,Temperature (Dry Bath)
10.0,4611637.0,-17.68404,65.7721
21.544346900318832,3488365.0,-14.1748,65.7746
46.41588833612777,4167859.0,-14.96115,65.753
100.0,329788.6,-86.50602,65.7679
215.44346900318823,713073.7,-45.58301,65.7634
464.15888336127773,1538259.0,-63.30888,65.7541
1000.0,681326.6,-84.34936,65.7782
2154.4346900318824,316413.3,-68.83431,65.7657
4641.588833612777,164587.5,-90.61827,65.7612
10000.0,73966.01,-88.39312,65.7613
