Frequency,Impedance,Phase Angle,Temperature (Dry Bath)
10.0,433720.7,-5.174932,67.317
21.5,418210.5,-5.195722,67.2977
46.4,402415.2,-5.729739,67.3097
100.0,404434.8,-7.572966,67.3119
215.4,144456.1,-31.03066,67.3029
464.2,342031.9,-12.79075,67.2828
1000.0,321272.1,-21.64233,67.2922
2154.4,263926.3,-36.40439,67.2962
4641.6,184287.3,-54.77129,67.3007
10000.0,101582.9,-68.45701,67.2963
