Frequency,Impedance,Phase Angle,Temperature (Dry Bath)
10.0,12237910.0,10.5633,68.1418
21.5,10483160.0,-6.72428,68.1486
46.4,17895200.0,-62.90546,68.1375
100.0,7441372.0,-77.29028,68.1444
215.4,3994062.0,-66.28566,68.1554
464.2,1637009.0,-77.90666,68.1306
1000.0,1020935.0,-80.15567,68.1432
2154.4,489322.6,-73.73365,68.1436
4641.6,260748.1,-82.81549,68.1499
10000.0,134493.8,-86.84257,68.1443
