Frequency,Impedance,Phase Angle,Temperature (Dry Bath)
10.0,22540.85,-21.60177,65.7684
21.544346900318832,18974.48,-18.52568,65.7463
46.41588833612777,16424.86,-15.28867,65.7548
100.0,14723.73,-12.73963,65.7629
215.44346900318823,76873.15,53.53898,65.7551
464.15888336127773,12905.89,-9.362938,65.7545
1000.0,11869.22,-8.347624,65.7598
2154.4346900318824,11400.44,-7.770476,65.7518
4641.588833612777,10774.61,-9.352489,65.7619
10000.0,10122.44,-14.24619,65.7481
