Frequency,Impedance,Phase Angle,Temperature (Dry Bath)
10.0,27681780.0,-4.327166,67.3311
21.5,28394100.0,-21.58291,67.3343
46.4,20020960.0,-52.68047,67.3355
100.0,7387701.0,-57.20589,67.3416
215.4,1418183.0,-101.5475,67.3464
464.2,4432891.0,-80.11179,67.3455
1000.0,1413104.0,-93.08141,67.3479
2154.4,576069.5,-89.73447,67.3346
4641.6,273933.2,-84.75898,67.3296
10000.0,135951.8,-86.09331,67.3368
