Frequency,Impedance,Phase Angle,Temperature (Dry Bath)
10.0,4652324.0,-17.24894,66.3533
21.544346900318832,3811181.0,-34.33654,66.3515
46.41588833612777,4822095.0,-33.94879,66.3364
100.0,776727.3,179.2736,66.3508
215.44346900318823,367777.9,100.0628,66.3397
464.15888336127773,291901.3,-85.89332,66.3641
1000.0,364333.3,-96.80498,66.3514
2154.4346900318824,257324.9,-59.22121,66.3628
4641.588833612777,149298.3,-82.79203,66.3344
10000.0,58401.85,-90.08415,66.3402
