Frequency,Impedance,Phase Angle,Temperature (Dry Bath)
10.0,11729.85,-4.647858,67.2949
21.5,11398.73,-3.846045,67.2993
46.4,11237.7,-3.589223,67.2826
100.0,11201.66,-3.760203,67.2924
215.4,11013.16,-3.909492,67.2561
464.2,10866.72,-4.018758,67.261
1000.0,10563.16,-3.871516,67.2644
2154.4,10362.0,-4.241245,67.2638
4641.6,10129.6,-5.816763,67.2649
10000.0,9846.406,-9.07332,67.2609
