Frequency,Impedance,Phase Angle,Temperature (Dry Bath)
10.0,18483900.0,-26.00221,68.0326
21.5,16873720.0,-31.06639,68.0326
46.4,20918610.0,-54.49883,68.0326
100.0,5699747.0,-40.5935,68.0326
215.4,3279652.0,-77.68893,68.0326
464.2,1694818.0,-80.37118,68.0326
1000.0,790963.4,-83.44524,68.0326
2154.4,425733.0,-80.09735,68.0326
4641.6,235423.9,-80.74369,68.0326
10000.0,125657.1,-90.00055,68.0326
