Frequency,Impedance,Phase Angle,Temperature (Dry Bath)
10.0,180600.4,-19.32619,65.643
21.544346900318832,153717.8,-17.13702,65.6384
46.41588833612777,135938.3,-15.8823,65.6448
100.0,124203.2,-24.04197,65.6415
215.44346900318823,12459.57,27.37455,65.6478
464.15888336127773,122987.8,-9.53277,65.652
1000.0,79712.73,-22.69671,65.6353
2154.4346900318824,68590.04,-29.47797,65.6552
4641.588833612777,53436.89,-38.29296,65.6428
10000.0,41175.09,-50.42847,65.6259
