Frequency,Impedance,Phase Angle,Temperature (Dry Bath)
10.0,31664550.0,-8.914238,67.3196
21.5,25751490.0,-34.49886,67.334
46.4,18058330.0,-48.82342,67.3318
100.0,2464650.0,-64.87279,67.3339
215.4,3760850.0,-41.64065,67.3293
464.2,2038205.0,-92.89977,67.3291
1000.0,1038359.0,-80.37939,67.3231
2154.4,475426.9,-77.83087,67.3399
4641.6,267116.2,-78.60058,67.3244
10000.0,135012.8,-79.46779,67.3405
