Frequency,Impedance,Phase Angle,Temperature (Dry Bath)
10.0,150987.3,-10.6463,71.3127
21.544346900318832,142582.7,-9.383436,71.3269
46.41588833612777,132166.2,-8.84496,71.3104
100.0,119433.6,-4.200717,71.3209
215.44346900318823,130902.2,-15.92942,71.3123
464.15888336127773,110639.5,-7.738524,71.3293
1000.0,105166.4,-32.94297,71.3195
2154.4346900318824,88193.41,-26.95428,71.3106
4641.588833612777,77862.36,-44.44138,71.3068
10000.0,37850.01,-59.06161,71.3222
