Frequency,Impedance,Phase Angle,Temperature (Dry Bath)
10.0,137807.6,-6.015749,67.483
21.5,132807.0,-4.900891,67.4822
46.4,128164.1,-4.623986,67.4684
100.0,120628.0,-4.826785,67.492
215.4,190899.8,9.995985,67.4806
464.2,116686.7,-8.233623,67.4955
1000.0,111270.2,-11.21663,67.5034
2154.4,105717.7,-19.47895,67.4957
4641.6,86842.14,-32.47427,67.4873
10000.0,63087.58,-49.852,67.4949
