Frequency,Impedance,Phase Angle,Temperature (Dry Bath)
10.0,238552.6,-6.113963,66.9744
21.5,230175.3,-6.074043,66.9824
46.4,221668.7,-6.307002,66.9632
100.0,213362.0,-8.407414,66.9752
215.4,215549.1,-104.9458,66.9722
464.2,195443.3,-14.24351,66.9644
1000.0,168787.3,-20.7728,66.9693
2154.4,139644.1,-34.87228,66.9622
4641.6,98256.84,-47.59369,66.972
10000.0,58946.31,-58.31764,66.9616
