Frequency,Impedance,Phase Angle,Temperature (Dry Bath)
10.0,50378510.0,-29.49182,67.9215
21.5,55615490.0,-37.03339,67.9266
46.4,25018040.0,-57.18108,67.9283
100.0,4525722.0,-21.20086,67.9228
215.4,2450919.0,-91.45932,67.9277
464.2,1884142.0,-74.87638,67.9257
1000.0,925777.1,-81.86372,67.9157
2154.4,534618.1,-83.75213,67.9271
4641.6,255329.2,-88.6857,67.9198
10000.0,128153.3,-92.26149,67.914
