Frequency,Impedance,Phase Angle,Temperature (Dry Bath)
10.0,26682210.0,-5.0621,67.9575
21.5,40054790.0,-28.12119,67.9721
46.4,28921400.0,-46.65878,67.9731
100.0,25360780.0,-62.88908,67.953
215.4,3771849.0,-70.82017,67.9491
464.2,2583298.0,-81.37368,67.9666
1000.0,1361759.0,-98.30763,67.9695
2154.4,689140.0,-93.92567,67.9652
4641.6,299343.2,-92.66213,67.9475
10000.0,168724.7,-99.44703,67.9636
