Frequency,Impedance,Phase Angle,Temperature (Dry Bath)
10.0,32297070.0,-8.462224,68.0222
21.5,38886640.0,-31.03029,68.0107
46.4,33002120.0,-45.97002,68.0183
100.0,10820620.0,-41.44238,68.0249
215.4,4706330.0,-83.30284,68.0184
464.2,3057527.0,-61.60075,68.0215
1000.0,1592208.0,-87.34099,68.0132
2154.4,649148.2,-87.32357,68.0141
4641.6,312359.0,-92.23397,68.0004
10000.0,159549.0,-92.93519,68.0217
