Frequency,Impedance,Phase Angle,Temperature (Dry Bath)
10.0,25271800.0,-10.15779,68.1154
21.5,38890170.0,-31.06862,68.1154
46.4,35458700.0,-45.88049,68.1154
100.0,5464281.0,-39.06129,68.1154
215.4,6594188.0,-70.12819,68.1154
464.2,2822296.0,-81.76856,68.1154
1000.0,1479707.0,-88.51111,68.1154
2154.4,712084.7,-86.80982,68.1154
4641.6,322223.5,-93.57431,68.1154
10000.0,155355.0,-97.72551,68.1154
