Frequency,Impedance,Phase Angle,Temperature (Dry Bath)
10.0,1496778.0,-7.897981,67.298
21.5,1422194.0,-10.37097,67.2971
46.4,1306016.0,-12.07811,67.3056
100.0,911088.1,-4.022604,67.2983
215.4,1407931.0,-20.59202,67.2947
464.2,835584.5,-39.16996,67.3042
1000.0,610050.4,-46.18495,67.2883
2154.4,359026.5,-60.60485,67.2855
4641.6,201946.7,-66.23233,67.2934
10000.0,100291.5,-76.39377,67.296
