Frequency,Impedance,Phase Angle,Temperature (Dry Bath)
10.0,23485.43,-21.05975,66.3673
21.544346900318832,19769.79,-18.29386,66.3677
46.41588833612777,17156.0,-15.5251,66.383
100.0,15701.72,-12.0063,66.3504
215.44346900318823,14494.84,-10.81565,66.3791
464.15888336127773,12808.68,-9.424526,66.3597
1000.0,11684.37,-7.851082,66.3728
2154.4346900318824,11231.12,-8.180786,66.3829
4641.588833612777,11029.63,-9.140344,66.3777
10000.0,10315.8,-14.68941,66.3789
