Frequency,Impedance,Phase Angle,Temperature (Dry Bath)
10.0,1485293.0,-8.457024,67.3141
21.5,1388767.0,-9.543554,67.2969
46.4,1320500.0,-12.06696,67.3092
100.0,1606229.0,-29.23992,67.3011
215.4,1410826.0,-16.56821,67.2919
464.2,860625.7,-35.09433,67.3127
1000.0,569571.7,-50.62623,67.3195
2154.4,361466.2,-62.97715,67.3091
4641.6,198024.7,-72.01205,67.3048
10000.0,105838.3,-71.90559,67.3134
