Frequency,Impedance,Phase Angle,Temperature (Dry Bath)
10.0,40864790.0,-24.71129,67.8508
21.5,43215210.0,-41.76656,67.8879
46.4,21824070.0,-55.90396,67.8871
100.0,8734739.0,-98.66102,67.8797
215.4,3279551.0,-63.74473,67.8685
464.2,2308247.0,-69.87629,67.8758
1000.0,1138023.0,-85.93443,67.8882
2154.4,529724.3,-77.39044,67.8739
4641.6,285320.3,-77.39908,67.8909
10000.0,144946.2,-85.02897,67.8871
