Frequency,Impedance,Phase Angle,Temperature (Dry Bath)
10.0,1482394.0,-8.809279,67.3545
21.5,1437862.0,-9.796121,67.337
46.4,1338230.0,-12.11603,67.3522
100.0,896040.4,-4.678898,67.3431
215.4,691951.6,-26.33171,67.3522
464.2,879332.7,-32.725,67.3528
1000.0,620812.6,-46.49306,67.3559
2154.4,360358.2,-61.23964,67.3473
4641.6,201089.5,-69.03062,67.3438
10000.0,102135.8,-74.72003,67.3559
