Frequency,Impedance,Phase Angle,Temperature (Dry Bath)
10.0,5878167.0,-25.96273,71.5578
21.544346900318832,6093382.0,3.657766,71.561
46.41588833612777,3913884.0,-12.05947,71.5495
100.0,962727.8,71.68264,71.5584
215.44346900318823,4764889.0,178.6775,71.5459
464.15888336127773,1312975.0,-58.34615,71.546
1000.0,2028601.0,120.4842,71.5707
2154.4346900318824,723205.0,-90.27001,71.5639
4641.588833612777,563629.1,-84.93561,71.5531
10000.0,207016.4,-94.92218,71.565
