Frequency,Impedance,Phase Angle,Temperature (Dry Bath)
10.0,17706.05,-29.35398,70.7304
21.544346900318832,13963.33,-26.91591,70.7024
46.41588833612777,11252.85,-24.6299,70.7135
100.0,9299.302,-22.41602,70.7096
215.44346900318823,7770.382,-19.50581,70.7136
464.15888336127773,6712.34,-16.91176,70.7084
1000.0,5961.752,-12.5511,70.7206
2154.4346900318824,5346.14,-11.11193,70.7064
4641.588833612777,4966.137,-10.88253,70.7069
10000.0,4707.208,-11.58677,70.7131
