Frequency,Impedance,Phase Angle,Temperature (Dry Bath)
10.0,158483.1,-6.34046,67.8328
21.5,152607.2,-5.103082,67.8173
46.4,147369.2,-5.006295,67.819
100.0,143649.9,-3.999597,67.8167
215.4,136231.8,-6.008901,67.8293
464.2,134269.8,-9.462651,67.8296
1000.0,126508.0,-12.14338,67.819
2154.4,117104.9,-20.66433,67.8187
4641.6,98688.03,-34.03222,67.822
10000.0,75056.49,-52.44941,67.8311
