Frequency,Impedance,Phase Angle,Temperature (Dry Bath)
10.0,61780.6,-15.05457,71.4802
21.544346900318832,55077.42,-13.47195,71.4929
46.41588833612777,49839.16,-12.17135,71.506
100.0,45963.71,-10.85372,71.4953
215.44346900318823,41188.82,-14.14563,71.5053
464.15888336127773,39689.03,-8.612084,71.5012
1000.0,36506.92,-11.96816,71.5026
2154.4346900318824,33239.96,-10.59778,71.4839
4641.588833612777,30023.81,-14.02716,71.5064
10000.0,27516.72,-21.02839,71.485
