Frequency,Impedance,Phase Angle,Temperature (Dry Bath)
10.0,200387.4,-8.750078,67.4477
21.5,190883.3,-8.504186,67.4588
46.4,180897.5,-8.847347,67.4489
100.0,165801.6,-9.934359,67.4502
215.4,165482.6,-13.99879,67.4478
464.2,149783.1,-13.66229,67.4552
1000.0,129120.9,-17.7789,67.4566
2154.4,112743.2,-29.19355,67.4491
4641.6,85222.02,-38.51585,67.4539
10000.0,58986.04,-47.96169,67.4552
