Frequency,Impedance,Phase Angle,Temperature (Dry Bath)
10.0,1202168.0,-24.58413,71.072
21.544346900318832,977717.1,-20.46421,71.0727
46.41588833612777,723519.2,-26.41654,71.0959
100.0,320885.6,52.66645,71.0768
215.44346900318823,312947.4,-19.58305,71.0678
464.15888336127773,338972.1,-47.12977,71.0874
1000.0,203134.3,-40.93627,71.0709
2154.4346900318824,144014.8,-65.5207,71.065
4641.588833612777,88288.6,-60.50668,71.0718
10000.0,52590.45,-77.39811,71.0841
