Frequency,Impedance,Phase Angle,Temperature (Dry Bath)
10.0,34989470.0,-26.72627,67.9232
21.5,37628720.0,-44.10786,67.9253
46.4,16004650.0,-59.24818,67.9212
100.0,4133740.0,-34.81032,67.9171
215.4,4816080.0,-74.87472,67.9142
464.2,1706051.0,-82.7957,67.9172
1000.0,987483.7,-69.45351,67.8832
2154.4,512186.5,-77.37693,67.9108
4641.6,295527.0,-79.38651,67.9073
10000.0,140983.8,-90.16453,67.9101
