Frequency,Impedance,Phase Angle,Temperature (Dry Bath)
10.0,34454.73,-22.37656,71.0087
21.544346900318832,28864.09,-22.04829,71.0076
46.41588833612777,24035.79,-22.08931,71.0166
100.0,19118.93,-22.62418,71.0061
215.44346900318823,16369.42,-21.55846,71.0117
464.15888336127773,13559.03,-24.26263,71.0063
1000.0,11853.89,-23.77343,71.0125
2154.4346900318824,9274.987,-23.17811,71.0106
4641.588833612777,7354.734,-23.34765,71.0149
10000.0,6188.77,-20.83513,71.0091
