Frequency,Impedance,Phase Angle,Temperature (Dry Bath)
10.0,1244470.0,-10.33345,68.1718
21.5,1174579.0,-10.53456,68.1878
46.4,1046980.0,-12.99875,68.1825
100.0,879381.4,-15.63234,68.1829
215.4,785909.6,-22.7767,68.1776
464.2,731554.0,-31.2925,68.1752
1000.0,504546.2,-40.89123,68.1791
2154.4,324387.9,-52.64931,68.1835
4641.6,204067.5,-61.07945,68.171
10000.0,125201.0,-70.4969,68.1827
