Frequency,Impedance,Phase Angle,Temperature (Dry Bath)
10.0,11873.32,-4.519085,67.2323
21.5,11597.36,-3.733358,67.2277
46.4,11256.12,-3.179686,67.2135
100.0,11148.38,-3.544747,67.2164
215.4,11032.89,-5.764937,67.2161
464.2,10830.53,-3.770311,67.2159
1000.0,10541.9,-3.806452,67.2335
2154.4,10358.56,-4.396795,67.2171
4641.6,10132.34,-5.532107,67.2095
10000.0,9842.829,-8.983967,67.2158
