Frequency,Impedance,Phase Angle,Temperature (Dry Bath)
10.0,140747.2,-5.602925,67.4026
21.5,135630.6,-4.684004,67.4116
46.4,131461.2,-4.40214,67.4154
100.0,126468.3,-5.02722,67.4117
215.4,123864.1,-2.103045,67.4285
464.2,119431.8,-8.69912,67.4158
1000.0,115483.0,-10.99008,67.4229
2154.4,106775.1,-20.24449,67.4169
4641.6,88135.5,-33.62018,67.4177
10000.0,63471.08,-50.53512,67.4169
