Frequency,Impedance,Phase Angle,Temperature (Dry Bath)
10.0,25371610.0,-31.05975,67.2861
21.5,24032610.0,-41.6231,67.2892
46.4,11302500.0,-40.00092,67.2765
100.0,2116962.0,-53.64459,67.2739
215.4,1225975.0,-89.36917,67.289
464.2,2104965.0,-93.32253,67.3009
1000.0,938360.9,-73.8129,67.2917
2154.4,481682.8,-80.60693,67.3015
4641.6,220987.4,-83.16224,67.3027
10000.0,110390.1,-85.12797,67.312
