Frequency,Impedance,Phase Angle,Temperature (Dry Bath)
10.0,1284106.0,-18.80853,65.7064
21.544346900318832,1253093.0,-17.97152,65.7082
46.41588833612777,1118745.0,-12.59653,65.7106
100.0,547356.1,99.70354,65.7092
215.44346900318823,267142.0,-62.28241,65.7139
464.15888336127773,437804.3,-49.94846,65.703
1000.0,1066748.0,-78.38086,65.6945
2154.4346900318824,249032.7,-83.90241,65.7057
4641.588833612777,124768.9,-69.44511,65.7058
10000.0,57884.1,-75.62045,65.7113
