Frequency,Impedance,Phase Angle,Temperature (Dry Bath)
10.0,24331720.0,-11.28602,67.4163
21.5,28769470.0,-28.63726,67.4266
46.4,24820440.0,-47.57333,67.4267
100.0,13425270.0,-37.20331,67.419
215.4,171796.0,127.9427,67.4165
464.2,5986486.0,-51.69014,67.4278
1000.0,1353090.0,-90.33433,67.427
2154.4,586025.0,-84.5711,67.4266
4641.6,271491.7,-89.08063,67.4171
10000.0,128679.7,-87.84813,67.4279
