Frequency,Impedance,Phase Angle,Temperature (Dry Bath)
10.0,6833050.0,19.8116,70.5546
21.544346900318832,5904631.0,-20.65999,70.5732
46.41588833612777,3760587.0,-16.35232,70.5539
100.0,460494.1,-55.90975,70.5456
215.44346900318823,1284929.0,12.99034,70.5579
464.15888336127773,497471.2,-65.24025,70.563
1000.0,397042.0,74.47093,70.5601
2154.4346900318824,288664.4,-74.865,70.564
4641.588833612777,168453.0,-100.4216,70.5561
10000.0,61732.19,-79.65181,70.5447
