Frequency,Impedance,Phase Angle,Temperature (Dry Bath)
10.0,31828490.0,-18.96946,68.1759
21.5,16055370.0,-25.82071,68.171
46.4,17056700.0,-52.28495,68.1812
100.0,8034728.0,-28.72483,68.1786
215.4,21786720.0,-53.8498,68.1787
464.2,2794289.0,-71.08326,68.1784
1000.0,1211069.0,-91.22004,68.1814
2154.4,600223.1,-86.80708,68.1712
4641.6,295571.5,-86.01261,68.1738
10000.0,150819.8,-94.84195,68.1693
