Frequency,Impedance,Phase Angle,Temperature (Dry Bath)
10.0,28086270.0,-24.23749,67.3306
21.5,24714000.0,-27.95774,67.329
46.4,13638140.0,-59.88447,67.3243
100.0,5641192.0,-59.56034,67.3184
215.4,1388501.0,-92.77759,67.3321
464.2,1830284.0,-93.23342,67.3274
1000.0,1162067.0,-76.33627,67.3277
2154.4,535552.5,-82.71946,67.335
4641.6,238804.6,-84.74908,67.3321
10000.0,110870.0,-84.03537,67.3309
