Frequency,Impedance,Phase Angle,Temperature (Dry Bath)
10.0,3793463.0,15.63832,66.1575
21.544346900318832,4481678.0,28.1359,66.1603
46.41588833612777,3713895.0,-36.04966,66.1724
100.0,362079.0,-4.471194,66.169
215.44346900318823,660502.9,84.02706,66.1555
464.15888336127773,602111.6,-0.5294858,66.1676
1000.0,634666.3,-100.9092,66.1606
2154.4346900318824,283379.8,-104.389,66.1642
4641.588833612777,166515.1,-82.16504,66.1524
10000.0,64242.57,-88.9368,66.1697
