Frequency,Impedance,Phase Angle,Temperature (Dry Bath)
10.0,5885307.0,-30.42438,70.7267
21.544346900318832,4452242.0,0.4493513,70.7577
46.41588833612777,4110838.0,-23.12715,70.729
100.0,2059613.0,-7.85583,70.7552
215.44346900318823,918253.9,-57.44365,70.7443
464.15888336127773,999777.2,-1.344909,70.7336
1000.0,757511.1,-138.4163,70.7559
2154.4346900318824,516740.0,-67.92718,70.7626
4641.588833612777,110896.0,-81.79852,70.7615
10000.0,55147.9,-85.45404,70.7542
