Frequency,Impedance,Phase Angle,Temperature (Dry Bath)
10.0,18025.22,-23.75707,71.2619
21.544346900318832,14595.85,-25.25149,71.2651
46.41588833612777,11611.49,-26.19656,71.271
100.0,9167.546,-25.51704,71.2607
215.44346900318823,7366.188,-25.70681,71.2651
464.15888336127773,5973.385,-23.54271,71.2588
1000.0,4850.692,-21.48234,71.2719
2154.4346900318824,4083.044,-19.44437,71.2779
4641.588833612777,3493.51,-17.55506,71.2643
10000.0,3071.672,-16.35529,71.2615
