Frequency,Impedance,Phase Angle,Temperature (Dry Bath)
10.0,255787.4,-9.45374,67.0894
21.5,242690.8,-8.551165,67.0931
46.4,231471.4,-8.382372,67.109
100.0,228765.0,-7.093548,67.0945
215.4,208727.4,-10.43397,67.1173
464.2,203858.1,-12.77319,67.1094
1000.0,173973.6,-20.52464,67.1094
2154.4,144475.1,-34.25104,67.1185
4641.6,102551.6,-46.44668,67.1071
10000.0,63419.61,-58.14613,67.1138
