Frequency,Impedance,Phase Angle,Temperature (Dry Bath)
10.0,15281220.0,-25.38396,68.3157
21.5,16977450.0,-35.07427,68.3157
46.4,16179430.0,-60.36315,68.3157
100.0,8433960.0,-39.46556,68.3157
215.4,4867166.0,-50.5373,68.3157
464.2,1730745.0,-82.91263,68.3157
1000.0,1018073.0,-74.41726,68.3157
2154.4,538590.7,-75.1474,68.3157
4641.6,291582.8,-81.50256,68.3157
10000.0,137641.0,-91.17346,68.3157
