Frequency,Impedance,Phase Angle,Temperature (Dry Bath)
10.0,24520560.0,-25.10464,67.1217
21.5,19577160.0,-42.17009,67.1172
46.4,12913720.0,-60.0492,67.1197
100.0,10625500.0,-10.42523,67.1288
215.4,2234961.0,-67.22615,67.1198
464.2,1612243.0,-89.86425,67.1223
1000.0,787578.7,-70.61206,67.1205
2154.4,441907.7,-80.45892,67.1241
4641.6,222778.3,-76.76493,67.1261
10000.0,116354.9,-81.80933,67.1266
