Frequency,Impedance,Phase Angle,Temperature (Dry Bath)
10.0,21609920.0,-21.60511,67.3788
21.5,20734270.0,-38.35381,67.3965
46.4,13194860.0,-62.17096,67.3719
100.0,3094066.0,-68.20606,67.3984
215.4,11083750.0,91.04698,67.3831
464.2,1970015.0,-87.29426,67.389
1000.0,815202.0,-83.32712,67.3791
2154.4,436861.7,-76.59786,67.3732
4641.6,223492.3,-78.14927,67.3828
10000.0,117439.1,-82.22962,67.3667
