Frequency,Impedance,Phase Angle,Temperature (Dry Bath)
10.0,24494580.0,-27.49807,67.3958
21.5,21501400.0,-47.13926,67.417
46.4,13084310.0,-60.91439,67.4179
100.0,3351803.0,-17.44743,67.4108
215.4,3102655.0,-102.6447,67.4165
464.2,2028984.0,-82.1772,67.4006
1000.0,877789.9,-75.6209,67.424
2154.4,473285.4,-74.36621,67.3949
4641.6,242004.4,-77.85811,67.4005
10000.0,119499.6,-82.76061,67.4099
