Frequency,Impedance,Phase Angle,Temperature (Dry Bath)
10.0,1476507.0,-7.776128,67.1929
21.5,1399686.0,-10.03958,67.1804
46.4,1297300.0,-12.08861,67.1938
100.0,960301.1,-9.690772,67.1694
215.4,1140500.0,-20.72609,67.2014
464.2,1001958.0,-31.76198,67.1864
1000.0,639035.1,-42.8528,67.2084
2154.4,389511.2,-63.56299,67.1857
4641.6,197188.4,-71.13739,67.179
10000.0,102677.5,-75.74823,67.1891
