Frequency,Impedance,Phase Angle,Temperature (Dry Bath)
10.0,19854890.0,-19.55491,68.1467
21.5,14995130.0,-50.58973,68.1325
46.4,17731380.0,-53.87399,68.1424
100.0,5173651.0,-27.61096,68.15
215.4,3721208.0,-57.38096,68.1531
464.2,1590649.0,-75.80355,68.1299
1000.0,1069216.0,-85.15224,68.1438
2154.4,445015.1,-84.52158,68.1471
4641.6,231245.9,-83.3985,68.1327
10000.0,112889.5,-90.75283,68.1393
