Frequency,Impedance,Phase Angle,Temperature (Dry Bath)
10.0,135608.2,-25.52928,67.1376
21.5,110980.5,-22.27217,67.1355
46.4,94863.21,-19.2596,67.1355
100.0,84496.69,-16.72673,67.1397
215.4,70915.76,-57.87852,67.1448
464.2,68562.98,-13.91666,67.1358
1000.0,61831.95,-15.34857,67.142
2154.4,57396.55,-17.90785,67.1498
4641.6,49726.94,-26.16052,67.1478
10000.0,39806.54,-38.68118,67.1618
