Frequency,Impedance,Phase Angle,Temperature (Dry Bath)
10.0,134531.1,-6.340726,67.4568
21.5,130872.6,-5.40928,67.4385
46.4,126891.5,-5.013921,67.4517
100.0,128506.2,-6.089948,67.4587
215.4,121516.0,-5.175894,67.4707
464.2,116330.6,-7.015032,67.4504
1000.0,109401.9,-11.37223,67.4494
2154.4,101105.0,-19.71771,67.4626
4641.6,88497.31,-31.94318,67.445
10000.0,62312.7,-49.19503,67.4576
