Frequency,Impedance,Phase Angle,Temperature (Dry Bath)
10.0,3054398.0,-2.914318,65.8106
21.544346900318832,4448155.0,1.880887,65.8088
46.41588833612777,4447450.0,-29.84324,65.7758
100.0,568098.5,60.16423,65.7913
215.44346900318823,38590.59,-44.15376,65.783
464.15888336127773,648082.4,-117.7579,65.7885
1000.0,483187.5,-80.64747,65.7837
2154.4346900318824,327598.7,-91.64668,65.7864
4641.588833612777,130038.9,-85.91296,65.8042
10000.0,66331.15,-81.40005,65.8087
