Frequency,Impedance,Phase Angle,Temperature (Dry Bath)
10.0,117983.8,-24.62558,67.2286
21.5,98546.57,-21.49078,67.2363
46.4,84686.22,-18.31728,67.2118
100.0,75260.81,-15.04046,67.2311
215.4,78846.63,-1.52119,67.1967
464.2,61515.29,-12.96379,67.2062
1000.0,56496.26,-13.4767,67.2207
2154.4,52343.89,-15.98635,67.2074
4641.6,46756.25,-23.08793,67.2145
10000.0,38797.01,-34.87769,67.2109
