Frequency,Impedance,Phase Angle,Temperature (Dry Bath)
10.0,61272.24,-10.56584,29.1675
21.544346900318832,56797.43,-8.643051,29.1544
46.41588833612777,53249.98,-7.600731,29.2353
100.0,46961.89,-9.375001,28.4846
215.44346900318823,49004.25,-3.398527,28.5917
464.15888336127773,47085.74,-5.348209,28.7636
1000.0,43940.92,-6.252627,28.6247
2154.4346900318824,40584.23,-13.11347,28.8543
4641.588833612777,40478.95,-11.64231,28.54
10000.0,35323.97,-25.37484,28.8775
