Frequency,Impedance,Phase Angle,Temperature (Dry Bath)
10.0,14319.16,-29.15299,70.7998
21.544346900318832,11471.7,-26.62868,70.7638
46.41588833612777,9335.975,-24.21243,70.7885
100.0,7769.218,-20.82114,70.7638
215.44346900318823,6517.444,-18.31962,70.786
464.15888336127773,5680.543,-15.63255,70.7666
1000.0,4992.212,-12.33792,70.7889
2154.4346900318824,4553.59,-11.09283,70.7985
4641.588833612777,4239.439,-10.35312,70.7817
10000.0,4018.111,-10.84649,70.7767
