Frequency,Impedance,Phase Angle,Temperature (Dry Bath)
10.0,7667.387,-35.66667,70.598
21.544346900318832,5790.719,-31.16118,70.6007
46.41588833612777,4547.857,-26.77469,70.5858
100.0,3690.092,-22.73128,70.5832
215.44346900318823,3143.149,-18.90175,70.6003
464.15888336127773,2735.852,-15.47049,70.6101
1000.0,2441.768,-13.03169,70.6005
2154.4346900318824,2194.8,-11.27478,70.6061
4641.588833612777,2051.155,-9.726106,70.6053
10000.0,1923.351,-9.192656,70.5978
