Frequency,Impedance,Phase Angle,Temperature (Dry Bath)
10.0,1199743.0,-10.39439,67.8333
21.5,1087750.0,-10.56535,67.8354
46.4,1013092.0,-12.03017,67.8292
100.0,900489.8,-13.09996,67.836
215.4,811047.7,-20.12164,67.8519
464.2,661471.0,-33.03348,67.8192
1000.0,547305.6,-37.89538,67.8324
2154.4,395744.2,-47.221,67.8348
4641.6,240077.0,-62.03485,67.821
10000.0,149283.3,-74.3739,67.8322
