Frequency,Impedance,Phase Angle,Temperature (Dry Bath)
10.0,256174.6,-24.18827,71.1868
21.544346900318832,216872.3,-20.94621,71.2075
46.41588833612777,184031.2,-19.98497,71.1916
100.0,124467.3,-13.94948,71.2038
215.44346900318823,126161.6,-21.47672,71.2044
464.15888336127773,115568.6,-26.68369,71.1943
1000.0,77158.82,-11.88337,71.1928
2154.4346900318824,89160.98,-32.54228,71.2002
4641.588833612777,72124.29,-44.5697,71.1922
10000.0,40678.71,-54.91492,71.1898
