Frequency,Impedance,Phase Angle,Temperature (Dry Bath)
10.0,30632870.0,-13.41602,68.092
21.5,20700040.0,-37.69137,68.0919
46.4,26829990.0,-54.3825,68.0731
100.0,8109129.0,-53.18815,68.0968
215.4,3232965.0,-94.15687,68.089
464.2,1767509.0,-92.0346,68.0695
1000.0,1161829.0,-80.19328,68.0831
2154.4,600895.0,-76.13221,68.0955
4641.6,286760.7,-80.24703,68.0955
10000.0,161112.9,-91.9529,68.0698
