Frequency,Impedance,Phase Angle,Temperature (Dry Bath)
10.0,1116527.0,-9.523344,67.9894
21.5,1058334.0,-10.59811,67.9962
46.4,994599.7,-12.41104,67.9841
100.0,819481.7,-14.20463,67.9843
215.4,824350.7,-23.37112,67.9881
464.2,648267.5,-31.26767,67.988
1000.0,467939.1,-41.14609,67.9837
2154.4,325432.7,-48.62651,67.9994
4641.6,209248.0,-58.61812,67.9812
10000.0,129152.0,-70.13037,67.9944
