Frequency,Impedance,Phase Angle,Temperature (Dry Bath)
10.0,28779840.0,-10.63436,67.3614
21.5,21136370.0,-34.62637,67.3718
46.4,18788340.0,-70.39642,67.3534
100.0,3600092.0,-85.15841,67.3477
215.4,325494.3,-117.1481,67.342
464.2,2182928.0,-70.47358,67.3586
1000.0,1046364.0,-87.02263,67.3414
2154.4,488759.3,-82.57772,67.3474
4641.6,241502.8,-80.26413,67.3489
10000.0,123535.8,-78.84864,67.3575
