Frequency,Impedance,Phase Angle,Temperature (Dry Bath)
10.0,276725.7,-10.00827,67.497
21.5,261576.5,-9.333691,67.4859
46.4,245978.4,-9.548195,67.4774
100.0,236696.5,-10.75089,67.5019
215.4,61178.14,-76.36878,67.5139
464.2,194217.0,-14.77895,67.4862
1000.0,173808.7,-22.53366,67.5045
2154.4,140999.5,-34.29084,67.4827
4641.6,99737.68,-41.83178,67.5045
10000.0,65489.77,-54.4037,67.5055
