Frequency,Impedance,Phase Angle,Temperature (Dry Bath)
10.0,1107453.0,-11.96299,67.1022
21.5,995064.6,-12.53722,67.0685
46.4,899907.1,-14.77113,67.0898
100.0,753001.7,-16.19105,67.0884
215.4,723976.5,-28.73521,67.0846
464.2,651177.2,-30.80701,67.0873
1000.0,464297.5,-38.91473,67.0761
2154.4,313360.4,-56.14433,67.1088
4641.6,175976.8,-63.16677,67.0839
10000.0,96658.7,-69.16176,67.0859
