Frequency,Impedance,Phase Angle,Temperature (Dry Bath)
10.0,8075090.0,22.34022,70.9444
21.544346900318832,4099333.0,-18.80425,70.9343
46.41588833612777,3613751.0,-37.22719,70.9266
100.0,461486.6,-35.18453,70.9394
215.44346900318823,1238157.0,121.057,70.926
464.15888336127773,615269.5,-123.5108,70.938
1000.0,530943.0,-60.95071,70.9248
2154.4346900318824,280533.1,-93.6439,70.9304
4641.588833612777,125744.4,-90.63361,70.946
10000.0,62954.81,-83.10387,70.9407
