Frequency,Impedance,Phase Angle,Temperature (Dry Bath)
10.0,22577.44,-21.62908,65.7047
21.544346900318832,18978.49,-18.48903,65.6882
46.41588833612777,16494.68,-15.49379,65.6925
100.0,14524.6,-11.9952,65.7042
215.44346900318823,20906.29,20.16174,65.6935
464.15888336127773,12524.34,-8.045806,65.6911
1000.0,11827.45,-9.446697,65.6833
2154.4346900318824,11390.35,-7.126818,65.6876
4641.588833612777,10691.26,-9.967154,65.7036
10000.0,10290.33,-13.68893,65.7002
