Frequency,Impedance,Phase Angle,Temperature (Dry Bath)
10.0,19135040.0,-31.10018,68.1676
21.5,18042340.0,-33.51394,68.1891
46.4,15065060.0,-54.02603,68.1806
100.0,4846498.0,-58.43335,68.1842
215.4,4765007.0,-82.25516,68.1784
464.2,2167733.0,-79.49212,68.1947
1000.0,1054857.0,-84.52425,68.1934
2154.4,497373.3,-80.05668,68.1817
4641.6,267067.8,-83.43843,68.178
10000.0,145169.8,-89.68406,68.1879
