Frequency,Impedance,Phase Angle,Temperature (Dry Bath)
10.0,5685593.0,-8.820906,71.2067
21.544346900318832,5294028.0,-26.33033,71.1875
46.41588833612777,5002654.0,-40.08476,71.2027
100.0,865396.7,50.65294,71.2058
215.44346900318823,301106.9,-61.83546,71.2028
464.15888336127773,1650795.0,-106.5968,71.1944
1000.0,419619.4,-68.34514,71.2071
2154.4346900318824,330870.7,-81.45134,71.2012
4641.588833612777,123193.7,-98.78425,71.1997
10000.0,68362.46,-86.15127,71.1981
