Frequency,Impedance,Phase Angle,Temperature (Dry Bath)
10.0,656615.8,-13.73181,68.1535
21.5,598176.9,-12.40673,68.1535
46.4,553179.2,-13.00886,68.1535
100.0,479899.0,-14.50191,68.1535
215.4,439231.8,-14.22609,68.1535
464.2,389829.1,-22.07595,68.1535
1000.0,326456.4,-28.66234,68.1535
2154.4,251383.4,-34.84905,68.1535
4641.6,195859.1,-43.94229,68.1535
10000.0,129638.5,-65.73657,68.1535
