Frequency,Impedance,Phase Angle,Temperature (Dry Bath)
10.0,7797.463,-35.57839,70.819
21.544346900318832,5884.303,-31.20222,70.8045
46.41588833612777,4617.896,-26.89639,70.8157
100.0,3750.651,-22.68403,70.8223
215.44346900318823,3189.166,-18.58496,70.8035
464.15888336127773,2775.187,-15.2419,70.8042
1000.0,2476.351,-13.28299,70.8227
2154.4346900318824,2250.788,-11.14252,70.8265
4641.588833612777,2065.261,-9.635777,70.8125
10000.0,1933.194,-9.448656,70.7997
