Frequency,Impedance,Phase Angle,Temperature (Dry Bath)
10.0,217765.3,-8.069281,67.8444
21.5,184324.4,-9.810701,67.8494
46.4,175598.2,-9.437914,67.8451
100.0,194602.0,-10.21911,67.8504
215.4,183132.5,-10.39943,67.8717
464.2,174257.9,-14.80418,67.8509
1000.0,156571.2,-19.39616,67.8605
2154.4,138962.0,-26.62201,67.8685
4641.6,108770.8,-40.46694,67.853
10000.0,74670.87,-54.76084,67.8522
