Frequency,Impedance,Phase Angle,Temperature (Dry Bath)
10.0,4370274.0,-9.891269,71.1392
21.544346900318832,4857900.0,19.59697,71.1393
46.41588833612777,4362973.0,-9.924092,71.1516
100.0,1968975.0,152.672,71.1455
215.44346900318823,321318.3,102.1569,71.1336
464.15888336127773,922112.7,-93.46491,71.1279
1000.0,388362.1,-89.59512,71.1367
2154.4346900318824,370790.3,-129.1247,71.1348
4641.588833612777,504376.9,-106.6812,71.1503
10000.0,158906.8,-108.662,71.14
