Frequency,Impedance,Phase Angle,Temperature (Dry Bath)
10.0,23488.68,-17.85552,71.4061
21.544346900318832,20203.22,-16.87991,71.4124
46.41588833612777,17573.11,-16.25962,71.3986
100.0,14992.63,-14.53944,71.4193
215.44346900318823,13631.44,-13.77858,71.4174
464.15888336127773,12358.83,-13.22683,71.3945
1000.0,11136.38,-10.19573,71.4045
2154.4346900318824,10427.9,-10.24975,71.4077
4641.588833612777,9573.978,-11.36443,71.4008
10000.0,8958.191,-12.97784,71.4007
