Frequency,Impedance,Phase Angle,Temperature (Dry Bath)
10.0,15872510.0,-4.43606,68.0002
21.5,21498560.0,-33.52729,68.015
46.4,20077060.0,-44.66487,67.989
100.0,4247661.0,-41.93585,67.9846
215.4,6410744.0,-78.64181,67.9964
464.2,2718331.0,-87.75815,67.9891
1000.0,1269811.0,-90.21039,68.004
2154.4,627969.5,-92.70321,67.9727
4641.6,312894.4,-96.14789,67.9996
10000.0,153210.1,-96.96957,67.9854
