Frequency,Impedance,Phase Angle,Temperature (Dry Bath)
10.0,39332140.0,-21.93149,67.0844
21.5,18168320.0,-37.18495,67.0841
46.4,24092100.0,-69.07856,67.0779
100.0,5886370.0,-73.86161,67.0956
215.4,207544.8,-100.0039,67.073
464.2,1778566.0,-83.84864,67.0626
1000.0,858331.4,-81.23187,67.086
2154.4,440734.8,-82.88231,67.0864
4641.6,213821.7,-82.7912,67.0875
10000.0,109517.6,-83.30286,67.0711
