Frequency,Impedance,Phase Angle,Temperature (Dry Bath)
10.0,127768.2,-24.78021,67.0983
21.5,106214.2,-21.7944,67.0955
46.4,90279.27,-18.64132,67.0996
100.0,80251.09,-15.19242,67.096
215.4,72123.41,-15.13824,67.0927
464.2,66172.73,-12.94479,67.083
1000.0,60893.21,-14.25874,67.0731
2154.4,55810.83,-17.21381,67.0893
4641.6,49219.57,-24.8835,67.0727
10000.0,39841.49,-36.97859,67.084
