Frequency,Impedance,Phase Angle,Temperature (Dry Bath)
10.0,151552.7,-10.68251,71.373
21.544346900318832,140364.9,-9.970306,71.3769
46.41588833612777,129704.9,-9.500372,71.3797
100.0,120681.1,-9.329185,71.3726
215.44346900318823,119750.5,-1.730257,71.3703
464.15888336127773,122549.7,-19.28675,71.36
1000.0,139643.6,-22.56688,71.3787
2154.4346900318824,75075.55,-29.21611,71.3696
4641.588833612777,67041.2,-46.28673,71.3637
10000.0,45222.3,-55.65181,71.3749
