Frequency,Impedance,Phase Angle,Temperature (Dry Bath)
10.0,12332.55,-23.67539,70.9627
21.544346900318832,10336.69,-19.92168,70.9506
46.41588833612777,8901.17,-16.88377,70.9538
100.0,7876.526,-14.00678,70.9349
215.44346900318823,7036.256,-12.09071,70.942
464.15888336127773,6475.692,-10.43378,70.9544
1000.0,5978.967,-9.772,70.9355
2154.4346900318824,5575.476,-9.016822,70.9518
4641.588833612777,5228.563,-8.954653,70.9462
10000.0,5013.321,-10.42174,70.9543
