Frequency,Impedance,Phase Angle,Temperature (Dry Bath)
10.0,12472.23,-23.48149,70.9826
21.544346900318832,10447.72,-19.93778,70.9867
46.41588833612777,9015.777,-16.82704,70.9925
100.0,7901.33,-14.33793,70.9792
215.44346900318823,7258.221,-12.11286,70.9871
464.15888336127773,6515.01,-11.04105,70.9853
1000.0,6017.398,-9.345082,70.9879
2154.4346900318824,5605.46,-8.666712,70.986
4641.588833612777,5287.608,-9.225516,70.9874
10000.0,4982.96,-10.83742,70.996
