Frequency,Impedance,Phase Angle,Temperature (Dry Bath)
10.0,138963.6,-5.966544,67.1453
21.5,133216.1,-5.09438,67.1491
46.4,128963.8,-4.896226,67.123
100.0,123876.3,-6.726527,67.1336
215.4,71409.62,-18.22857,67.147
464.2,119711.2,-6.999495,67.1355
1000.0,111125.8,-12.23903,67.1317
2154.4,105247.0,-20.65346,67.1496
4641.6,85006.88,-35.40318,67.1677
10000.0,58995.66,-51.42565,67.1575
