Frequency,Impedance,Phase Angle,Temperature (Dry Bath)
10.0,145820.3,-20.16335,67.9795
21.5,125675.9,-18.43066,67.9751
46.4,112716.9,-17.03451,67.9702
100.0,102077.2,-15.63148,67.9748
215.4,97567.98,-16.26934,67.9672
464.2,86875.93,-15.82803,67.9789
1000.0,80100.07,-18.49089,67.9827
2154.4,70410.33,-20.77762,67.9666
4641.6,61021.97,-28.21148,67.97
10000.0,48671.38,-39.65297,67.9686
