Frequency,Impedance,Phase Angle,Temperature (Dry Bath)
10.0,28036650.0,-29.96788,67.3109
21.5,26712360.0,-40.62053,67.2986
46.4,10044120.0,-74.22649,67.3048
100.0,4512444.0,10.45504,67.3034
215.4,631569.0,-118.9438,67.2901
464.2,2000507.0,-68.74743,67.3102
1000.0,918851.2,-81.28403,67.31
2154.4,483693.8,-82.74669,67.3119
4641.6,233634.4,-81.53101,67.3139
10000.0,109827.2,-82.65915,67.3145
