Frequency,Impedance,Phase Angle,Temperature (Dry Bath)
10.0,11593.24,-4.977543,67.412
21.5,11334.91,-4.079037,67.4017
46.4,11156.6,-3.85096,67.4163
100.0,11045.59,-3.94183,67.4052
215.4,11474.46,-6.559617,67.4085
464.2,10678.32,-4.165737,67.4002
1000.0,10390.79,-4.071812,67.4043
2154.4,10193.58,-4.366947,67.404
4641.6,9941.611,-5.679788,67.4037
10000.0,9688.744,-9.045233,67.4033
