Frequency,Impedance,Phase Angle,Temperature (Dry Bath)
10.0,15367330.0,-5.025843,67.9709
21.5,17335000.0,-43.53268,67.96
46.4,16642940.0,-58.53932,67.9611
100.0,6107787.0,-46.0466,67.9714
215.4,4102004.0,-86.17551,67.9753
464.2,2132882.0,-83.0388,67.9603
1000.0,1168049.0,-84.23943,67.9579
2154.4,528327.3,-88.24098,67.9694
4641.6,237846.4,-84.16412,67.9767
10000.0,112779.9,-94.58043,67.9589
