Frequency,Impedance,Phase Angle,Temperature (Dry Bath)
10.0,44503670.0,-21.48075,67.0223
21.5,22249700.0,-27.58858,67.0151
46.4,22453860.0,-51.697,67.0251
100.0,9256915.0,-64.16361,67.019
215.4,234216.3,-120.5368,67.0285
464.2,2973371.0,-82.81064,67.033
1000.0,2227715.0,-69.78108,67.0148
2154.4,532388.1,-84.72482,67.0093
4641.6,266925.0,-88.29365,67.0163
10000.0,134603.6,-88.13878,67.0238
