Frequency,Impedance,Phase Angle,Temperature (Dry Bath)
10.0,21279540.0,-25.69062,67.9339
21.5,23264600.0,-34.5583,67.9294
46.4,28227160.0,-52.20755,67.932
100.0,9149215.0,-38.6837,67.9511
215.4,3291143.0,-74.18759,67.94
464.2,1990547.0,-72.96672,67.9303
1000.0,1075958.0,-83.91163,67.9209
2154.4,471304.3,-87.37305,67.9217
4641.6,227201.2,-84.01801,67.9318
10000.0,123987.7,-94.30564,67.9454
