Frequency,Impedance,Phase Angle,Temperature (Dry Bath)
10.0,117098.5,-25.19542,67.7671
21.5,97900.63,-22.07424,67.7692
46.4,83907.92,-19.09718,67.7699
100.0,73082.68,-14.48161,67.7652
215.4,64870.17,-11.98935,67.782
464.2,61526.6,-13.49188,67.7854
1000.0,55059.62,-14.69804,67.7758
2154.4,51157.9,-16.43883,67.7931
4641.6,45443.7,-22.68425,67.7893
10000.0,38976.61,-34.60995,67.7726
