Frequency,Impedance,Phase Angle,Temperature (Dry Bath)
10.0,4630457.0,2.878463,65.8811
21.544346900318832,4066265.0,-4.295549,65.859
46.41588833612777,5671850.0,-35.44004,65.8605
100.0,1686048.0,26.33349,65.8719
215.44346900318823,389304.8,-97.91326,65.8695
464.15888336127773,823873.5,-75.18923,65.8468
1000.0,331219.2,-104.76,65.86
2154.4346900318824,357425.2,-63.26767,65.86
4641.588833612777,159952.9,-84.81072,65.8652
10000.0,66421.84,-81.86224,65.8609
