Frequency,Impedance,Phase Angle,Temperature (Dry Bath)
10.0,23615.2,-19.73439,71.1384
21.544346900318832,20261.11,-17.55244,71.1555
46.41588833612777,17621.98,-15.65641,71.1594
100.0,15575.92,-14.47457,71.1659
215.44346900318823,14106.23,-11.39604,71.156
464.15888336127773,12758.35,-10.82157,71.1508
1000.0,11613.05,-10.08322,71.1488
2154.4346900318824,10919.04,-10.29718,71.1528
4641.588833612777,10287.05,-10.37049,71.1569
10000.0,9696.946,-16.05395,71.16
