Frequency,Impedance,Phase Angle,Temperature (Dry Bath)
10.0,658025.8,-9.616437,67.909
21.5,602801.6,-8.734847,67.9027
46.4,561539.4,-10.07622,67.9022
100.0,497874.0,-13.15715,67.8926
215.4,504853.8,-14.78446,67.9149
464.2,439854.8,-20.3486,67.9152
1000.0,350268.9,-33.68478,67.8981
2154.4,260711.5,-48.32975,67.9001
4641.6,167219.3,-58.2551,67.909
10000.0,99481.64,-73.85775,67.9046
