Frequency,Impedance,Phase Angle,Temperature (Dry Bath)
10.0,3875518.0,-31.74328,70.964
21.544346900318832,5947315.0,-23.54847,70.9508
46.41588833612777,6920822.0,-17.91215,70.9547
100.0,386780.4,-34.75898,70.9709
215.44346900318823,685976.1,-50.85445,70.9598
464.15888336127773,2934172.0,-58.2896,70.9578
1000.0,366248.3,-27.77337,70.9521
2154.4346900318824,281466.3,-95.7822,70.9511
4641.588833612777,106629.4,-97.28807,70.9577
10000.0,57772.69,-87.79228,70.9518
