Frequency,Impedance,Phase Angle,Temperature (Dry Bath)
10.0,14276.96,-25.94572,71.3973
21.544346900318832,11537.11,-23.79131,71.4034
46.41588833612777,9493.753,-21.44442,71.4061
100.0,8078.309,-18.17611,71.4124
215.44346900318823,6936.682,-16.48684,71.4165
464.15888336127773,6080.028,-13.78731,71.406
1000.0,5463.214,-11.65647,71.4134
2154.4346900318824,5051.293,-9.449277,71.4271
4641.588833612777,4725.595,-9.330701,71.4283
10000.0,4446.997,-8.6844,71.4204
