Frequency,Impedance,Phase Angle,Temperature (Dry Bath)
10.0,5374124.0,12.29834,71.2219
21.544346900318832,4426532.0,-1.087321,71.225
46.41588833612777,4481870.0,-24.46906,71.2473
100.0,531449.2,34.45743,71.2111
215.44346900318823,903755.0,-111.7679,71.2097
464.15888336127773,770961.4,-119.5023,71.2254
1000.0,285246.8,-63.60857,71.2226
2154.4346900318824,237515.4,-68.00497,71.2239
4641.588833612777,130665.3,-72.11318,71.2175
10000.0,57665.98,-86.52772,71.228
