Frequency,Impedance,Phase Angle,Temperature (Dry Bath)
10.0,1832208.0,-20.60152,65.6885
21.544346900318832,1264122.0,-17.3614,65.6943
46.41588833612777,1280381.0,-22.357,65.6873
100.0,1048686.0,30.125,65.6876
215.44346900318823,360536.2,-3.335606,65.6794
464.15888336127773,527528.8,-0.2770328,65.6725
1000.0,2278384.0,-85.36596,65.6796
2154.4346900318824,300301.4,-87.47167,65.6833
4641.588833612777,128750.9,-76.38612,65.6894
10000.0,67547.3,-88.45371,65.6894
