Frequency,Impedance,Phase Angle,Temperature (Dry Bath)
10.0,5471244.0,-11.0608,66.4307
21.544346900318832,7220454.0,16.35198,66.4245
46.41588833612777,4203171.0,-18.86428,66.4252
100.0,453808.8,-129.4895,66.4253
215.44346900318823,716626.3,71.60299,66.4238
464.15888336127773,1768680.0,-95.07952,66.4375
1000.0,950001.1,-67.04057,66.4274
2154.4346900318824,619998.8,-55.76676,66.4239
4641.588833612777,120952.6,-90.53637,66.4202
10000.0,68615.28,-85.87791,66.4091
