Frequency,Impedance,Phase Angle,Temperature (Dry Bath)
10.0,155345.9,-6.246389,68.1827
21.5,149719.1,-5.154291,68.1902
46.4,144473.9,-4.695341,68.1927
100.0,138384.9,-5.281482,68.1831
215.4,135934.2,-5.702112,68.1848
464.2,130373.5,-7.111585,68.1901
1000.0,124446.5,-12.8722,68.1999
2154.4,111291.9,-20.11175,68.1842
4641.6,95521.71,-34.05464,68.1807
10000.0,74647.81,-55.26059,68.1932
