Frequency,Impedance,Phase Angle,Temperature (Dry Bath)
10.0,157468.5,-6.240679,67.8872
21.5,151433.2,-5.23452,67.8977
46.4,146082.6,-4.814637,67.8826
100.0,136891.3,-5.60369,67.8786
215.4,138467.9,-6.780164,67.8847
464.2,131117.1,-8.779641,67.8767
1000.0,128406.0,-13.06186,67.887
2154.4,115912.2,-20.49099,67.8879
4641.6,101243.3,-34.70985,67.8998
10000.0,72036.37,-53.33967,67.8813
