Frequency,Impedance,Phase Angle,Temperature (Dry Bath)
10.0,574226.4,-11.52922,68.1893
21.5,530811.6,-10.71678,68.1847
46.4,486853.0,-11.5961,68.1705
100.0,436069.3,-12.07562,68.1904
215.4,392117.2,-17.12183,68.1934
464.2,355003.6,-23.54037,68.1861
1000.0,288713.5,-26.77779,68.1885
2154.4,230152.9,-35.59153,68.1831
4641.6,156900.6,-49.40179,68.1833
10000.0,107016.2,-59.98919,68.1855
