Frequency,Impedance,Phase Angle,Temperature (Dry Bath)
10.0,3716659.0,-5.822071,71.5267
21.544346900318832,12641130.0,-6.568525,71.5466
46.41588833612777,4664125.0,-3.373845,71.5367
100.0,437941.9,-23.85284,71.5324
215.44346900318823,1799676.0,19.13083,71.538
464.15888336127773,1915912.0,38.27218,71.5407
1000.0,1411665.0,-18.9175,71.5288
2154.4346900318824,406443.2,-51.26777,71.5213
4641.588833612777,178697.0,-95.88332,71.5162
10000.0,98996.06,-90.26411,71.5161
