Frequency,Impedance,Phase Angle,Temperature (Dry Bath)
10.0,5358180.0,11.70445,71.0011
21.544346900318832,4191768.0,-30.19151,70.9994
46.41588833612777,4570628.0,-35.57265,70.9974
100.0,397863.1,-65.70951,71.0035
215.44346900318823,541005.5,125.3783,71.0113
464.15888336127773,2047274.0,-63.55586,71.0062
1000.0,419465.8,-102.5713,71.0107
2154.4346900318824,423789.4,-71.86265,70.9994
4641.588833612777,149465.6,-96.38625,70.999
10000.0,60689.52,-83.33702,71.0234
