Frequency,Impedance,Phase Angle,Temperature (Dry Bath)
10.0,238485.5,-14.96942,71.3017
21.544346900318832,214431.9,-15.47077,71.2824
46.41588833612777,189658.1,-15.19504,71.2856
100.0,144829.9,-22.90008,71.2895
215.44346900318823,248684.0,-3.566462,71.3031
464.15888336127773,128618.2,-15.27395,71.2936
1000.0,91187.58,-19.03683,71.3107
2154.4346900318824,104083.3,-12.41489,71.2961
4641.588833612777,90602.75,-33.28286,71.2924
10000.0,68186.23,-43.96257,71.3075
