Frequency,Impedance,Phase Angle,Temperature (Dry Bath)
10.0,491956.5,-27.19305,66.3448
21.544346900318832,379970.0,-25.53034,66.3376
46.41588833612777,311202.3,-24.00807,66.3302
100.0,174032.5,-4.190787,66.3338
215.44346900318823,274594.2,-6.073684,66.3308
464.15888336127773,172577.0,-19.60186,66.3398
1000.0,115007.4,-30.94788,66.3589
2154.4346900318824,112874.5,-38.44631,66.347
4641.588833612777,80756.62,-43.54024,66.3409
10000.0,51866.13,-62.90895,66.3577
