Frequency,Impedance,Phase Angle,Temperature (Dry Bath)
10.0,24726420.0,-15.30909,68.2038
21.5,19137740.0,-40.56307,68.1856
46.4,25602790.0,-62.02339,68.1982
100.0,5275453.0,-37.05922,68.1975
215.4,3900253.0,-91.20851,68.1987
464.2,2196055.0,-79.95381,68.2063
1000.0,1015336.0,-81.34718,68.2087
2154.4,507944.1,-80.58483,68.1859
4641.6,268205.1,-89.92391,68.1981
10000.0,129967.9,-87.68198,68.2037
