Frequency,Impedance,Phase Angle,Temperature (Dry Bath)
10.0,24187570.0,-30.70073,67.2662
21.5,19763230.0,-48.04362,67.2822
46.4,13284860.0,-72.27935,67.2725
100.0,3756532.0,-33.3202,67.2848
215.4,547481.9,-47.39021,67.2688
464.2,2045920.0,-85.69027,67.2918
1000.0,879671.6,-79.28853,67.295
2154.4,426635.8,-80.58307,67.2776
4641.6,217450.1,-81.83537,67.2855
10000.0,108406.8,-82.22087,67.2854
