Frequency,Impedance,Phase Angle,Temperature (Dry Bath)
10.0,18979360.0,-13.38832,68.0326
21.5,27850190.0,-27.58524,68.0326
46.4,25450790.0,-53.35573,68.0326
100.0,6033580.0,-9.898335,68.0326
215.4,9099907.0,-84.56225,68.0326
464.2,2270773.0,-84.62798,68.0326
1000.0,1026751.0,-89.66949,68.0326
2154.4,514355.4,-86.14186,68.0326
4641.6,236757.4,-92.5216,68.0326
10000.0,115633.5,-93.9547,68.0326
