Frequency,Impedance,Phase Angle,Temperature (Dry Bath)
10.0,21010830.0,-19.36893,67.1678
21.5,23424010.0,-41.25888,67.1563
46.4,11997100.0,-77.62407,67.1745
100.0,3497751.0,-94.44824,67.1643
215.4,250877.7,-59.40972,67.1649
464.2,1237528.0,-81.50781,67.1764
1000.0,724884.8,-77.04564,67.1905
2154.4,386175.8,-75.82095,67.1722
4641.6,212663.8,-75.24989,67.1898
10000.0,112024.4,-79.29303,67.1611
