Frequency,Impedance,Phase Angle,Temperature (Dry Bath)
10.0,155327.2,-6.383026,68.1507
21.5,149118.5,-5.164884,68.1447
46.4,144981.0,-4.702367,68.1442
100.0,141269.0,-5.453741,68.1052
215.4,135335.9,-5.209802,68.1218
464.2,136052.8,-8.325821,68.125
1000.0,123368.8,-11.73596,68.1154
2154.4,117437.6,-18.96007,68.1243
4641.6,101893.8,-33.0846,68.1184
10000.0,75965.99,-53.18988,68.1157
