Frequency,Impedance,Phase Angle,Temperature (Dry Bath)
10.0,27241880.0,-23.53172,68.0294
21.5,24469900.0,-40.46942,68.0429
46.4,21427960.0,-62.61407,68.0146
100.0,5339974.0,-61.00146,68.0188
215.4,3698541.0,-79.2715,68.0371
464.2,1980301.0,-87.05194,68.0131
1000.0,926679.2,-75.13803,68.0102
2154.4,456942.0,-75.98526,68.0091
4641.6,248755.7,-81.22274,68.0114
10000.0,137426.7,-96.69814,68.0231
