Frequency,Impedance,Phase Angle,Temperature (Dry Bath)
10.0,22241210.0,-6.228719,67.6618
21.5,34214700.0,-59.59596,67.6388
46.4,35154560.0,-52.14237,67.6512
100.0,5745689.0,-67.78286,67.6557
215.4,11136940.0,-83.7257,67.667
464.2,2964599.0,-68.37375,67.6584
1000.0,1021469.0,-82.94321,67.6733
2154.4,552626.6,-82.46051,67.6471
4641.6,273553.1,-88.6259,67.6621
10000.0,137339.6,-85.93341,67.6522
