Frequency,Impedance,Phase Angle,Temperature (Dry Bath)
10.0,22781720.0,-22.72946,66.6186
21.5,30189400.0,-26.32155,66.6244
46.4,20360730.0,-47.3203,66.6303
100.0,9450188.0,-89.2714,66.627
215.4,305214.0,-133.9474,66.6358
464.2,2072315.0,-82.08205,66.6411
1000.0,1208764.0,-82.77866,66.6382
2154.4,562361.2,-79.09548,66.6364
4641.6,270437.8,-87.36377,66.6371
10000.0,131286.5,-88.38762,66.6426
