Frequency,Impedance,Phase Angle,Temperature (Dry Bath)
10.0,30010440.0,-24.00866,67.9088
21.5,23703560.0,-29.82847,67.9173
46.4,27367350.0,-47.46679,67.935
100.0,8903531.0,-23.99454,67.9356
215.4,9313286.0,-67.60183,67.9353
464.2,2873970.0,-77.10908,67.9428
1000.0,1509816.0,-83.97489,67.9231
2154.4,634147.1,-85.73628,67.9323
4641.6,316505.1,-93.74679,67.937
10000.0,145092.9,-98.09218,67.9192
