Frequency,Impedance,Phase Angle,Temperature (Dry Bath)
10.0,8447376.0,-1.823315,70.8573
21.544346900318832,4125096.0,-16.08886,70.8542
46.41588833612777,3920060.0,-22.07311,70.8573
100.0,10583830.0,-111.9731,70.8622
215.44346900318823,909001.0,50.1923,70.8547
464.15888336127773,805596.6,-112.474,70.8571
1000.0,304622.8,134.8132,70.8481
2154.4346900318824,310278.0,-88.29443,70.8493
4641.588833612777,138001.5,-84.2636,70.8601
10000.0,63681.64,-87.58284,70.8403
