Frequency,Impedance,Phase Angle,Temperature (Dry Bath)
10.0,7701124.0,-3.629491,71.539
21.544346900318832,7329871.0,0.2732228,71.5184
46.41588833612777,6578025.0,-4.831036,71.5308
100.0,1279015.0,44.23199,71.5375
215.44346900318823,10919710.0,160.026,71.5307
464.15888336127773,2359439.0,-0.7550346,71.5289
1000.0,1510219.0,-125.8474,71.5429
2154.4346900318824,367921.2,-101.1944,71.5482
4641.588833612777,310758.4,-98.01389,71.5508
10000.0,113999.1,-85.65592,71.5434
