Frequency,Impedance,Phase Angle,Temperature (Dry Bath)
10.0,29855050.0,-21.76243,67.1683
21.5,20657220.0,-39.82279,67.1675
46.4,13152140.0,-66.93097,67.1587
100.0,4397257.0,-10.45721,67.161
215.4,262810.7,21.32842,67.1694
464.2,1601095.0,-74.03278,67.1829
1000.0,882225.2,-78.66916,67.1737
2154.4,439145.1,-82.28773,67.177
4641.6,223879.7,-82.55672,67.1597
10000.0,110479.9,-84.80271,67.1714
