Frequency,Impedance,Phase Angle,Temperature (Dry Bath)
10.0,131410.3,-6.497572,67.4033
21.5,125928.5,-5.554834,67.3922
46.4,121555.5,-5.319124,67.4055
100.0,113955.3,-3.534933,67.3958
215.4,111202.2,-7.250379,67.4027
464.2,110598.8,-8.348292,67.4049
1000.0,102770.8,-11.91698,67.4331
2154.4,99121.77,-18.12495,67.411
4641.6,84222.59,-31.26044,67.4103
10000.0,60600.42,-47.48053,67.4262
