Frequency,Impedance,Phase Angle,Temperature (Dry Bath)
10.0,156820.5,-6.29647,68.172
21.5,150619.9,-5.075526,68.1718
46.4,145896.7,-4.708993,68.2026
100.0,141834.5,-5.478107,68.1878
215.4,135662.6,-5.39287,68.1648
464.2,135340.7,-7.522007,68.1834
1000.0,123682.2,-12.41519,68.1756
2154.4,111439.4,-20.73482,68.1799
4641.6,97824.25,-34.98026,68.1645
10000.0,74090.17,-54.06493,68.1441
