Frequency,Impedance,Phase Angle,Temperature (Dry Bath)
10.0,12211.06,-8.183338,67.3692
21.5,11639.22,-4.751231,67.3624
46.4,11404.78,-4.07584,67.3587
100.0,11345.49,-5.039534,67.3611
215.4,11258.99,-5.665515,67.3621
464.2,11169.1,-5.839309,67.3582
1000.0,10831.84,-5.848371,67.3578
2154.4,10509.03,-5.820196,67.3629
4641.6,10160.58,-7.014774,67.3538
10000.0,9795.129,-9.698194,67.3707
