Frequency,Impedance,Phase Angle,Temperature (Dry Bath)
10.0,22614800.0,-18.98877,68.2671
21.5,17499340.0,-35.7639,68.2625
46.4,13696610.0,-57.48438,68.2606
100.0,4896674.0,-43.98782,68.2503
215.4,2840461.0,-86.37603,68.2551
464.2,1662590.0,-80.74542,68.2614
1000.0,959846.0,-72.98181,68.2525
2154.4,558694.2,-79.40089,68.2622
4641.6,277629.0,-80.09202,68.2651
10000.0,132862.1,-93.07007,68.2599
