Frequency,Impedance,Phase Angle,Temperature (Dry Bath)
10.0,149394.4,-6.475604,68.0838
21.5,143456.6,-5.402492,68.0838
46.4,138499.7,-4.688557,68.0838
100.0,136953.7,-4.738144,68.0838
215.4,129860.6,-6.069962,68.0838
464.2,127379.9,-8.388739,68.0838
1000.0,117910.0,-12.16661,68.0838
2154.4,112754.8,-18.87744,68.0838
4641.6,97239.83,-29.55992,68.0838
10000.0,74613.01,-50.80139,68.0838
