Frequency,Impedance,Phase Angle,Temperature (Dry Bath)
10.0,12318.97,-8.212743,67.3825
21.5,11748.79,-4.817273,67.3939
46.4,11513.43,-4.21019,67.3987
100.0,11465.87,-5.137094,67.3923
215.4,11405.64,-5.680081,67.3906
464.2,11234.19,-5.82473,67.3861
1000.0,10862.23,-5.599504,67.3786
2154.4,10557.03,-5.957429,67.4031
4641.6,10228.45,-6.933268,67.397
10000.0,9901.636,-9.709414,67.3923
