Frequency,Impedance,Phase Angle,Temperature (Dry Bath)
10.0,39065.53,-13.3893,66.6
21.544346900318832,35327.2,-12.96357,66.6
46.41588833612777,31907.59,-12.12467,66.6
100.0,27053.13,-13.89814,66.6
215.44346900318823,26010.29,-11.01765,66.6
464.15888336127773,25339.23,-8.815408,66.6
1000.0,22312.61,-8.913133,66.6
2154.4346900318824,21073.69,-6.07423,66.6
4641.588833612777,19293.35,-4.966651,66.6
10000.0,19360.23,-4.510768,66.6
