Frequency,Impedance,Phase Angle,Temperature (Dry Bath)
10.0,38263370.0,-41.28912,67.4937
21.5,32124080.0,-40.23392,67.4771
46.4,40715470.0,-55.83757,67.4833
100.0,6469990.0,-37.88193,67.4833
215.4,201845.2,127.9096,67.4915
464.2,3214518.0,-81.30617,67.4989
1000.0,1144305.0,-93.41402,67.4998
2154.4,617537.8,-86.41705,67.4722
4641.6,271273.2,-88.63479,67.5004
10000.0,132233.5,-87.05415,67.5128
