Frequency,Impedance,Phase Angle,Temperature (Dry Bath)
10.0,252787.3,-5.572887,67.0429
21.5,244037.8,-5.528239,67.0492
46.4,235996.5,-5.879766,67.0502
100.0,231644.7,-7.220873,67.0681
215.4,219711.8,-15.82954,67.0454
464.2,204068.7,-16.15843,67.047
1000.0,178348.8,-23.09148,67.0481
2154.4,150079.5,-38.65446,67.05
4641.6,99713.71,-52.75097,67.0395
10000.0,57428.98,-62.65089,67.0465
