Frequency,Impedance,Phase Angle,Temperature (Dry Bath)
10.0,162747.0,-7.994843,65.7723
21.544346900318832,151703.0,-7.764715,65.7629
46.41588833612777,142454.6,-7.522457,65.7535
100.0,115946.5,-13.46161,65.7595
215.44346900318823,19436.75,-128.16,65.7641
464.15888336127773,126581.9,-8.930516,65.7557
1000.0,100659.2,-25.73388,65.7446
2154.4346900318824,104463.2,-21.59893,65.7664
4641.588833612777,78431.02,-50.99848,65.765
10000.0,45052.36,-62.30148,65.7466
