Frequency,Impedance,Phase Angle,Temperature (Dry Bath)
10.0,2297242.0,4.461603,72.2142
21.544346900318832,2190475.0,-22.1078,72.2144
46.41588833612777,1696040.0,-15.11823,72.2301
100.0,393301.8,39.03291,72.2329
215.44346900318823,309996.1,-167.2625,72.2093
464.15888336127773,322301.0,-80.54852,72.215
1000.0,249568.9,-58.20983,72.2225
2154.4346900318824,325093.1,-55.00645,72.2212
4641.588833612777,299805.3,-13.82838,72.2122
10000.0,88199.66,-76.3074,72.2093
