Frequency,Impedance,Phase Angle,Temperature (Dry Bath)
10.0,161691.2,-8.539919,65.7534
21.544346900318832,151850.3,-8.491627,65.7553
46.41588833612777,143856.1,-6.809362,65.7618
100.0,137678.9,-18.74498,65.7521
215.44346900318823,17599.15,169.1436,65.7505
464.15888336127773,138950.7,-12.38459,65.7634
1000.0,152053.1,-3.445731,65.7596
2154.4346900318824,108319.0,-31.62003,65.7452
4641.588833612777,76233.82,-42.31225,65.7501
10000.0,33930.16,-54.92235,65.7594
