Frequency,Impedance,Phase Angle,Temperature (Dry Bath)
10.0,28017270.0,-10.33524,67.8021
21.5,28527550.0,-33.59876,67.7872
46.4,19981110.0,-47.2388,67.786
100.0,10295050.0,-20.81159,67.7809
215.4,7115150.0,-45.07989,67.789
464.2,3631986.0,-51.54262,67.7849
1000.0,1259282.0,-86.6549,67.7908
2154.4,603850.0,-88.66208,67.7862
4641.6,326185.7,-94.04366,67.7847
10000.0,140277.5,-95.10648,67.7761
