Frequency,Impedance,Phase Angle,Temperature (Dry Bath)
10.0,36336500.0,-2.203316,67.4751
21.5,25346920.0,-41.99016,67.496
46.4,14986990.0,-55.27456,67.4818
100.0,12175410.0,-17.44948,67.4794
215.4,132223.0,4.156442,67.4901
464.2,2080086.0,-84.13576,67.4901
1000.0,961056.3,-81.78539,67.4965
2154.4,467994.8,-83.24083,67.5017
4641.6,226626.4,-81.91263,67.499
10000.0,118586.3,-78.8756,67.5065
