Frequency,Impedance,Phase Angle,Temperature (Dry Bath)
10.0,20176710.0,2.39511,68.0838
21.5,16278790.0,-29.3376,68.0838
46.4,24331340.0,-60.36032,68.0838
100.0,6121400.0,-16.19818,68.0838
215.4,4955261.0,-100.5463,68.0838
464.2,4104323.0,-78.1982,68.0838
1000.0,1362425.0,-91.07537,68.0838
2154.4,682843.9,-88.07629,68.0838
4641.6,319698.9,-97.68853,68.0838
10000.0,130530.5,-97.54055,68.0838
