Frequency,Impedance,Phase Angle,Temperature (Dry Bath)
10.0,6605365.0,-32.93774,70.6885
21.544346900318832,3793553.0,-17.63483,70.6889
46.41588833612777,5530654.0,-47.26487,70.6782
100.0,613702.0,-57.95456,70.688
215.44346900318823,1215275.0,-44.17253,70.6792
464.15888336127773,1168458.0,-120.2908,70.6721
1000.0,281878.8,-106.4665,70.6794
2154.4346900318824,383697.0,-59.42706,70.696
4641.588833612777,165782.2,-90.91091,70.678
10000.0,75427.34,-85.87419,70.6829
