Frequency,Impedance,Phase Angle,Temperature (Dry Bath)
10.0,25931640.0,-11.1619,67.4041
21.5,23348880.0,-19.66631,67.4098
46.4,20533100.0,-44.19428,67.4038
100.0,11573020.0,-23.03344,67.4122
215.4,2317831.0,-134.5226,67.4264
464.2,1781148.0,-76.54374,67.4186
1000.0,1328147.0,-84.43393,67.4131
2154.4,562490.5,-86.71363,67.4221
4641.6,278510.6,-87.80523,67.4312
10000.0,135581.8,-87.33665,67.4261
