Frequency,Impedance,Phase Angle,Temperature (Dry Bath)
10.0,42054450.0,-22.94721,68.1154
21.5,24668540.0,-45.9682,68.1154
46.4,24996860.0,-59.30492,68.1154
100.0,4933985.0,-43.21414,68.1154
215.4,4871580.0,-79.27507,68.1154
464.2,2024782.0,-84.43729,68.1154
1000.0,955732.3,-76.92642,68.1154
2154.4,553271.5,-78.67549,68.1154
4641.6,254401.5,-83.03968,68.1154
10000.0,134136.8,-91.32824,68.1154
