Frequency,Impedance,Phase Angle,Temperature (Dry Bath)
10.0,24541620.0,-29.21113,67.028
21.5,23045100.0,-46.00969,67.021
46.4,12914640.0,-59.77153,67.0235
100.0,14732830.0,-15.75843,67.0284
215.4,5467158.0,-165.9081,67.0276
464.2,1611539.0,-74.04562,67.0319
1000.0,941560.8,-75.44419,67.0318
2154.4,437969.5,-83.48925,67.0285
4641.6,226016.9,-80.9433,67.0285
10000.0,109879.6,-84.52197,67.0329
