Frequency,Impedance,Phase Angle,Temperature (Dry Bath)
10.0,14457.43,-19.705,71.3527
21.544346900318832,12451.57,-17.00488,71.3545
46.41588833612777,10959.34,-14.8458,71.3571
100.0,9813.372,-11.57092,71.3464
215.44346900318823,8955.611,-11.23537,71.3478
464.15888336127773,8223.306,-10.12774,71.3632
1000.0,7479.091,-9.93334,71.3591
2154.4346900318824,7115.539,-9.138602,71.3581
4641.588833612777,6628.631,-9.929871,71.3481
10000.0,6125.711,-12.37622,71.3552
