Frequency,Impedance,Phase Angle,Temperature (Dry Bath)
10.0,134012.8,-20.39428,67.9725
21.5,115271.0,-18.58429,67.9818
46.4,103458.0,-16.94568,67.9863
100.0,93251.69,-15.37464,67.99
215.4,86855.19,-13.92231,67.9928
464.2,80420.58,-15.99733,67.9922
1000.0,72509.51,-16.72883,67.9857
2154.4,64747.59,-20.94312,67.9825
4641.6,56205.26,-26.11355,68.0042
10000.0,44500.56,-38.49982,67.9845
