Frequency,Impedance,Phase Angle,Temperature (Dry Bath)
10.0,130122.7,-25.26072,67.0982
21.5,107056.2,-22.09349,67.105
46.4,91991.65,-18.87009,67.1113
100.0,82096.24,-16.62086,67.0969
215.4,71857.46,-22.89493,67.0964
464.2,67318.98,-13.53004,67.1127
1000.0,61006.08,-14.47663,67.1108
2154.4,55966.07,-17.66002,67.1041
4641.6,49555.18,-24.53616,67.1102
10000.0,39673.81,-36.90395,67.0929
