Frequency,Impedance,Phase Angle,Temperature (Dry Bath)
10.0,3005767.0,-20.38721,70.9954
21.544346900318832,2607021.0,-26.28438,71.0038
46.41588833612777,2399654.0,-19.0361,70.9951
100.0,768459.1,42.45059,70.9898
215.44346900318823,550980.5,-60.6952,71.0013
464.15888336127773,1364933.0,-56.65328,71.0082
1000.0,545749.5,-79.32667,70.9992
2154.4346900318824,326505.0,-61.30181,70.9977
4641.588833612777,163690.1,-70.38339,71.0099
10000.0,97496.02,-76.4153,71.0161
