Frequency,Impedance,Phase Angle,Temperature (Dry Bath)
10.0,2253226.0,-10.76453,68.2407
21.5,2137917.0,-12.19255,68.2407
46.4,2170119.0,-13.45288,68.2407
100.0,1871649.0,-20.84351,68.2407
215.4,1836115.0,-26.72338,68.2407
464.2,1266784.0,-36.88287,68.2407
1000.0,843728.3,-54.54457,68.2407
2154.4,519189.1,-68.41042,68.2407
4641.6,288200.3,-77.4625,68.2407
10000.0,144006.7,-87.92674,68.2407
