Frequency,Impedance,Phase Angle,Temperature (Dry Bath)
10.0,38095990.0,-8.684178,67.2675
21.5,30554500.0,-14.22175,67.2745
46.4,21188260.0,-45.66199,67.2791
100.0,4568864.0,-9.708057,67.2737
215.4,3345247.0,-92.65545,67.2748
464.2,2835350.0,-111.1801,67.2762
1000.0,1344362.0,-92.07062,67.2766
2154.4,572470.9,-83.67537,67.2926
4641.6,295417.7,-90.78305,67.2831
10000.0,131062.4,-88.56726,67.2723
