Frequency,Impedance,Phase Angle,Temperature (Dry Bath)
10.0,8255040.0,-54.07721,65.8109
21.544346900318832,5212889.0,-9.050288,65.8097
46.41588833612777,5630689.0,-26.89428,65.8191
100.0,598451.9,-78.72887,65.8029
215.44346900318823,815364.4,-49.41674,65.8187
464.15888336127773,545724.9,-34.43329,65.8115
1000.0,485882.9,-50.30015,65.8193
2154.4346900318824,270156.3,-95.06195,65.8188
4641.588833612777,140512.4,-88.57758,65.8131
10000.0,66854.37,-85.7683,65.8015
