Frequency,Impedance,Phase Angle,Temperature (Dry Bath)
10.0,5645048.0,27.06523,71.2246
21.544346900318832,6400925.0,-33.49297,71.2305
46.41588833612777,5918014.0,-29.75671,71.2134
100.0,152487.9,-66.65148,71.2141
215.44346900318823,469283.3,-6.982653,71.2239
464.15888336127773,730526.2,65.66581,71.1961
1000.0,362552.6,-76.67795,71.1836
2154.4346900318824,196661.7,-76.00318,71.2116
4641.588833612777,157428.5,-87.66547,71.1956
10000.0,80101.37,-87.66667,71.2057
