Frequency,Impedance,Phase Angle,Temperature (Dry Bath)
10.0,998070.3,-10.19137,68.0838
21.5,892252.4,-11.09022,68.0838
46.4,830598.9,-11.13292,68.0838
100.0,701711.3,-16.8139,68.0838
215.4,699384.0,-16.39157,68.0838
464.2,603296.0,-21.15616,68.0838
1000.0,524611.9,-24.92434,68.0838
2154.4,432991.2,-40.07857,68.0838
4641.6,302981.9,-55.52675,68.0838
10000.0,177321.5,-76.65311,68.0838
