Frequency,Impedance,Phase Angle,Temperature (Dry Bath)
10.0,4434831.0,11.08843,71.1152
21.544346900318832,4962025.0,-19.12523,71.1157
46.41588833612777,5274773.0,-41.9513,71.1226
100.0,450013.6,161.6551,71.1025
215.44346900318823,1437579.0,141.0661,71.1283
464.15888336127773,599166.9,-125.6572,71.1275
1000.0,256737.6,-80.09885,71.1301
2154.4346900318824,247863.5,-96.45265,71.13
4641.588833612777,136364.9,-95.32931,71.122
10000.0,60601.52,-79.34476,71.1051
