Frequency,Impedance,Phase Angle,Temperature (Dry Bath)
10.0,165911.0,-10.47911,71.1978
21.544346900318832,150925.5,-8.950823,71.2199
46.41588833612777,142705.9,-8.886647,71.2204
100.0,124236.0,-18.10911,71.2046
215.44346900318823,116545.2,-11.0179,71.227
464.15888336127773,145888.8,-9.028646,71.223
1000.0,106562.1,-25.11946,71.2388
2154.4346900318824,98635.89,-31.72784,71.237
4641.588833612777,72805.25,-50.6954,71.2326
10000.0,47255.04,-61.99059,71.2255
