Frequency,Impedance,Phase Angle,Temperature (Dry Bath)
10.0,6304.442,-25.02486,70.9709
21.544346900318832,5186.946,-21.99472,70.9793
46.41588833612777,4377.335,-19.24424,70.9783
100.0,3767.757,-17.03593,70.9751
215.44346900318823,3349.401,-14.60945,70.9778
464.15888336127773,2977.918,-12.79591,70.9777
1000.0,2716.416,-10.55637,70.9732
2154.4346900318824,2492.41,-9.464737,70.978
4641.588833612777,2360.664,-8.489848,70.9769
10000.0,2223.336,-8.372279,70.9683
