Frequency,Impedance,Phase Angle,Temperature (Dry Bath)
10.0,42962470.0,-17.07833,67.99
21.5,20598330.0,-33.11837,67.9841
46.4,10870230.0,-53.98205,67.991
100.0,4217000.0,-42.18707,67.9888
215.4,4657886.0,-82.33575,68.0029
464.2,2338358.0,-85.01677,67.9934
1000.0,1084363.0,-83.79044,68.002
2154.4,520263.9,-77.73031,67.9832
4641.6,267443.3,-81.10963,67.988
10000.0,149416.2,-89.30877,67.9968
