Frequency,Impedance,Phase Angle,Temperature (Dry Bath)
10.0,4231783.0,-18.9534,71.4653
21.544346900318832,11388040.0,0.1685062,71.4771
46.41588833612777,4521424.0,-35.56396,71.4676
100.0,1628679.0,-28.02029,71.4656
215.44346900318823,1579235.0,134.8011,71.4628
464.15888336127773,576346.4,-112.7723,71.4719
1000.0,2070309.0,-124.0023,71.4629
2154.4346900318824,255716.5,-88.44659,71.4678
4641.588833612777,127032.9,-99.18918,71.4622
10000.0,59543.01,-81.98776,71.4659
