Frequency,Impedance,Phase Angle,Temperature (Dry Bath)
10.0,31062080.0,-21.31607,67.0502
21.5,29987590.0,-27.92726,67.0514
46.4,14111860.0,-54.14965,67.0607
100.0,3745113.0,-27.99075,67.0518
215.4,206865.3,65.57012,67.0452
464.2,2059550.0,-86.00539,67.0602
1000.0,977231.6,-89.6245,67.0633
2154.4,459236.9,-86.45864,67.0593
4641.6,228196.0,-81.32652,67.073
10000.0,118177.5,-79.40949,67.0735
