Frequency,Impedance,Phase Angle,Temperature (Dry Bath)
10.0,26462100.0,-35.51447,67.2714
21.5,24430440.0,-31.30829,67.2757
46.4,14570580.0,-57.04051,67.3047
100.0,10818090.0,-102.3333,67.2851
215.4,4269760.0,-134.2972,67.2759
464.2,1699109.0,-94.70968,67.2997
1000.0,901873.9,-86.32177,67.3009
2154.4,492461.2,-81.709,67.2955
4641.6,227453.7,-85.01941,67.2734
10000.0,110529.4,-81.73764,67.2867
