Frequency,Impedance,Phase Angle,Temperature (Dry Bath)
10.0,23064450.0,-6.411822,66.5935
21.5,26784210.0,-19.937,66.5893
46.4,15257640.0,-65.2242,66.5881
100.0,2604791.0,-81.85471,66.5996
215.4,117802.6,-15.2181,66.6085
464.2,1787359.0,-86.76406,66.5985
1000.0,1358197.0,-85.53104,66.6022
2154.4,459772.4,-81.92519,66.5982
4641.6,232861.4,-84.50799,66.6046
10000.0,109233.1,-81.48265,66.6066
