Frequency,Impedance,Phase Angle,Temperature (Dry Bath)
10.0,12327.81,-8.29093,67.3036
21.5,11755.84,-4.848466,67.3098
46.4,11545.97,-4.471335,67.305
100.0,11465.26,-5.108141,67.3018
215.4,11300.18,-5.481027,67.2856
464.2,11254.31,-5.946786,67.2971
1000.0,10895.04,-5.812799,67.3034
2154.4,10568.13,-5.839059,67.303
4641.6,10246.21,-6.965972,67.2988
10000.0,9889.306,-9.795125,67.2975
