Frequency,Impedance,Phase Angle,Temperature (Dry Bath)
10.0,4890159.0,-31.29254,65.7681
21.544346900318832,7272120.0,20.64692,65.7548
46.41588833612777,5229329.0,-27.93186,65.7417
100.0,414056.7,-146.1682,65.7354
215.44346900318823,11243.76,-145.0937,65.7364
464.15888336127773,1148500.0,-13.58691,65.7482
1000.0,392273.9,-94.31858,65.7576
2154.4346900318824,282712.3,-93.84164,65.7534
4641.588833612777,154775.8,-80.485,65.7567
10000.0,69015.43,-93.94138,65.7511
