Frequency,Impedance,Phase Angle,Temperature (Dry Bath)
10.0,4321405.0,-5.483063,70.4994
21.544346900318832,3245854.0,-37.37855,70.5065
46.41588833612777,7450667.0,-10.56741,70.5035
100.0,342965.0,7.495149,70.5009
215.44346900318823,953064.9,-69.28422,70.5042
464.15888336127773,2743037.0,10.22749,70.4938
1000.0,312117.5,-133.0291,70.4974
2154.4346900318824,258485.5,-95.55275,70.4973
4641.588833612777,122445.1,-80.40285,70.4946
10000.0,63054.2,-89.39999,70.4893
