Frequency,Impedance,Phase Angle,Temperature (Dry Bath)
10.0,250011.0,-5.984334,66.9965
21.5,242036.0,-5.858616,66.9833
46.4,233642.6,-6.31654,66.9709
100.0,227464.6,-10.54888,66.9813
215.4,209608.4,-11.78674,66.9777
464.2,204628.4,-14.28284,66.9829
1000.0,178743.3,-22.35166,66.95
2154.4,147982.5,-34.91997,66.9689
4641.6,98403.26,-49.20797,66.9703
10000.0,59961.98,-59.92018,66.9635
