Frequency,Impedance,Phase Angle,Temperature (Dry Bath)
10.0,12487.03,-26.53479,71.2675
21.544346900318832,10093.44,-23.84328,71.2575
46.41588833612777,8340.434,-21.16776,71.2601
100.0,7091.689,-18.31855,71.2551
215.44346900318823,6156.129,-16.42026,71.2532
464.15888336127773,5429.314,-13.85184,71.2517
1000.0,4832.372,-14.01258,71.2499
2154.4346900318824,4401.044,-12.02783,71.2549
4641.588833612777,4058.695,-11.44356,71.2613
10000.0,3766.196,-12.42658,71.2579
