Frequency,Impedance,Phase Angle,Temperature (Dry Bath)
10.0,138655.2,-6.04811,67.1523
21.5,132989.8,-5.078339,67.1387
46.4,128659.4,-4.863148,67.1545
100.0,125752.4,-5.310519,67.1282
215.4,90153.51,-3.388417,67.1315
464.2,117047.6,-7.504166,67.1399
1000.0,109626.9,-12.65935,67.1503
2154.4,101372.5,-20.8717,67.1408
4641.6,85649.27,-33.18917,67.1363
10000.0,60054.75,-51.70232,67.1355
