Frequency,Impedance,Phase Angle,Temperature (Dry Bath)
10.0,926334.3,-11.91333,68.0964
21.5,860435.0,-10.93223,68.0964
46.4,804603.9,-11.47345,68.0964
100.0,650824.0,-15.37426,68.0964
215.4,641665.3,-16.16064,68.0964
464.2,579587.2,-20.02466,68.0964
1000.0,503527.6,-28.36436,68.0964
2154.4,396151.6,-36.97707,68.0964
4641.6,296675.0,-54.79331,68.0964
10000.0,185645.9,-79.4675,68.0964
