Frequency,Impedance,Phase Angle,Temperature (Dry Bath)
10.0,22371060.0,-17.7661,68.0049
21.5,22828740.0,-42.29658,67.982
46.4,20839430.0,-56.80264,68.0042
100.0,14450840.0,-51.97854,67.9856
215.4,16926210.0,-95.07228,67.9857
464.2,2206979.0,-84.12461,67.9797
1000.0,1409235.0,-93.34092,67.9752
2154.4,684213.0,-90.31208,67.9831
4641.6,326483.4,-96.88573,67.9892
10000.0,153479.2,-98.35104,67.9986
