Frequency,Impedance,Phase Angle,Temperature (Dry Bath)
10.0,28412930.0,-6.184308,67.0719
21.5,23523930.0,-35.39473,67.0834
46.4,14883920.0,-62.54036,67.0792
100.0,4593554.0,-67.75573,67.0741
215.4,3491547.0,-48.80285,67.0629
464.2,1886684.0,-85.94452,67.0674
1000.0,861995.5,-78.07617,67.0621
2154.4,481877.9,-82.96645,67.0665
4641.6,226801.7,-86.19524,67.0779
10000.0,106450.0,-84.19459,67.0864
