Frequency,Impedance,Phase Angle,Temperature (Dry Bath)
10.0,4242999.0,-16.58313,65.834
21.544346900318832,6452266.0,13.29889,65.8667
46.41588833612777,4373907.0,-16.22153,65.86
100.0,355008.5,-64.18251,65.8557
215.44346900318823,112472.3,-15.40561,65.8547
464.15888336127773,803244.2,-90.17173,65.8494
1000.0,452329.9,-53.26842,65.8603
2154.4346900318824,229864.4,-78.70393,65.8633
4641.588833612777,113200.3,-86.8902,65.8589
10000.0,68124.03,-89.80665,65.8558
