Frequency,Impedance,Phase Angle,Temperature (Dry Bath)
10.0,1270851.0,-13.25812,65.8561
21.544346900318832,1280849.0,-7.696154,65.84
46.41588833612777,1111348.0,-11.39894,65.8424
100.0,415996.4,64.53472,65.8583
215.44346900318823,394162.0,99.57793,65.8428
464.15888336127773,597333.3,-100.9963,65.8381
1000.0,411608.8,-50.20428,65.8355
2154.4346900318824,264439.7,-86.72487,65.8438
4641.588833612777,116987.5,-78.86996,65.8397
10000.0,55510.08,-85.33804,65.8485
