Frequency,Impedance,Phase Angle,Temperature (Dry Bath)
10.0,40379580.0,-26.78802,67.1942
21.5,28775460.0,-40.30208,67.1901
46.4,15847010.0,-60.74883,67.1938
100.0,3637382.0,-7.70423,67.1947
215.4,3327233.0,-86.00439,67.2291
464.2,2423034.0,-88.63931,67.2136
1000.0,876387.1,-73.3783,67.1966
2154.4,456649.6,-87.65715,67.2199
4641.6,226630.6,-84.5134,67.2045
10000.0,110362.1,-82.49728,67.2186
