Frequency,Impedance,Phase Angle,Temperature (Dry Bath)
10.0,25123600.0,2.648343,68.1169
21.5,25301460.0,-34.38621,68.1317
46.4,24498710.0,-45.43714,68.1291
100.0,5649530.0,-34.24021,68.1158
215.4,8234701.0,-94.33646,68.1241
464.2,2502552.0,-82.19387,68.1254
1000.0,1362602.0,-96.89209,68.1031
2154.4,626526.8,-88.60361,68.1131
4641.6,314306.8,-88.84628,68.1201
10000.0,144107.2,-98.14516,68.1279
