Frequency,Impedance,Phase Angle,Temperature (Dry Bath)
10.0,4915.982,-34.3307,70.9153
21.544346900318832,3753.346,-28.86401,70.9202
46.41588833612777,3032.435,-23.52629,70.9285
100.0,2564.028,-19.09132,70.9198
215.44346900318823,2241.738,-15.70965,70.9305
464.15888336127773,2001.529,-13.27375,70.9148
1000.0,1812.656,-10.91865,70.9204
2154.4346900318824,1666.786,-9.633737,70.9185
4641.588833612777,1553.746,-8.188786,70.9153
10000.0,1474.256,-7.864012,70.9142
