Frequency,Impedance,Phase Angle,Temperature (Dry Bath)
10.0,19498100.0,-22.0013,68.0473
21.5,15321420.0,-30.60323,68.0473
46.4,11284400.0,-51.67928,68.0473
100.0,3508812.0,-56.60893,68.0473
215.4,4137839.0,-88.68356,68.0473
464.2,1773066.0,-99.31701,68.0473
1000.0,934996.6,-83.88268,68.0473
2154.4,472131.5,-82.92041,68.0473
4641.6,229071.8,-86.76257,68.0473
10000.0,119602.6,-92.375,68.0473
