Frequency,Impedance,Phase Angle,Temperature (Dry Bath)
10.0,1499487.0,-8.88313,67.3804
21.5,1384751.0,-9.158793,67.3874
46.4,1306388.0,-12.02576,67.3757
100.0,1592850.0,-16.2128,67.3869
215.4,106206.5,-65.41756,67.3562
464.2,813160.1,-40.4806,67.3845
1000.0,658085.8,-51.06043,67.363
2154.4,362155.0,-65.05407,67.3672
4641.6,197336.1,-72.05349,67.3768
10000.0,102199.0,-75.13863,67.3746
