Frequency,Impedance,Phase Angle,Temperature (Dry Bath)
10.0,132503.1,-24.85491,67.2757
21.5,109176.8,-22.07175,67.2926
46.4,94219.31,-19.22197,67.279
100.0,81776.39,-16.62863,67.2844
215.4,73822.52,-16.40533,67.2668
464.2,68337.43,-14.09797,67.2799
1000.0,61278.69,-14.97444,67.2807
2154.4,57048.45,-18.27902,67.2763
4641.6,49055.4,-24.64105,67.2556
10000.0,40039.51,-35.87329,67.2834
