Frequency,Impedance,Phase Angle,Temperature (Dry Bath)
10.0,138519.9,-5.843221,67.2195
21.5,132893.8,-4.956602,67.2255
46.4,128466.7,-4.595778,67.2378
100.0,123974.0,-4.927713,67.2374
215.4,121244.4,-6.275308,67.2299
464.2,117043.8,-7.146265,67.2331
1000.0,110020.2,-12.2957,67.2296
2154.4,102298.0,-19.65007,67.2545
4641.6,87184.61,-33.445,67.2481
10000.0,62005.04,-50.71263,67.2383
