Frequency,Impedance,Phase Angle,Temperature (Dry Bath)
10.0,28023980.0,-15.78986,67.3013
21.5,28569160.0,-24.11047,67.3193
46.4,15746000.0,-58.29011,67.3116
100.0,3993398.0,-80.59595,67.3122
215.4,5250945.0,-96.54119,67.3099
464.2,2206647.0,-77.3489,67.2988
1000.0,985153.8,-87.01319,67.3168
2154.4,509609.8,-82.06016,67.3145
4641.6,261340.9,-77.48692,67.3323
10000.0,136894.2,-80.41869,67.3031
