Frequency,Impedance,Phase Angle,Temperature (Dry Bath)
10.0,32522270.0,-27.59799,67.0816
21.5,25517100.0,-15.28236,67.0879
46.4,22391450.0,-58.52502,67.0748
100.0,4610103.0,-5.329656,67.0711
215.4,3502840.0,-71.93721,67.0696
464.2,2740338.0,-109.118,67.0704
1000.0,1587199.0,-81.75346,67.0709
2154.4,550579.5,-86.97163,67.0682
4641.6,287403.6,-87.93573,67.0774
10000.0,131009.1,-87.68624,67.0752
