Frequency,Impedance,Phase Angle,Temperature (Dry Bath)
10.0,127099.0,-24.68429,67.2731
21.5,105317.0,-21.66831,67.2677
46.4,90082.45,-18.62368,67.2828
100.0,78684.21,-16.0305,67.2569
215.4,71606.13,-12.97795,67.2717
464.2,66358.06,-13.31199,67.2722
1000.0,60121.57,-13.52262,67.2703
2154.4,55028.68,-17.19613,67.2573
4641.6,48335.5,-24.54819,67.2594
10000.0,39552.59,-36.40749,67.2512
