Frequency,Impedance,Phase Angle,Temperature (Dry Bath)
10.0,21505130.0,-17.85948,68.1933
21.5,22124180.0,-28.02534,68.1958
46.4,17355160.0,-55.48075,68.2071
100.0,5744211.0,-40.84069,68.1841
215.4,3862062.0,-74.51344,68.1878
464.2,1574170.0,-81.6204,68.1973
1000.0,964890.4,-72.10427,68.2017
2154.4,519604.1,-78.53414,68.2044
4641.6,274419.4,-81.91429,68.2031
10000.0,135584.4,-91.92871,68.194
