Frequency,Impedance,Phase Angle,Temperature (Dry Bath)
10.0,7609791.0,0.3200053,71.2174
21.544346900318832,4638874.0,-32.78195,71.2293
46.41588833612777,3618404.0,-28.40196,71.2216
100.0,501151.1,-139.7625,71.2359
215.44346900318823,1072223.0,35.25442,71.2297
464.15888336127773,1721640.0,-117.8047,71.2393
1000.0,581376.3,-71.70241,71.2483
2154.4346900318824,262888.2,-88.51862,71.235
4641.588833612777,114165.5,-91.18958,71.2405
10000.0,59397.32,-83.59685,71.2248
