Frequency,Impedance,Phase Angle,Temperature (Dry Bath)
10.0,24442.47,-17.57886,71.3798
21.544346900318832,21098.48,-16.68991,71.3853
46.41588833612777,18365.24,-15.98817,71.4051
100.0,16285.78,-14.62114,71.3868
215.44346900318823,14140.07,-14.10549,71.3904
464.15888336127773,12929.11,-10.86139,71.381
1000.0,11683.95,-10.91209,71.3783
2154.4346900318824,11180.91,-11.14562,71.3823
4641.588833612777,10073.42,-10.98276,71.3786
10000.0,9263.201,-12.88917,71.391
