Frequency,Impedance,Phase Angle,Temperature (Dry Bath)
10.0,5641668.0,-23.44085,71.1353
21.544346900318832,6273742.0,8.880995,71.0986
46.41588833612777,6787001.0,-6.27491,71.1277
100.0,405546.4,-66.39242,71.1178
215.44346900318823,725413.7,-171.5458,71.1352
464.15888336127773,9547871.0,-149.3933,71.1362
1000.0,572118.7,-91.63414,71.1371
2154.4346900318824,560865.4,128.3167,71.1147
4641.588833612777,249006.7,-37.06144,71.1249
10000.0,192567.3,-99.02111,71.1197
