Frequency,Impedance,Phase Angle,Temperature (Dry Bath)
10.0,18978890.0,5.792116,68.1421
21.5,17722030.0,-33.08327,68.1421
46.4,12485490.0,-43.36108,68.1421
100.0,5264692.0,-26.39926,68.1421
215.4,5194401.0,-97.54499,68.1421
464.2,2593777.0,-86.03626,68.1421
1000.0,1058840.0,-69.86408,68.1421
2154.4,599652.0,-77.55382,68.1421
4641.6,304194.2,-82.16132,68.1421
10000.0,170212.9,-93.50317,68.1421
