Frequency,Impedance,Phase Angle,Temperature (Dry Bath)
10.0,568976.3,-11.27661,68.3747
21.5,535049.8,-10.89261,68.3597
46.4,503333.8,-11.42109,68.3723
100.0,445698.1,-11.48236,68.3753
215.4,402157.9,-15.8346,68.3658
464.2,349655.6,-23.17241,68.3615
1000.0,279664.7,-29.0435,68.3693
2154.4,222680.6,-34.44323,68.3751
4641.6,167696.9,-47.42916,68.3792
10000.0,107214.4,-58.86368,68.3884
