Frequency,Impedance,Phase Angle,Temperature (Dry Bath)
10.0,573228.6,-11.78484,68.0733
21.5,523701.5,-10.63519,68.0573
46.4,482209.5,-11.68784,68.0668
100.0,435055.4,-13.22899,68.0532
215.4,393664.0,-17.14759,68.0527
464.2,345346.8,-21.51659,68.04
1000.0,292060.3,-27.37186,68.0638
2154.4,222565.9,-36.61307,68.0422
4641.6,161495.3,-47.66755,68.0524
10000.0,109408.4,-61.60457,68.0607
