Frequency,Impedance,Phase Angle,Temperature (Dry Bath)
10.0,30241340.0,-24.42611,67.3065
21.5,26510280.0,-25.6482,67.3086
46.4,23569430.0,-46.67191,67.2963
100.0,8406022.0,23.79754,67.2992
215.4,158799.3,132.8014,67.2941
464.2,4012552.0,-68.53805,67.3032
1000.0,1223080.0,-86.65721,67.2982
2154.4,545905.5,-91.48404,67.2999
4641.6,273765.3,-88.81739,67.3147
10000.0,129520.1,-86.75683,67.3043
