Frequency,Impedance,Phase Angle,Temperature (Dry Bath)
10.0,153815.9,-6.491742,67.9318
21.5,147480.0,-5.140352,67.9407
46.4,142408.1,-4.567681,67.9424
100.0,138429.3,-4.470612,67.9437
215.4,138023.2,-4.7384,67.9386
464.2,128679.2,-7.135212,67.9143
1000.0,123894.5,-10.15064,67.9313
2154.4,111674.7,-19.5482,67.9369
4641.6,105914.3,-35.80172,67.9273
10000.0,76214.62,-52.88566,67.9291
