Frequency,Impedance,Phase Angle,Temperature (Dry Bath)
10.0,15895070.0,-6.277058,68.0964
21.5,19539140.0,-31.1258,68.0964
46.4,23329570.0,-55.03148,68.0964
100.0,6171288.0,-46.87165,68.0964
215.4,4035357.0,-74.81632,68.0964
464.2,2002129.0,-75.19477,68.0964
1000.0,924368.0,-80.47176,68.0964
2154.4,465110.7,-83.68032,68.0964
4641.6,213777.3,-85.48611,68.0964
10000.0,122750.6,-88.89223,68.0964
