Frequency,Impedance,Phase Angle,Temperature (Dry Bath)
10.0,27304900.0,-21.42457,67.1067
21.5,23626030.0,-24.88057,67.1077
46.4,12213370.0,-62.89029,67.1245
100.0,4369851.0,-24.90275,67.0914
215.4,2249476.0,-72.06459,67.0884
464.2,1590937.0,-66.12641,67.1134
1000.0,853795.1,-75.96507,67.0971
2154.4,444092.0,-82.66779,67.0983
4641.6,224350.4,-79.76627,67.0942
10000.0,109134.3,-83.95348,67.0924
