Frequency,Impedance,Phase Angle,Temperature (Dry Bath)
10.0,120409.0,-24.6977,67.3789
21.5,99994.17,-21.47249,67.3847
46.4,86129.61,-18.26828,67.3716
100.0,75003.45,-16.30212,67.386
215.4,68813.87,-15.8354,67.3928
464.2,63511.23,-12.44697,67.3632
1000.0,57933.17,-13.42876,67.3666
2154.4,53429.53,-16.74094,67.3834
4641.6,46992.35,-23.60575,67.3758
10000.0,39326.16,-36.02239,67.3717
