Frequency,Impedance,Phase Angle,Temperature (Dry Bath)
10.0,41234710.0,-8.008769,68.1149
21.5,32510730.0,-22.90651,68.1126
46.4,34366300.0,-53.41528,68.113
100.0,3972976.0,-52.73932,68.1069
215.4,10208240.0,-123.6874,68.1025
464.2,2406087.0,-71.42989,68.1017
1000.0,1527173.0,-86.57775,68.1122
2154.4,605306.6,-86.9696,68.1105
4641.6,299858.6,-90.30821,68.1038
10000.0,151821.4,-97.98557,68.1085
