Frequency,Impedance,Phase Angle,Temperature (Dry Bath)
10.0,31908590.0,-29.61127,67.8933
21.5,32477200.0,-57.35418,67.8943
46.4,24962150.0,-62.61599,67.8781
100.0,4757378.0,-50.28438,67.8999
215.4,5114562.0,-42.5783,67.9027
464.2,2308990.0,-82.24906,67.9022
1000.0,1161898.0,-82.11439,67.9152
2154.4,505626.0,-88.55888,67.8917
4641.6,244198.2,-85.76404,67.9037
10000.0,117334.9,-96.88927,67.8889
