Frequency,Impedance,Phase Angle,Temperature (Dry Bath)
10.0,24491720.0,-6.11578,67.1671
21.5,27425880.0,-37.6799,67.1659
46.4,13893420.0,-40.95149,67.1725
100.0,2686522.0,-84.42621,67.161
215.4,505599.6,-4.678958,67.1769
464.2,2383951.0,-79.8415,67.1737
1000.0,1052903.0,-88.42413,67.1772
2154.4,486576.5,-80.2498,67.1765
4641.6,267727.9,-78.072,67.1576
10000.0,135434.0,-80.11494,67.1727
