Frequency,Impedance,Phase Angle,Temperature (Dry Bath)
10.0,19319010.0,-23.42942,68.0893
21.5,18459660.0,-16.05971,68.0876
46.4,29615550.0,-57.1189,68.0994
100.0,7950529.0,-27.63115,68.0947
215.4,4610139.0,-61.37044,68.0995
464.2,1775581.0,-86.2895,68.1057
1000.0,1065171.0,-84.47201,68.1099
2154.4,515180.4,-79.71926,68.0982
4641.6,275324.9,-80.69128,68.0972
10000.0,148427.5,-93.94665,68.0955
