Frequency,Impedance,Phase Angle,Temperature (Dry Bath)
10.0,3650514.0,7.603001,71.4704
21.544346900318832,4329313.0,-5.89475,71.4755
46.41588833612777,4639621.0,-21.1783,71.4859
100.0,661659.3,18.24948,71.4703
215.44346900318823,1891894.0,-71.02815,71.4669
464.15888336127773,1857485.0,-62.25858,71.4633
1000.0,1216230.0,-71.38334,71.4615
2154.4346900318824,283590.3,-81.9279,71.4649
4641.588833612777,280690.3,-102.1455,71.4732
10000.0,142707.7,-89.32649,71.4618
