Frequency,Impedance,Phase Angle,Temperature (Dry Bath)
10.0,1514008.0,-8.930094,67.3916
21.5,1423346.0,-8.731238,67.3854
46.4,1311165.0,-11.78494,67.3781
100.0,990415.6,-30.0093,67.3707
215.4,362366.0,-115.9381,67.395
464.2,915759.7,-35.41899,67.4029
1000.0,596123.0,-50.75266,67.3938
2154.4,368654.2,-59.46833,67.3941
4641.6,196672.9,-69.31968,67.3841
10000.0,101809.5,-73.47734,67.3977
