Frequency,Impedance,Phase Angle,Temperature (Dry Bath)
10.0,585067.8,-11.4485,68.0601
21.5,547062.3,-10.85091,68.0742
46.4,512003.9,-11.34234,68.0612
100.0,431424.3,-13.57888,68.0692
215.4,420820.9,-17.53249,68.0613
464.2,359954.2,-20.67849,68.0591
1000.0,293313.3,-29.86779,68.0481
2154.4,223666.9,-34.96164,68.0577
4641.6,160932.0,-47.81913,68.0622
10000.0,109541.9,-62.10287,68.0737
