Frequency,Impedance,Phase Angle,Temperature (Dry Bath)
10.0,29322430.0,-7.095812,67.5735
21.5,24773120.0,-23.08571,67.5558
46.4,23587870.0,-55.25222,67.5715
100.0,6478351.0,6.671755,67.5715
215.4,75770.39,17.42627,67.5691
464.2,3102032.0,-82.74156,67.5665
1000.0,1357342.0,-81.43312,67.5689
2154.4,626409.7,-91.29975,67.5607
4641.6,274348.2,-85.44733,67.5756
10000.0,134327.6,-87.0027,67.5768
