Frequency,Impedance,Phase Angle,Temperature (Dry Bath)
10.0,15285480.0,-18.21912,68.0196
21.5,17233260.0,-29.81636,68.0196
46.4,13751000.0,-59.33803,68.0196
100.0,7447895.0,-7.611162,68.0196
215.4,3640418.0,-74.37836,68.0196
464.2,2091995.0,-70.46274,68.0196
1000.0,878019.8,-82.68764,68.0196
2154.4,471565.6,-83.26585,68.0196
4641.6,226990.7,-84.17335,68.0196
10000.0,119945.5,-87.92475,68.0196
