Frequency,Impedance,Phase Angle,Temperature (Dry Bath)
10.0,21125590.0,33.74502,71.1902
21.544346900318832,3856137.0,-17.95394,71.197
46.41588833612777,7851164.0,-2.049598,71.1932
100.0,1005839.0,-170.8041,71.1917
215.44346900318823,2265967.0,-100.9559,71.1831
464.15888336127773,4245720.0,108.7493,71.1751
1000.0,1591598.0,12.13109,71.1749
2154.4346900318824,416753.4,-154.861,71.1898
4641.588833612777,330362.0,-82.71131,71.1912
10000.0,159477.0,-85.16025,71.2109
