Frequency,Impedance,Phase Angle,Temperature (Dry Bath)
10.0,18271890.0,-6.588479,68.1617
21.5,16643490.0,-33.44848,68.1802
46.4,12310590.0,-58.65542,68.1654
100.0,6065507.0,-50.06328,68.1636
215.4,3890794.0,-87.33691,68.1676
464.2,1802989.0,-70.71136,68.1759
1000.0,918671.2,-80.70921,68.1695
2154.4,524113.7,-90.24943,68.1728
4641.6,250956.0,-89.5558,68.1773
10000.0,129165.2,-94.12615,68.1651
