Frequency,Impedance,Phase Angle,Temperature (Dry Bath)
10.0,8385.508,-25.77936,70.8632
21.544346900318832,6841.956,-22.55084,70.8711
46.41588833612777,5741.148,-19.49794,70.875
100.0,4937.029,-16.75579,70.8719
215.44346900318823,4368.796,-14.39115,70.8734
464.15888336127773,3911.404,-11.92201,70.8478
1000.0,3598.062,-10.58773,70.8666
2154.4346900318824,3318.771,-9.335437,70.8695
4641.588833612777,3106.172,-8.654146,70.8857
10000.0,2960.489,-9.279032,70.8807
