Frequency,Impedance,Phase Angle,Temperature (Dry Bath)
10.0,138713.4,-5.758998,67.319
21.5,133539.8,-5.089666,67.319
46.4,129195.7,-4.754545,67.3157
100.0,123926.6,-5.164867,67.3207
215.4,120417.6,-3.942244,67.334
464.2,119091.7,-9.25846,67.324
1000.0,110332.7,-11.53683,67.3218
2154.4,102509.6,-20.63055,67.3248
4641.6,87692.51,-33.41987,67.3295
10000.0,60475.43,-51.62169,67.3333
