Frequency,Impedance,Phase Angle,Temperature (Dry Bath)
10.0,167502.4,-6.334372,68.1625
21.5,161490.6,-5.059494,68.1677
46.4,156185.3,-4.805862,68.1773
100.0,153296.7,-2.749402,68.1605
215.4,147422.5,-5.659821,68.1601
464.2,133913.5,-9.451068,68.1427
1000.0,131732.5,-12.37806,68.151
2154.4,122915.3,-21.76076,68.1499
4641.6,105595.2,-38.55011,68.1536
10000.0,72561.08,-56.26287,68.1535
