Frequency,Impedance,Phase Angle,Temperature (Dry Bath)
10.0,122460.6,-24.85706,67.4143
21.5,100617.8,-21.57641,67.4399
46.4,87338.09,-18.50743,67.4359
100.0,77563.34,-14.61687,67.4253
215.4,184120.7,17.98911,67.4208
464.2,64837.57,-13.29907,67.4208
1000.0,58167.94,-13.68516,67.4223
2154.4,54125.95,-17.09651,67.4346
4641.6,47825.1,-23.90375,67.4304
10000.0,39845.36,-35.93771,67.4217
