Frequency,Impedance,Phase Angle,Temperature (Dry Bath)
10.0,129964.1,-25.08385,67.2941
21.5,107569.9,-21.91634,67.2947
46.4,92505.51,-18.86515,67.2831
100.0,80100.05,-15.90597,67.2807
215.4,73599.38,-13.2876,67.3115
464.2,66696.44,-13.93248,67.2846
1000.0,61534.78,-14.16903,67.2886
2154.4,55437.5,-17.45647,67.3066
4641.6,48883.07,-24.48568,67.2983
10000.0,40061.75,-37.46877,67.2961
