Frequency,Impedance,Phase Angle,Temperature (Dry Bath)
10.0,24834040.0,-12.20039,67.8565
21.5,34572570.0,-42.06263,67.8379
46.4,21794280.0,-57.75553,67.8627
100.0,6481553.0,-53.04678,67.8376
215.4,3143530.0,-70.84913,67.8647
464.2,1719129.0,-70.38596,67.865
1000.0,904193.0,-77.50678,67.851
2154.4,529162.4,-82.91341,67.8703
4641.6,250939.8,-82.97609,67.856
10000.0,131478.4,-87.4649,67.8613
