Frequency,Impedance,Phase Angle,Temperature (Dry Bath)
10.0,12224.05,-8.207415,67.3924
21.5,11644.63,-4.782064,67.3873
46.4,11470.98,-4.479237,67.3762
100.0,11356.65,-5.046596,67.3877
215.4,11151.83,-6.625944,67.3981
464.2,11143.89,-5.859846,67.3989
1000.0,10792.23,-5.799304,67.3951
2154.4,10479.45,-5.864936,67.3852
4641.6,10153.47,-6.952099,67.3974
10000.0,9813.878,-9.685893,67.3968
