Frequency,Impedance,Phase Angle,Temperature (Dry Bath)
10.0,139949.0,-5.793946,67.0839
21.5,134722.3,-4.854599,67.0921
46.4,131046.0,-4.582645,67.0912
100.0,122646.0,-3.559939,67.0781
215.4,127155.9,-5.621005,67.0892
464.2,120318.8,-7.886637,67.0781
1000.0,111889.9,-12.29752,67.0868
2154.4,106228.4,-20.70476,67.0922
4641.6,89266.97,-34.81425,67.0914
10000.0,60709.15,-51.91799,67.1023
