Frequency,Impedance,Phase Angle,Temperature (Dry Bath)
10.0,11665.26,-4.840312,67.4401
21.5,11411.99,-4.026935,67.4296
46.4,11198.32,-3.427504,67.4251
100.0,11098.45,-4.001545,67.4421
215.4,11435.65,-3.480368,67.4464
464.2,10760.94,-4.080961,67.4427
1000.0,10473.9,-3.940195,67.4596
2154.4,10265.21,-4.348655,67.4383
4641.6,10036.68,-5.641429,67.4253
10000.0,9771.406,-9.085565,67.4539
