Frequency,Impedance,Phase Angle,Temperature (Dry Bath)
10.0,183715.8,-20.8922,65.63
21.544346900318832,155811.3,-17.74098,65.6392
46.41588833612777,136839.8,-15.31579,65.6277
100.0,107307.7,-5.977939,65.6399
215.44346900318823,11934.28,44.79086,65.6339
464.15888336127773,121092.3,-10.55475,65.6313
1000.0,83584.13,-14.20981,65.6542
2154.4346900318824,85871.53,-26.97493,65.6357
4641.588833612777,56817.92,-46.86885,65.6546
10000.0,39908.65,-50.12516,65.6292
