Frequency,Impedance,Phase Angle,Temperature (Dry Bath)
10.0,19444.31,-19.06494,67.698
21.5,16795.58,-15.726,67.7084
46.4,15019.95,-12.50303,67.7043
100.0,13791.3,-9.638786,67.7093
215.4,12808.39,-6.76053,67.7028
464.2,12351.27,-6.060222,67.7092
1000.0,11888.68,-5.549792,67.6917
2154.4,11310.68,-5.962873,67.7036
4641.6,11069.9,-7.135789,67.703
10000.0,10933.73,-11.33569,67.6993
