Frequency,Impedance,Phase Angle,Temperature (Dry Bath)
10.0,43147340.0,-15.03797,67.9691
21.5,88762490.0,-16.00562,67.9644
46.4,24837870.0,-53.95948,67.9569
100.0,4666675.0,-30.32848,67.9385
215.4,6548521.0,-84.1374,67.9559
464.2,2643691.0,-98.44047,67.9474
1000.0,1280633.0,-92.24936,67.9581
2154.4,606474.5,-90.37459,67.9535
4641.6,342437.6,-89.39115,67.9632
10000.0,148890.5,-100.902,67.9649
