Frequency,Impedance,Phase Angle,Temperature (Dry Bath)
10.0,27144330.0,-23.13202,68.1732
21.5,22469540.0,-12.72943,68.1635
46.4,23050720.0,-34.91686,68.1602
100.0,9750756.0,-59.2325,68.1585
215.4,7229315.0,-108.8361,68.1474
464.2,3788915.0,-88.92588,68.1619
1000.0,1429614.0,-84.86042,68.1473
2154.4,662299.0,-89.15949,68.1458
4641.6,339344.0,-88.62512,68.1638
10000.0,142826.4,-97.49949,68.165
