Frequency,Impedance,Phase Angle,Temperature (Dry Bath)
10.0,6564865.0,-4.917555,66.3338
21.544346900318832,4730050.0,-24.32395,66.3317
46.41588833612777,4178882.0,-24.69159,66.3263
100.0,1573387.0,53.84199,66.3294
215.44346900318823,365861.4,-158.5468,66.3636
464.15888336127773,839451.6,-137.1637,66.3397
1000.0,677094.9,-77.81649,66.339
2154.4346900318824,209313.5,-69.02675,66.3375
4641.588833612777,178960.5,-87.58356,66.3497
10000.0,66440.19,-86.05084,66.3609
