Frequency,Impedance,Phase Angle,Temperature (Dry Bath)
10.0,340489.2,-7.901771,67.0823
21.5,319548.1,-7.447468,67.0808
46.4,302088.3,-7.718288,67.0915
100.0,302380.3,-9.726342,67.0976
215.4,127772.1,9.925193,67.1087
464.2,260961.3,-11.39092,67.1149
1000.0,237369.9,-19.14904,67.0963
2154.4,204801.8,-29.847,67.1102
4641.6,148325.9,-45.28698,67.1149
10000.0,93733.43,-61.56613,67.1189
