Frequency,Impedance,Phase Angle,Temperature (Dry Bath)
10.0,23025.05,-22.42624,71.0299
21.544346900318832,18783.56,-24.13072,71.0286
46.41588833612777,15096.74,-25.5965,71.0272
100.0,11776.61,-26.77255,71.0261
215.44346900318823,9539.224,-26.42759,71.0422
464.15888336127773,7499.211,-26.57056,71.0286
1000.0,6143.119,-24.48165,71.0292
2154.4346900318824,4954.786,-21.77098,71.0312
4641.588833612777,4104.735,-21.4111,71.0412
10000.0,3468.876,-19.53395,71.0346
