Frequency,Impedance,Phase Angle,Temperature (Dry Bath)
10.0,154492.7,-6.369371,68.1933
21.5,148592.1,-5.069559,68.2103
46.4,143931.6,-4.932348,68.2063
100.0,136772.7,-4.784471,68.2175
215.4,136583.7,-4.341466,68.1981
464.2,131508.7,-8.397975,68.2074
1000.0,122384.7,-12.19825,68.2039
2154.4,114454.2,-19.27653,68.2072
4641.6,101299.2,-35.16544,68.2089
10000.0,72364.4,-55.15155,68.2066
