Frequency,Impedance,Phase Angle,Temperature (Dry Bath)
10.0,6449.401,-25.286,69.2608
21.544346900318832,5292.602,-22.19962,69.275
46.41588833612777,4459.158,-19.49664,69.3008
100.0,3848.1,-17.45927,69.2737
215.44346900318823,3399.125,-14.75369,69.2986
464.15888336127773,3016.48,-13.09065,69.291
1000.0,2726.673,-11.39027,69.2829
2154.4346900318824,2504.629,-9.508057,69.3168
4641.588833612777,2330.208,-8.979176,69.3171
10000.0,2201.728,-9.057487,69.3189
