Frequency,Impedance,Phase Angle,Temperature (Dry Bath)
10.0,1574000.0,-9.826622,67.1218
21.5,1462936.0,-10.7159,67.1267
46.4,1373791.0,-16.89122,67.1249
100.0,1022484.0,-21.02124,67.1327
215.4,64893.02,-116.9318,67.1326
464.2,779590.2,-39.50266,67.1174
1000.0,550321.9,-45.96766,67.137
2154.4,363683.0,-58.75373,67.1363
4641.6,184935.0,-68.10488,67.13
10000.0,98546.75,-72.23384,67.1355
