Frequency,Impedance,Phase Angle,Temperature (Dry Bath)
10.0,23450930.0,-25.27681,68.1949
21.5,32972920.0,-6.944534,68.1949
46.4,30222580.0,-48.76376,68.1949
100.0,5053994.0,-50.20653,68.1949
215.4,4816028.0,-67.66714,68.1949
464.2,3028591.0,-95.32347,68.1949
1000.0,1484017.0,-84.41165,68.1949
2154.4,724771.1,-85.14236,68.1949
4641.6,313217.0,-88.08548,68.1949
10000.0,157018.5,-100.8434,68.1949
