Frequency,Impedance,Phase Angle,Temperature (Dry Bath)
10.0,6015312.0,-29.5001,70.5479
21.544346900318832,6560011.0,12.7591,70.5504
46.41588833612777,5475842.0,-26.13343,70.5578
100.0,2302638.0,-49.74739,70.5532
215.44346900318823,1197364.0,-83.40427,70.5443
464.15888336127773,418479.3,-105.2156,70.5585
1000.0,1690377.0,11.99736,70.5575
2154.4346900318824,290370.2,-86.2947,70.557
4641.588833612777,205912.9,-98.22401,70.5549
10000.0,65833.6,-89.86625,70.5575
