Frequency,Impedance,Phase Angle,Temperature (Dry Bath)
10.0,468201.0,-9.191135,67.9704
21.5,435014.8,-9.262026,67.985
46.4,412132.7,-10.05962,67.9733
100.0,390954.7,-12.98599,67.9698
215.4,352855.8,-15.03593,67.9608
464.2,323748.6,-21.2604,67.967
1000.0,276197.9,-29.25776,67.9749
2154.4,212899.9,-39.36794,67.9865
4641.6,144504.6,-53.37197,67.9818
10000.0,94676.0,-65.55439,67.9845
