Frequency,Impedance,Phase Angle,Temperature (Dry Bath)
10.0,28601450.0,-46.21881,67.7796
21.5,26317140.0,-19.95158,67.7533
46.4,24165250.0,-59.88978,67.7771
100.0,3912196.0,-21.44573,67.7763
215.4,3281853.0,-76.58463,67.7732
464.2,1847908.0,-78.48038,67.7894
1000.0,931097.1,-75.27011,67.7931
2154.4,460035.4,-75.87086,67.7798
4641.6,300691.4,-85.04488,67.787
10000.0,152904.9,-93.49438,67.7852
