Frequency,Impedance,Phase Angle,Temperature (Dry Bath)
10.0,17528.22,-24.1816,71.4787
21.544346900318832,14247.87,-24.23124,71.4689
46.41588833612777,11582.63,-23.81575,71.489
100.0,9409.501,-22.75596,71.4909
215.44346900318823,7978.936,-21.45636,71.4791
464.15888336127773,6701.106,-19.01002,71.4936
1000.0,5778.448,-18.78093,71.4705
2154.4346900318824,4977.561,-17.03203,71.4829
4641.588833612777,4319.176,-16.39055,71.496
10000.0,3779.888,-15.55319,71.4955
