Frequency,Impedance,Phase Angle,Temperature (Dry Bath)
10.0,8957.315,-25.74631,70.7489
21.544346900318832,7309.936,-22.46847,70.7609
46.41588833612777,6141.633,-19.43863,70.7652
100.0,5222.939,-16.4778,70.7531
215.44346900318823,4711.958,-13.9591,70.739
464.15888336127773,4228.89,-12.16951,70.7571
1000.0,3798.502,-10.24973,70.7518
2154.4346900318824,3519.865,-9.456431,70.7632
4641.588833612777,3317.845,-8.868413,70.7651
10000.0,3131.094,-9.348605,70.7605
