Frequency,Impedance,Phase Angle,Temperature (Dry Bath)
10.0,1423180.0,-9.359477,67.311
21.5,1317654.0,-11.50332,67.3091
46.4,1207877.0,-13.84337,67.302
100.0,1002993.0,-18.43179,67.3139
215.4,428533.5,6.175992,67.2925
464.2,831490.3,-37.57831,67.2726
1000.0,543714.5,-53.04022,67.2744
2154.4,315134.3,-57.00142,67.2762
4641.6,177358.3,-67.36187,67.2668
10000.0,100106.1,-69.6034,67.2426
