Frequency,Impedance,Phase Angle,Temperature (Dry Bath)
10.0,19973550.0,-13.11891,68.0016
21.5,21505030.0,-40.53253,67.9939
46.4,16700800.0,-43.90836,67.9949
100.0,7303885.0,-2.210756,67.9968
215.4,4777100.0,-53.53847,67.9714
464.2,2850469.0,-80.0453,68.0128
1000.0,1316918.0,-85.17097,67.9955
2154.4,680870.5,-84.78326,68.0322
4641.6,317506.6,-90.97637,68.0062
10000.0,149830.5,-98.83449,68.0062
