Frequency,Impedance,Phase Angle,Temperature (Dry Bath)
10.0,2693761.0,-10.70058,67.3504
21.5,2474458.0,-11.74673,67.3522
46.4,2432147.0,-16.59486,67.3344
100.0,2512721.0,-32.30369,67.3552
215.4,239380.6,-89.068,67.3522
464.2,1312600.0,-40.56508,67.3469
1000.0,796847.9,-54.6988,67.3466
2154.4,480049.9,-62.92757,67.3471
4641.6,271625.8,-69.41297,67.3613
10000.0,146930.1,-74.73524,67.3618
