Frequency,Impedance,Phase Angle,Temperature (Dry Bath)
10.0,157095.9,-8.783492,65.6605
21.544346900318832,149961.5,-7.402154,65.6557
46.41588833612777,142608.5,-7.928728,65.6338
100.0,116031.5,-7.489222,65.6561
215.44346900318823,12568.74,-127.2679,65.6626
464.15888336127773,128623.7,1.432934,65.6424
1000.0,105377.1,-33.65461,65.6451
2154.4346900318824,93284.64,-24.13268,65.6608
4641.588833612777,76518.7,-46.57524,65.66
10000.0,46109.27,-55.20715,65.6427
