Frequency,Impedance,Phase Angle,Temperature (Dry Bath)
10.0,20233600.0,-14.37843,68.2407
21.5,22030700.0,-54.16874,68.2407
46.4,13843040.0,-60.17118,68.2407
100.0,4119780.0,-38.33611,68.2407
215.4,4666715.0,-89.0082,68.2407
464.2,1874722.0,-73.69319,68.2407
1000.0,976370.1,-75.82877,68.2407
2154.4,531870.0,-78.75468,68.2407
4641.6,280370.0,-86.42287,68.2407
10000.0,136183.0,-92.93902,68.2407
