Frequency,Impedance,Phase Angle,Temperature (Dry Bath)
10.0,335272.9,-5.646846,67.2375
21.5,318761.7,-5.454575,67.2444
46.4,307867.4,-5.620445,67.2521
100.0,295055.3,-4.346609,67.2497
215.4,209332.0,174.5387,67.2468
464.2,277399.3,-12.05539,67.2287
1000.0,247573.1,-20.44403,67.2408
2154.4,220852.4,-30.65584,67.2423
4641.6,164493.2,-45.93079,67.2422
10000.0,95739.91,-62.63025,67.2513
