Frequency,Impedance,Phase Angle,Temperature (Dry Bath)
10.0,28873610.0,4.202324,68.1761
21.5,23213810.0,-24.48676,68.1525
46.4,25664530.0,-47.86381,68.1591
100.0,5373203.0,-28.39558,68.1744
215.4,7224573.0,-103.8775,68.1654
464.2,3550585.0,-88.66517,68.1814
1000.0,1431355.0,-84.39079,68.1811
2154.4,711846.4,-87.0337,68.1829
4641.6,319577.8,-94.53824,68.1711
10000.0,159467.9,-99.34018,68.1751
