Frequency,Impedance,Phase Angle,Temperature (Dry Bath)
10.0,20810720.0,0.3027493,68.0909
21.5,16903430.0,-36.45885,68.0779
46.4,10883590.0,-64.6584,68.0659
100.0,5745304.0,-33.13155,68.0602
215.4,3807155.0,-57.30255,68.0673
464.2,1802264.0,-75.08264,68.0672
1000.0,929902.5,-76.46868,68.052
2154.4,462223.5,-76.22015,68.0799
4641.6,270817.9,-77.0654,68.0787
10000.0,132186.1,-89.90215,68.0819
