Frequency,Impedance,Phase Angle,Temperature (Dry Bath)
10.0,580855.1,-11.317,68.192
21.5,538719.2,-11.04424,68.1873
46.4,495352.7,-11.36136,68.1704
100.0,436769.2,-15.74062,68.1823
215.4,408855.1,-19.73194,68.1728
464.2,340739.3,-22.15009,68.1761
1000.0,282706.4,-27.77794,68.1768
2154.4,222708.5,-37.21787,68.1871
4641.6,154139.7,-46.86206,68.1704
10000.0,110099.7,-61.29274,68.1734
