Frequency,Impedance,Phase Angle,Temperature (Dry Bath)
10.0,13459970.0,-11.23572,68.2836
21.5,16506250.0,-24.40102,68.2913
46.4,14012950.0,-48.27262,68.2916
100.0,4301586.0,-23.38368,68.2786
215.4,3003159.0,-86.93036,68.3029
464.2,1938192.0,-87.58939,68.2931
1000.0,991801.7,-84.81621,68.2837
2154.4,435582.9,-86.00255,68.2855
4641.6,216903.4,-87.63859,68.279
10000.0,119399.8,-87.53369,68.2807
