Frequency,Impedance,Phase Angle,Temperature (Dry Bath)
10.0,139098.3,-5.804418,67.2321
21.5,134038.4,-4.799837,67.2364
46.4,129894.8,-4.378681,67.2184
100.0,126077.7,-6.261648,67.2343
215.4,246417.1,-15.34654,67.2324
464.2,120133.0,-8.527097,67.2332
1000.0,112218.6,-11.60327,67.2119
2154.4,103588.2,-19.95675,67.2266
4641.6,87780.92,-33.11138,67.2226
10000.0,62033.61,-51.88391,67.2307
