Frequency,Impedance,Phase Angle,Temperature (Dry Bath)
10.0,185461.8,-27.42596,65.8453
21.544346900318832,148142.1,-24.67692,65.8506
46.41588833612777,122553.5,-22.31228,65.8498
100.0,82118.77,-8.171042,65.851
215.44346900318823,72779.55,-36.37644,65.8521
464.15888336127773,77236.27,-14.76309,65.8532
1000.0,76886.38,-20.71929,65.8529
2154.4346900318824,60046.06,-24.11677,65.8503
4641.588833612777,47234.89,-33.32587,65.847
10000.0,38959.31,-46.31548,65.8409
