Frequency,Impedance,Phase Angle,Temperature (Dry Bath)
10.0,23031280.0,-23.87609,67.1847
21.5,18995110.0,-41.80834,67.1785
46.4,12179130.0,-61.85671,67.1896
100.0,3039113.0,-69.66227,67.1858
215.4,231124.1,134.9619,67.1778
464.2,1694501.0,-77.19701,67.175
1000.0,796294.5,-71.95963,67.1773
2154.4,408954.0,-73.45091,67.1889
4641.6,233866.4,-74.83132,67.1797
10000.0,116755.4,-81.47351,67.1874
