Frequency,Impedance,Phase Angle,Temperature (Dry Bath)
10.0,114605.5,-9.692881,67.3419
21.5,107161.6,-8.444323,67.3389
46.4,102972.2,-9.056855,67.3511
100.0,96268.63,-8.294514,67.3446
215.4,86044.11,-11.7839,67.3386
464.2,85369.0,-12.65487,67.3589
1000.0,76027.46,-15.38159,67.3357
2154.4,66929.79,-20.86685,67.3427
4641.6,55632.64,-29.00287,67.3306
10000.0,43270.65,-37.37998,67.3276
