Frequency,Impedance,Phase Angle,Temperature (Dry Bath)
10.0,6747345.0,2.490918,71.326
21.544346900318832,5410405.0,3.331821,71.326
46.41588833612777,5513182.0,2.93708,71.342
100.0,1777512.0,128.8677,71.3354
215.44346900318823,860264.9,-32.07587,71.3454
464.15888336127773,1316090.0,-155.8465,71.3353
1000.0,307370.2,66.46508,71.3397
2154.4346900318824,455875.0,-85.62324,71.3283
4641.588833612777,296086.4,-69.6286,71.3485
10000.0,275249.4,-75.96797,71.3427
