Frequency,Impedance,Phase Angle,Temperature (Dry Bath)
10.0,31914450.0,-3.654218,67.1553
21.5,31755170.0,-22.19109,67.1515
46.4,14454910.0,-38.43335,67.1515
100.0,3786727.0,-76.07105,67.1686
215.4,336453.4,81.66174,67.1571
464.2,2522302.0,-85.35914,67.1537
1000.0,1183325.0,-86.94037,67.17
2154.4,615979.9,-85.87717,67.1657
4641.6,288853.5,-88.65714,67.1718
10000.0,129316.3,-87.10293,67.1596
