Frequency,Impedance,Phase Angle,Temperature (Dry Bath)
10.0,7450484.0,-12.93599,71.0226
21.544346900318832,7428765.0,-13.92821,71.0204
46.41588833612777,4791471.0,-44.06362,71.0173
100.0,988693.2,171.4391,71.0011
215.44346900318823,1123753.0,68.29022,71.0296
464.15888336127773,1319345.0,-94.63297,71.0258
1000.0,351443.5,-90.0175,71.0058
2154.4346900318824,234570.5,-89.19358,71.0177
4641.588833612777,139230.0,-62.76586,71.0287
10000.0,57191.78,-83.64909,71.0204
