Frequency,Impedance,Phase Angle,Temperature (Dry Bath)
10.0,3868278.0,-10.85942,70.7448
21.544346900318832,3247210.0,-9.13783,70.7249
46.41588833612777,4996964.0,-6.826129,70.7374
100.0,915776.4,40.97677,70.7494
215.44346900318823,925596.6,80.55805,70.7369
464.15888336127773,607443.4,-69.94152,70.7527
1000.0,315417.4,-136.4181,70.7383
2154.4346900318824,220617.9,-78.35954,70.7432
4641.588833612777,157014.8,-101.7192,70.7502
10000.0,77735.76,-86.06848,70.7491
