Frequency,Impedance,Phase Angle,Temperature (Dry Bath)
10.0,5860154.0,-14.28494,71.3427
21.544346900318832,6532529.0,-11.80702,71.3431
46.41588833612777,2405718.0,-41.42839,71.3258
100.0,665939.9,99.68583,71.3284
215.44346900318823,29014.49,68.83096,71.3317
464.15888336127773,753546.4,-3.602672,71.3136
1000.0,357245.2,-42.59214,71.3339
2154.4346900318824,279020.0,-55.17379,71.3161
4641.588833612777,109472.0,-91.39593,71.3202
10000.0,63270.73,-83.74362,71.3181
