Frequency,Impedance,Phase Angle,Temperature (Dry Bath)
10.0,9353799.0,-71.08352,71.4381
21.544346900318832,12769940.0,19.0298,71.4299
46.41588833612777,5880024.0,-35.41621,71.455
100.0,239428.4,-34.00971,71.4467
215.44346900318823,3642449.0,86.57008,71.4344
464.15888336127773,430609.2,-45.8677,71.4394
1000.0,459192.1,91.60858,71.4382
2154.4346900318824,395813.3,-29.1183,71.4329
4641.588833612777,251878.3,-63.4808,71.4321
10000.0,169729.2,-83.73139,71.4423
