Frequency,Impedance,Phase Angle,Temperature (Dry Bath)
10.0,11564.6,-24.52176,71.0642
21.544346900318832,9614.056,-20.57754,71.0832
46.41588833612777,8237.464,-17.3033,71.0973
100.0,7249.232,-14.07117,71.0655
215.44346900318823,6551.116,-12.3847,71.081
464.15888336127773,5947.512,-10.41706,71.0605
1000.0,5500.382,-8.892223,71.0949
2154.4346900318824,5167.016,-8.410089,71.0911
4641.588833612777,4875.995,-8.374802,71.088
10000.0,4583.282,-10.14863,71.0684
