Frequency,Impedance,Phase Angle,Temperature (Dry Bath)
10.0,44480540.0,-15.52988,66.9691
21.5,28124050.0,-29.58481,66.9671
46.4,16836700.0,-49.8988,66.9775
100.0,22742150.0,162.9706,66.9834
215.4,8111013.0,81.64081,66.9702
464.2,3264068.0,-76.19562,66.9845
1000.0,1568270.0,-81.79417,66.974
2154.4,608713.5,-87.27249,66.9824
4641.6,266069.2,-88.45451,66.9715
10000.0,127917.0,-88.38682,66.9824
