Frequency,Impedance,Phase Angle,Temperature (Dry Bath)
10.0,31056160.0,-8.724224,67.9732
21.5,41291810.0,-37.68153,67.9686
46.4,16116140.0,-64.04034,67.9754
100.0,4225717.0,-52.81678,67.9783
215.4,4356054.0,-82.73545,67.9722
464.2,2381050.0,-88.19526,67.9841
1000.0,1023175.0,-82.84597,67.9812
2154.4,509661.9,-85.54027,67.9417
4641.6,235282.8,-88.08559,67.9628
10000.0,120169.5,-91.40205,67.9608
