Frequency,Impedance,Phase Angle,Temperature (Dry Bath)
10.0,28132290.0,-6.199421,67.9814
21.5,23638700.0,-12.02455,67.9814
46.4,36100470.0,-52.89679,67.9814
100.0,4941649.0,-37.64576,67.9814
215.4,10035130.0,-84.68204,67.9814
464.2,3856253.0,-81.94586,67.9814
1000.0,1397672.0,-89.44896,67.9814
2154.4,659187.7,-92.57427,67.9814
4641.6,345901.9,-88.57914,67.9814
10000.0,152539.6,-95.54888,67.9814
