Frequency,Impedance,Phase Angle,Temperature (Dry Bath)
10.0,551323.6,-13.62503,71.3523
21.544346900318832,480705.5,-14.96354,71.3472
46.41588833612777,444056.7,-14.72635,71.3519
100.0,271398.9,-1.232492,71.3559
215.44346900318823,19514.61,-155.1836,71.3483
464.15888336127773,205292.4,2.413997,71.3552
1000.0,159578.7,-19.46351,71.3622
2154.4346900318824,184410.0,-43.62115,71.3462
4641.588833612777,91963.08,-57.44653,71.3437
10000.0,53862.21,-61.28419,71.3438
