Frequency,Impedance,Phase Angle,Temperature (Dry Bath)
10.0,3865471.0,5.631421,71.4837
21.544346900318832,5826202.0,23.96356,71.4928
46.41588833612777,6152887.0,-26.54109,71.5
100.0,528029.1,-76.33073,71.5094
215.44346900318823,1090507.0,-56.98959,71.4992
464.15888336127773,1116714.0,-33.62815,71.502
1000.0,1179578.0,-44.92324,71.4973
2154.4346900318824,414793.5,-80.24191,71.5016
4641.588833612777,213848.6,-72.2,71.5137
10000.0,112608.5,-79.49556,71.5089
