Frequency,Impedance,Phase Angle,Temperature (Dry Bath)
10.0,657928.3,-13.24046,68.2796
21.5,601391.4,-12.29172,68.2796
46.4,555486.6,-12.75493,68.2796
100.0,484389.2,-11.41896,68.2796
215.4,436271.3,-16.35428,68.2796
464.2,378228.7,-21.08538,68.2796
1000.0,324980.2,-25.78469,68.2796
2154.4,264089.8,-34.87538,68.2796
4641.6,192300.6,-44.06213,68.2796
10000.0,132385.5,-66.49268,68.2796
