Frequency,Impedance,Phase Angle,Temperature (Dry Bath)
10.0,26463270.0,-31.10346,67.0757
21.5,18391970.0,-42.55819,67.0736
46.4,15060890.0,-57.09777,67.1049
100.0,6430854.0,-40.55562,67.0898
215.4,2422672.0,-96.87044,67.0816
464.2,1562486.0,-77.31945,67.1014
1000.0,852280.8,-79.20462,67.0821
2154.4,488462.6,-79.40697,67.0911
4641.6,230104.5,-81.13886,67.1153
10000.0,109733.9,-83.15906,67.0988
