Frequency,Impedance,Phase Angle,Temperature (Dry Bath)
10.0,2036812.0,-0.4302988,67.9457
21.5,2036965.0,-2.506169,67.9457
46.4,3453705.0,2.357035,67.9457
100.0,2800026.0,-22.63574,67.9457
215.4,3339292.0,-72.18438,67.9457
464.2,1578385.0,-80.89713,67.9457
1000.0,913563.0,-66.13049,67.9457
2154.4,533410.4,-78.36505,67.9457
4641.6,272123.0,-82.69476,67.9457
10000.0,135373.0,-91.15393,67.9457
