Frequency,Impedance,Phase Angle,Temperature (Dry Bath)
10.0,62560970.0,-22.85455,67.8872
21.5,44968100.0,-16.5063,67.9058
46.4,19300400.0,-50.05527,67.8835
100.0,9011747.0,3.437748,67.8981
215.4,4011285.0,-71.02771,67.9037
464.2,2895253.0,-97.50786,67.8989
1000.0,1465838.0,-84.95715,67.9071
2154.4,686905.0,-81.39702,67.9143
4641.6,333562.2,-87.53098,67.8879
10000.0,148069.7,-93.73368,67.8835
