Frequency,Impedance,Phase Angle,Temperature (Dry Bath)
10.0,7695.945,-35.79707,71.4758
21.544346900318832,5803.905,-31.36274,71.4899
46.41588833612777,4551.344,-27.05329,71.4829
100.0,3717.724,-22.34845,71.4904
215.44346900318823,3101.192,-19.27418,71.4807
464.15888336127773,2702.123,-15.7782,71.4731
1000.0,2408.479,-13.1156,71.4758
2154.4346900318824,2190.932,-11.20875,71.5058
4641.588833612777,2013.691,-10.06872,71.4854
10000.0,1877.316,-9.530614,71.4879
