Frequency,Impedance,Phase Angle,Temperature (Dry Bath)
10.0,23053840.0,-21.39141,66.9985
21.5,27017420.0,-28.25247,67.0143
46.4,21004090.0,-53.4536,67.0079
100.0,26451330.0,-56.15047,67.0284
215.4,7882553.0,28.42661,67.0225
464.2,2774896.0,-103.2451,67.0089
1000.0,1079876.0,-87.20374,67.0285
2154.4,641805.0,-91.2171,67.0233
4641.6,278469.3,-88.68678,67.0125
10000.0,130084.7,-86.56271,67.0134
