Frequency,Impedance,Phase Angle,Temperature (Dry Bath)
10.0,26644.22,-20.03851,71.4392
21.544346900318832,22547.25,-21.20702,71.4464
46.41588833612777,18825.01,-23.28578,71.4447
100.0,15130.3,-26.15473,71.4432
215.44346900318823,12108.85,-28.17745,71.4396
464.15888336127773,9533.289,-28.77695,71.4475
1000.0,7638.028,-27.91867,71.4493
2154.4346900318824,5659.041,-24.79116,71.4473
4641.588833612777,4735.479,-22.47766,71.439
10000.0,4117.27,-19.34932,71.4256
