Frequency,Impedance,Phase Angle,Temperature (Dry Bath)
10.0,190142.4,-21.65705,65.7653
21.544346900318832,158294.8,-19.27169,65.7664
46.41588833612777,133522.7,-18.59436,65.7652
100.0,112502.9,-23.97333,65.7704
215.44346900318823,7297.532,-30.67471,65.7636
464.15888336127773,95598.55,-18.41875,65.7641
1000.0,83653.13,-17.06777,65.7708
2154.4346900318824,67849.15,-23.61398,65.7784
4641.588833612777,55776.67,-31.16235,65.7762
10000.0,36427.48,-47.17941,65.7639
