Frequency,Impedance,Phase Angle,Temperature (Dry Bath)
10.0,27548970.0,-3.982614,67.3755
21.5,36057910.0,-33.08329,67.3714
46.4,20464440.0,-61.31993,67.3688
100.0,5788716.0,-76.20312,67.3669
215.4,1491668.0,-9.243802,67.3779
464.2,2897992.0,-75.53227,67.3672
1000.0,1357998.0,-80.60673,67.3721
2154.4,628525.4,-86.99691,67.3771
4641.6,281103.9,-88.21734,67.3858
10000.0,134920.8,-87.42921,67.3665
