Frequency,Impedance,Phase Angle,Temperature (Dry Bath)
10.0,13075.75,-27.75025,71.1477
21.544346900318832,10434.49,-25.1883,71.1307
46.41588833612777,8518.96,-22.59628,71.1442
100.0,7005.346,-19.92185,71.1463
215.44346900318823,6153.098,-17.7244,71.1427
464.15888336127773,5405.05,-15.55727,71.1289
1000.0,4723.768,-13.05576,71.1421
2154.4346900318824,4276.605,-12.96082,71.1488
4641.588833612777,3889.118,-12.09637,71.1448
10000.0,3581.988,-12.88467,71.1537
