Frequency,Impedance,Phase Angle,Temperature (Dry Bath)
10.0,33291950.0,-30.89152,68.0295
21.5,30579320.0,-30.28709,68.0192
46.4,25858850.0,-56.3775,68.0346
100.0,6868537.0,-64.69404,68.0323
215.4,4580304.0,-80.55718,68.0194
464.2,2297281.0,-81.09939,68.0207
1000.0,1131393.0,-80.07237,68.0028
2154.4,494594.8,-88.63239,68.0169
4641.6,244041.1,-89.19347,68.0225
10000.0,121441.9,-94.00347,68.0119
