Frequency,Impedance,Phase Angle,Temperature (Dry Bath)
10.0,25263.58,-17.49924,71.3906
21.544346900318832,21797.64,-16.5579,71.4003
46.41588833612777,19068.12,-15.60327,71.3876
100.0,16934.8,-15.07206,71.3939
215.44346900318823,15019.42,-12.56591,71.3899
464.15888336127773,13586.78,-11.58477,71.3891
1000.0,12480.01,-11.04863,71.3977
2154.4346900318824,11637.3,-9.968781,71.4115
4641.588833612777,10505.83,-11.49973,71.3903
10000.0,9835.879,-13.50959,71.3842
