Frequency,Impedance,Phase Angle,Temperature (Dry Bath)
10.0,5242136.0,9.460729,66.6104
21.544346900318832,5335293.0,-6.278428,66.6043
46.41588833612777,3889329.0,4.429396,66.5898
100.0,3023578.0,-31.7257,66.5858
215.44346900318823,3174921.0,-85.60719,66.5915
464.15888336127773,1041610.0,-90.49628,66.6042
1000.0,1401598.0,35.997,66.602
2154.4346900318824,1548329.0,5.089187,66.6025
4641.588833612777,782997.2,25.60088,66.5948
10000.0,1193640.0,59.47733,66.6032
