Frequency,Impedance,Phase Angle,Temperature (Dry Bath)
10.0,22014780.0,-5.060246,68.2499
21.5,14804420.0,-23.73212,68.2499
46.4,14154900.0,-41.43287,68.2499
100.0,5584503.0,-33.78397,68.2499
215.4,9674080.0,-80.32083,68.2499
464.2,4129367.0,-81.55029,68.2499
1000.0,1496078.0,-90.8129,68.2499
2154.4,682600.1,-91.18372,68.2499
4641.6,342218.7,-87.34213,68.2499
10000.0,148622.2,-93.16526,68.2499
