Frequency,Impedance,Phase Angle,Temperature (Dry Bath)
10.0,1388032.0,-9.938678,67.1018
21.5,1301601.0,-11.67698,67.1182
46.4,1163375.0,-13.64767,67.1171
100.0,714125.2,-8.068091,67.1155
215.4,1042579.0,-32.75101,67.1235
464.2,772743.2,-27.69272,67.1069
1000.0,413368.5,-49.00497,67.1137
2154.4,339937.3,-60.13772,67.1142
4641.6,181130.4,-67.29052,67.1084
10000.0,97902.14,-71.77444,67.1262
