Frequency,Impedance,Phase Angle,Temperature (Dry Bath)
10.0,9827560.0,37.22368,65.7479
21.544346900318832,3491532.0,0.7894764,65.7338
46.41588833612777,3593947.0,-27.46028,65.7695
100.0,139776.1,171.8284,65.7574
215.44346900318823,330802.5,-174.9162,65.7693
464.15888336127773,2766675.0,11.10093,65.7431
1000.0,980427.5,-68.44463,65.7479
2154.4346900318824,315151.5,-84.8899,65.7609
4641.588833612777,167589.3,-76.69435,65.7567
10000.0,74545.15,-90.22833,65.7567
