Frequency,Impedance,Phase Angle,Temperature (Dry Bath)
10.0,26737.17,-21.34455,71.3899
21.544346900318832,22257.92,-22.69498,71.3991
46.41588833612777,18226.63,-23.81937,71.3982
100.0,14476.79,-24.48982,71.4164
215.44346900318823,11419.18,-27.84316,71.402
464.15888336127773,9558.983,-26.57083,71.4045
1000.0,7513.108,-26.11872,71.3949
2154.4346900318824,5964.228,-24.27711,71.4127
4641.588833612777,4737.272,-23.88846,71.3923
10000.0,3943.326,-21.10598,71.3933
