Frequency,Impedance,Phase Angle,Temperature (Dry Bath)
10.0,213648.3,-25.53131,66.2684
21.544346900318832,170988.5,-24.12109,66.2689
46.41588833612777,141871.6,-21.34001,66.2794
100.0,139988.6,-19.64568,66.2802
215.44346900318823,101066.6,-19.89913,66.2704
464.15888336127773,99109.09,-21.74863,66.2775
1000.0,75516.2,-19.14087,66.2649
2154.4346900318824,63545.48,-28.5905,66.2773
4641.588833612777,55900.47,-39.00933,66.272
10000.0,38812.36,-50.46241,66.2681
