Frequency,Impedance,Phase Angle,Temperature (Dry Bath)
10.0,153305.2,-6.249026,68.1368
21.5,147423.6,-5.212544,68.1317
46.4,142442.9,-4.812285,68.1337
100.0,133753.8,-4.824967,68.1393
215.4,134657.7,-6.242401,68.1372
464.2,132010.1,-7.31075,68.1255
1000.0,123568.7,-12.95725,68.1304
2154.4,112245.2,-19.48107,68.1329
4641.6,98086.79,-33.78305,68.1444
10000.0,74328.47,-53.09662,68.1366
