Frequency,Impedance,Phase Angle,Temperature (Dry Bath)
10.0,665385.7,-13.36427,68.2813
21.5,600559.3,-12.22087,68.2813
46.4,556927.8,-13.10641,68.2813
100.0,471609.5,-13.75574,68.2813
215.4,461457.8,-17.54148,68.2813
464.2,371271.6,-21.54273,68.2813
1000.0,333676.4,-27.11354,68.2813
2154.4,258193.4,-33.71707,68.2813
4641.6,191985.2,-48.89627,68.2813
10000.0,133398.2,-65.29885,68.2813
