Frequency,Impedance,Phase Angle,Temperature (Dry Bath)
10.0,33203240.0,-36.20383,66.9908
21.5,23564790.0,-30.00705,66.981
46.4,14556420.0,-59.03947,66.9859
100.0,4541329.0,6.040212,66.9855
215.4,264239.7,-81.00697,66.9813
464.2,2169326.0,-58.91011,66.9704
1000.0,955916.8,-81.70812,66.9918
2154.4,491691.4,-81.76271,66.9983
4641.6,229154.0,-78.58116,67.0014
10000.0,119608.8,-78.91972,66.9806
