Frequency,Impedance,Phase Angle,Temperature (Dry Bath)
10.0,24276040.0,-13.50573,67.4129
21.5,23065030.0,-26.04679,67.4013
46.4,9273733.0,-83.73912,67.4492
100.0,4250385.0,-51.62127,67.4258
215.4,416440.1,-156.8509,67.4509
464.2,1289181.0,-96.37201,67.4336
1000.0,1236389.0,-89.94305,67.4333
2154.4,577711.9,-86.65099,67.4403
4641.6,269036.7,-87.47767,67.4598
10000.0,132353.0,-86.92085,67.457
