Frequency,Impedance,Phase Angle,Temperature (Dry Bath)
10.0,15493.65,-25.56316,71.3718
21.544346900318832,12380.4,-26.45928,71.3809
46.41588833612777,9774.733,-26.81411,71.3835
100.0,7637.017,-26.77464,71.3898
215.44346900318823,6161.103,-24.48864,71.3822
464.15888336127773,5079.12,-22.6612,71.3661
1000.0,4172.012,-19.81441,71.3866
2154.4346900318824,3588.038,-17.73231,71.3774
4641.588833612777,3120.725,-15.76574,71.3713
10000.0,2772.069,-14.36033,71.3711
