Frequency,Impedance,Phase Angle,Temperature (Dry Bath)
10.0,1048666.0,-10.14462,67.8972
21.5,983861.9,-11.1367,67.8955
46.4,935792.4,-12.17146,67.8971
100.0,729066.8,-14.13337,67.9047
215.4,720461.6,-20.80043,67.9083
464.2,635084.4,-28.66507,67.896
1000.0,473461.1,-41.12879,67.9122
2154.4,321292.1,-47.95113,67.9217
4641.6,207379.2,-60.52829,67.906
10000.0,132028.2,-72.74283,67.8957
