Frequency,Impedance,Phase Angle,Temperature (Dry Bath)
10.0,548294.1,-8.351893,67.0681
21.5,515882.5,-8.629488,67.072
46.4,485792.3,-9.649684,67.0626
100.0,478744.7,-11.77732,67.0845
215.4,469207.9,-19.1231,67.0768
464.2,387467.0,-19.95344,67.079
1000.0,311231.9,-26.89482,67.0694
2154.4,240288.0,-42.58445,67.0818
4641.6,150220.5,-52.6912,67.085
10000.0,91927.6,-62.18038,67.0771
