Frequency,Impedance,Phase Angle,Temperature (Dry Bath)
10.0,12377.45,-8.642506,67.5616
21.5,11806.3,-4.969645,67.5575
46.4,11601.25,-4.538249,67.5529
100.0,11572.19,-5.319616,67.5509
215.4,12769.66,1.144839,67.5479
464.2,11334.76,-5.949768,67.5777
1000.0,10981.99,-5.819526,67.5551
2154.4,10615.17,-5.924368,67.5498
4641.6,10263.67,-6.778748,67.5469
10000.0,9929.069,-9.584216,67.5569
