Frequency,Impedance,Phase Angle,Temperature (Dry Bath)
10.0,32717540.0,-10.99109,67.0257
21.5,26938570.0,-36.87968,67.0415
46.4,18817740.0,-48.37705,67.041
100.0,10326130.0,-83.01999,67.0409
215.4,3538564.0,-112.6208,67.0363
464.2,3845606.0,-75.28076,67.0439
1000.0,1222482.0,-74.62049,67.0475
2154.4,569570.3,-87.54394,67.0312
4641.6,284247.8,-86.39597,67.0478
10000.0,132237.9,-87.66105,67.0361
