Frequency,Impedance,Phase Angle,Temperature (Dry Bath)
10.0,7736812.0,6.52368,66.5886
21.544346900318832,4933685.0,7.205894,66.5885
46.41588833612777,5684449.0,-5.070533,66.592
100.0,6305277.0,-88.34216,66.5786
215.44346900318823,4095268.0,22.67861,66.5989
464.15888336127773,3287953.0,36.4284,66.604
1000.0,3768503.0,-101.2698,66.5826
2154.4346900318824,3168323.0,20.37736,66.5992
4641.588833612777,5105613.0,-7.88579,66.5943
10000.0,4693857.0,-55.86367,66.5947
