Frequency,Impedance,Phase Angle,Temperature (Dry Bath)
10.0,38085040.0,-9.370375,67.5233
21.5,27864040.0,-23.49323,67.5021
46.4,14038000.0,-35.32926,67.5042
100.0,3843664.0,-13.35251,67.516
215.4,207169.6,-125.5352,67.5471
464.2,2184965.0,-74.09333,67.526
1000.0,1175022.0,-80.56718,67.5185
2154.4,594177.2,-87.15631,67.5307
4641.6,271723.8,-88.11878,67.5215
10000.0,131830.3,-86.80554,67.5321
