Frequency,Impedance,Phase Angle,Temperature (Dry Bath)
10.0,27475790.0,-37.57622,68.1558
21.5,19342850.0,-40.35794,68.1391
46.4,12541190.0,-56.52485,68.1522
100.0,4274866.0,-53.49292,68.1447
215.4,6939482.0,-84.60008,68.1448
464.2,2425350.0,-82.48978,68.137
1000.0,1013193.0,-86.80405,68.1538
2154.4,494512.5,-89.67041,68.141
4641.6,234714.2,-90.53113,68.1355
10000.0,114012.5,-92.7107,68.1423
