Frequency,Impedance,Phase Angle,Temperature (Dry Bath)
10.0,132700.6,-25.25006,67.1695
21.5,109205.8,-22.0685,67.1667
46.4,93527.54,-18.91966,67.1599
100.0,82720.16,-16.0386,67.1495
215.4,119979.6,11.45602,67.1293
464.2,68962.18,-13.05043,67.1633
1000.0,60645.63,-14.42861,67.117
2154.4,56046.84,-17.64361,67.1409
4641.6,48748.97,-24.75947,67.1404
10000.0,39617.04,-37.42123,67.1592
