Frequency,Impedance,Phase Angle,Temperature (Dry Bath)
10.0,229764.4,-26.42701,71.3435
21.544346900318832,188695.8,-22.72831,71.3411
46.41588833612777,154614.5,-20.39312,71.355
100.0,111452.3,-19.76141,71.3549
215.44346900318823,94323.0,-13.43078,71.3524
464.15888336127773,97301.29,-21.62195,71.3534
1000.0,81741.24,-20.22287,71.355
2154.4346900318824,69565.57,-29.26249,71.3598
4641.588833612777,58277.91,-39.46148,71.3606
10000.0,36497.67,-54.87612,71.3623
