Frequency,Impedance,Phase Angle,Temperature (Dry Bath)
10.0,740322.0,-8.194599,66.6092
21.544346900318832,813947.9,-8.427077,66.5977
46.41588833612777,919773.2,-8.518671,66.611
100.0,951241.2,-1.541504,66.5916
215.44346900318823,654642.3,-1.906312,66.6073
464.15888336127773,622156.6,-50.50163,66.603
1000.0,550854.6,1.277999,66.5948
2154.4346900318824,450980.3,-10.72669,66.6052
4641.588833612777,328506.4,-54.31386,66.5947
10000.0,214579.4,-56.484,66.6064
