Frequency,Impedance,Phase Angle,Temperature (Dry Bath)
10.0,45353.09,-12.06357,32.3832
21.544346900318832,41140.1,-10.38694,32.361
46.41588833612777,38178.05,-9.466476,32.3598
100.0,35383.2,-10.5398,32.3758
215.44346900318823,32113.82,-7.954938,32.3612
464.15888336127773,32477.88,-8.116359,32.3638
1000.0,30430.09,-7.324967,32.3819
2154.4346900318824,28558.34,-9.049248,32.3735
4641.588833612777,26582.04,-12.24395,32.3666
10000.0,24095.8,-21.29482,32.3664
