Frequency,Impedance,Phase Angle,Temperature (Dry Bath)
10.0,45359780.0,-14.25331,67.3259
21.5,20260940.0,-47.15977,67.3317
46.4,14163870.0,-62.58431,67.3086
100.0,4737378.0,-43.32632,67.3298
215.4,1845297.0,-62.69656,67.3101
464.2,1355031.0,-67.04647,67.3065
1000.0,802090.2,-77.55399,67.3193
2154.4,419679.8,-77.51986,67.3037
4641.6,226722.9,-79.40866,67.317
10000.0,116051.7,-81.15646,67.3154
