Frequency,Impedance,Phase Angle,Temperature (Dry Bath)
10.0,26381250.0,-18.53149,68.1667
21.5,26581770.0,-47.50652,68.1834
46.4,15677540.0,-59.53591,68.1879
100.0,5107234.0,-16.94456,68.1694
215.4,3629469.0,-55.42779,68.1679
464.2,1328825.0,-75.65737,68.1658
1000.0,989336.2,-68.26029,68.1848
2154.4,507230.3,-78.42154,68.1781
4641.6,257013.7,-86.32153,68.1612
10000.0,131787.4,-92.26884,68.1786
