Frequency,Impedance,Phase Angle,Temperature (Dry Bath)
10.0,14119.56,-19.62155,70.9604
21.544346900318832,12148.88,-16.94099,70.9672
46.41588833612777,10706.94,-14.86693,70.9545
100.0,9488.838,-12.62964,70.9638
215.44346900318823,8683.994,-11.60125,70.9614
464.15888336127773,7896.414,-10.51473,70.9467
1000.0,7242.544,-10.21148,70.9639
2154.4346900318824,6826.001,-9.128471,70.9705
4641.588833612777,6350.098,-9.956999,70.9614
10000.0,5900.725,-12.76933,70.9458
