Frequency,Impedance,Phase Angle,Temperature (Dry Bath)
10.0,129292.2,-25.07469,67.3574
21.5,107222.0,-21.81712,67.3353
46.4,91948.52,-18.73449,67.3506
100.0,81653.29,-16.35808,67.3473
215.4,73251.97,-14.08584,67.3447
464.2,67345.26,-13.1872,67.3635
1000.0,61455.62,-13.94798,67.3762
2154.4,55569.17,-17.68824,67.3587
4641.6,49499.86,-25.13323,67.357
10000.0,39832.14,-37.2153,67.3597
