Frequency,Impedance,Phase Angle,Temperature (Dry Bath)
10.0,155930.1,-6.160794,67.9362
21.5,149351.8,-5.24118,67.947
46.4,144528.6,-4.880325,67.9426
100.0,136424.3,-5.67297,67.9307
215.4,134864.0,-5.925705,67.9325
464.2,127241.9,-9.051583,67.924
1000.0,122985.1,-12.79612,67.9314
2154.4,112667.5,-20.50901,67.9279
4641.6,95197.22,-33.67655,67.9335
10000.0,73402.98,-52.55765,67.9335
