Frequency,Impedance,Phase Angle,Temperature (Dry Bath)
10.0,137933.6,-6.129168,66.9406
21.5,132638.1,-5.190269,66.9391
46.4,127978.0,-4.95429,66.9399
100.0,125202.8,-5.504037,66.9405
215.4,124936.8,-7.430746,66.9379
464.2,117205.4,-9.202825,66.9424
1000.0,109658.9,-12.2957,66.9507
2154.4,102622.2,-20.81826,66.9324
4641.6,83428.91,-31.97674,66.933
10000.0,60066.4,-50.85273,66.9338
