Frequency,Impedance,Phase Angle,Temperature (Dry Bath)
10.0,45323480.0,-13.42755,68.2499
21.5,20300120.0,-43.9151,68.2499
46.4,13198250.0,-51.84638,68.2499
100.0,4141423.0,-37.01011,68.2499
215.4,3826495.0,-86.99256,68.2499
464.2,2201170.0,-96.19423,68.2499
1000.0,967654.4,-83.35918,68.2499
2154.4,502654.7,-90.85828,68.2499
4641.6,243886.8,-91.0427,68.2499
10000.0,115528.3,-93.18878,68.2499
