Frequency,Impedance,Phase Angle,Temperature (Dry Bath)
10.0,28491950.0,-18.57712,67.314
21.5,24963860.0,-26.94708,67.2983
46.4,18756440.0,-53.80254,67.316
100.0,8476766.0,-7.184075,67.3099
215.4,3164620.0,-99.93995,67.317
464.2,2617380.0,-89.4901,67.3152
1000.0,1122450.0,-87.0381,67.3072
2154.4,595396.6,-83.58786,67.3116
4641.6,262751.9,-85.21088,67.3144
10000.0,132261.2,-86.87606,67.3204
