Frequency,Impedance,Phase Angle,Temperature (Dry Bath)
10.0,754640.3,-10.59443,67.9229
21.5,720842.1,-10.26894,67.946
46.4,686419.0,-11.2991,67.9163
100.0,547983.6,-14.6689,67.9253
215.4,535406.0,-14.73953,67.9194
464.2,469337.6,-20.75111,67.919
1000.0,377639.0,-31.90599,67.9276
2154.4,274923.1,-43.15171,67.9306
4641.6,194707.0,-52.59332,67.9412
10000.0,115783.7,-63.6175,67.9347
