Frequency,Impedance,Phase Angle,Temperature (Dry Bath)
10.0,6138024.0,-8.242023,65.7552
21.544346900318832,4649267.0,-11.74158,65.7454
46.41588833612777,5658302.0,-12.94143,65.738
100.0,5993989.0,-103.3602,65.7505
215.44346900318823,31656.76,-168.0043,65.7644
464.15888336127773,959228.5,0.6056162,65.7506
1000.0,413406.7,-86.91725,65.7548
2154.4346900318824,244932.2,-89.67594,65.753
4641.588833612777,166125.3,-84.65396,65.7625
10000.0,69110.96,-85.43433,65.7471
