Frequency,Impedance,Phase Angle,Temperature (Dry Bath)
10.0,2351289.0,-19.19469,65.6958
21.544346900318832,1433692.0,-19.72316,65.6967
46.41588833612777,1626397.0,-21.40143,65.7023
100.0,664513.4,-29.67293,65.6958
215.44346900318823,5481.837,-1.024042,65.6871
464.15888336127773,515305.6,-79.45592,65.692
1000.0,465239.2,-30.05687,65.6987
2154.4346900318824,254548.4,-80.45815,65.702
4641.588833612777,134913.0,-81.57682,65.7032
10000.0,77759.14,-77.42579,65.7175
