Frequency,Impedance,Phase Angle,Temperature (Dry Bath)
10.0,129054.3,-24.99551,67.1865
21.5,106872.0,-21.71293,67.1796
46.4,91526.19,-18.66008,67.1903
100.0,79924.08,-16.47816,67.1843
215.4,74078.76,-14.57743,67.1769
464.2,67022.87,-13.50493,67.1915
1000.0,61096.12,-13.98094,67.1946
2154.4,56033.13,-17.46236,67.1803
4641.6,49420.14,-24.35017,67.2072
10000.0,40020.52,-37.27505,67.1962
