Frequency,Impedance,Phase Angle,Temperature (Dry Bath)
10.0,268310.4,-9.080104,67.2691
21.5,254324.6,-8.00412,67.2697
46.4,241048.6,-7.584267,67.2895
100.0,222012.6,-8.86918,67.2664
215.4,115539.1,11.5666,67.2679
464.2,211630.3,-14.95716,67.2881
1000.0,185884.9,-20.99328,67.2765
2154.4,156647.5,-34.08491,67.2806
4641.6,106262.7,-48.76732,67.268
10000.0,63580.74,-60.05987,67.2635
