Frequency,Impedance,Phase Angle,Temperature (Dry Bath)
10.0,12644.15,-8.583752,66.6562
21.5,12083.1,-5.194765,66.661
46.4,11886.21,-4.898853,66.6541
100.0,11758.79,-5.324139,66.6447
215.4,10513.34,-6.39374,66.6487
464.2,11520.25,-6.140612,66.6537
1000.0,11133.91,-5.903344,66.6544
2154.4,10779.96,-6.025206,66.6648
4641.6,10461.1,-6.874606,66.6431
10000.0,10087.94,-9.961005,66.6495
