Frequency,Impedance,Phase Angle,Temperature (Dry Bath)
10.0,3347711.0,-4.498519,71.3647
21.544346900318832,3409019.0,-5.742212,71.3803
46.41588833612777,4613916.0,-17.95561,71.3753
100.0,1067970.0,-174.1754,71.3914
215.44346900318823,1159498.0,-53.57771,71.3613
464.15888336127773,550920.6,-77.91218,71.3756
1000.0,710827.4,-58.07032,71.392
2154.4346900318824,512253.9,-102.3521,71.3841
4641.588833612777,244892.9,-65.49572,71.3842
10000.0,106516.3,-82.03382,71.4027
