Frequency,Impedance,Phase Angle,Temperature (Dry Bath)
10.0,203053.6,-27.05431,66.4283
21.544346900318832,161308.9,-25.12521,66.4369
46.41588833612777,131327.8,-22.52043,66.4313
100.0,139072.5,-27.47873,66.4215
215.44346900318823,90625.16,-12.08638,66.4147
464.15888336127773,85209.95,-16.50288,66.4219
1000.0,72371.81,-22.29117,66.4376
2154.4346900318824,60389.59,-26.88188,66.4437
4641.588833612777,48486.52,-35.55769,66.4166
10000.0,35588.41,-50.30173,66.4148
