Frequency,Impedance,Phase Angle,Temperature (Dry Bath)
10.0,19560630.0,-24.63232,67.9718
21.5,15009920.0,-46.61546,67.9695
46.4,14161790.0,-59.30775,67.9781
100.0,4744623.0,-27.85788,67.9739
215.4,3154174.0,-83.00478,67.9796
464.2,2086476.0,-69.63004,67.9734
1000.0,1039165.0,-74.87453,67.9778
2154.4,498750.0,-84.91512,67.9772
4641.6,274270.6,-85.39493,67.9784
10000.0,124406.8,-91.05266,67.9816
