Frequency,Impedance,Phase Angle,Temperature (Dry Bath)
10.0,30618110.0,-7.102998,67.1415
21.5,27712660.0,-24.21206,67.146
46.4,13971230.0,-56.00651,67.1541
100.0,5700432.0,-89.18491,67.1256
215.4,4460101.0,-80.91328,67.1613
464.2,2051769.0,-81.75319,67.1592
1000.0,905755.8,-86.60225,67.1491
2154.4,496559.2,-85.24878,67.1465
4641.6,232915.9,-82.12949,67.1479
10000.0,117938.9,-79.43067,67.1431
