Frequency,Impedance,Phase Angle,Temperature (Dry Bath)
10.0,17899500.0,-21.13556,67.7683
21.5,14581060.0,-40.31172,67.7608
46.4,13219480.0,-61.19846,67.7781
100.0,4019341.0,-81.65571,67.7769
215.4,3186489.0,-73.62743,67.773
464.2,1734003.0,-74.06526,67.7637
1000.0,914596.6,-70.28246,67.7967
2154.4,493429.7,-77.43316,67.7789
4641.6,285176.6,-82.27097,67.7822
10000.0,126066.8,-85.42911,67.7704
