Frequency,Impedance,Phase Angle,Temperature (Dry Bath)
10.0,148328.6,-6.363937,68.0473
21.5,142556.3,-5.410034,68.0473
46.4,138106.7,-4.863407,68.0473
100.0,133605.7,-4.603107,68.0473
215.4,128965.8,-6.345314,68.0473
464.2,122155.6,-8.637415,68.0473
1000.0,115952.2,-13.07044,68.0473
2154.4,112202.1,-18.62373,68.0473
4641.6,97774.79,-30.98293,68.0473
10000.0,77817.91,-50.82062,68.0473
