Frequency,Impedance,Phase Angle,Temperature (Dry Bath)
10.0,11426.07,-5.108739,67.3602
21.5,11173.82,-4.213983,67.3505
46.4,10986.51,-3.586343,67.3399
100.0,10854.39,-4.17305,67.3462
215.4,11072.5,-7.990221,67.3496
464.2,10561.24,-4.200006,67.3467
1000.0,10251.28,-4.063715,67.3457
2154.4,10030.18,-4.451435,67.3552
4641.6,9770.733,-5.762569,67.3492
10000.0,9548.504,-8.777451,67.3259
