Frequency,Impedance,Phase Angle,Temperature (Dry Bath)
10.0,20836990.0,-1.597645,68.0196
21.5,17780810.0,-40.72404,68.0196
46.4,14176490.0,-52.51739,68.0196
100.0,5691038.0,-26.41888,68.0196
215.4,7556781.0,-61.30278,68.0196
464.2,2112013.0,-93.05288,68.0196
1000.0,1152507.0,-73.86241,68.0196
2154.4,516266.9,-83.81084,68.0196
4641.6,238889.4,-89.54456,68.0196
10000.0,112024.6,-92.59671,68.0196
