Frequency,Impedance,Phase Angle,Temperature (Dry Bath)
10.0,26340630.0,-23.70979,68.042
21.5,23237140.0,-35.44933,68.042
46.4,13821740.0,-39.84837,68.042
100.0,3811829.0,-23.34218,68.042
215.4,5883259.0,-46.52855,68.042
464.2,2568285.0,-99.34692,68.042
1000.0,1579735.0,-84.3286,68.042
2154.4,613178.1,-89.37402,68.042
4641.6,336140.5,-88.45905,68.042
10000.0,163468.8,-100.2684,68.042
