Frequency,Impedance,Phase Angle,Temperature (Dry Bath)
10.0,5220420.0,-30.07899,32.3641
21.544346900318832,4191636.0,-31.86377,32.3823
46.41588833612777,6244259.0,-15.73521,32.3834
100.0,1810700.0,172.57,32.3916
215.44346900318823,1632706.0,-56.88566,32.3841
464.15888336127773,951492.7,-64.66471,32.374
1000.0,1604595.0,-123.9056,32.3676
2154.4346900318824,647149.7,-94.3722,32.3616
4641.588833612777,280125.9,-78.68548,32.3738
10000.0,129713.9,-73.12446,32.3726
