Frequency,Impedance,Phase Angle,Temperature (Dry Bath)
10.0,140229.3,-5.624056,67.1246
21.5,135118.4,-4.661158,67.1333
46.4,131242.4,-4.336246,67.116
100.0,127455.4,-5.614051,67.1249
215.4,126230.5,-3.919306,67.1211
464.2,120957.2,-7.203853,67.1236
1000.0,113942.1,-11.70115,67.1325
2154.4,105729.7,-20.03491,67.118
4641.6,89048.2,-33.99866,67.1307
10000.0,63481.39,-50.5899,67.1292
