Frequency,Impedance,Phase Angle,Temperature (Dry Bath)
10.0,8824801.0,2.857011,65.6101
21.544346900318832,5875593.0,-14.426,65.625
46.41588833612777,3725438.0,-70.26824,65.6283
100.0,1702422.0,-5.864656,65.5977
215.44346900318823,16074.14,150.9826,65.613
464.15888336127773,826002.4,-5.483509,65.5919
1000.0,449440.4,-96.41539,65.6186
2154.4346900318824,337514.2,-69.97661,65.596
4641.588833612777,148495.5,-78.91102,65.597
10000.0,61480.27,-85.18435,65.5978
