Frequency,Impedance,Phase Angle,Temperature (Dry Bath)
10.0,23890330.0,-22.20499,68.3351
21.5,24205000.0,-29.5417,68.3516
46.4,10094520.0,-57.70789,68.3334
100.0,3253182.0,-61.77732,68.3565
215.4,3855577.0,-59.58264,68.3481
464.2,1650488.0,-58.71327,68.3539
1000.0,989099.2,-80.06146,68.3548
2154.4,532616.7,-78.1936,68.3482
4641.6,299185.7,-81.55472,68.3547
10000.0,130880.7,-88.33494,68.3531
