Frequency,Impedance,Phase Angle,Temperature (Dry Bath)
10.0,11722.44,-4.751343,67.2362
21.5,11381.14,-3.986514,67.2474
46.4,11116.88,-3.467615,67.2338
100.0,10993.52,-3.723714,67.2391
215.4,10679.87,-6.16054,67.2484
464.2,10667.16,-4.017476,67.2451
1000.0,10403.13,-3.787464,67.2428
2154.4,10186.43,-4.25449,67.2341
4641.6,10091.63,-5.710414,67.236
10000.0,9820.267,-9.228406,67.2303
