Frequency,Impedance,Phase Angle,Temperature (Dry Bath)
10.0,251463.0,-6.107378,66.9957
21.5,242236.6,-6.104007,66.9931
46.4,233637.6,-6.386436,66.9996
100.0,228810.9,-9.547637,66.9865
215.4,210754.3,-9.90636,66.9768
464.2,201875.7,-14.6164,66.9894
1000.0,177519.9,-23.18633,66.9755
2154.4,146385.2,-35.30566,66.9859
4641.6,99543.04,-49.46064,66.9791
10000.0,59923.46,-59.46982,66.9688
