Frequency,Impedance,Phase Angle,Temperature (Dry Bath)
10.0,1708369.0,-9.029763,67.1827
21.5,1586124.0,-11.70499,67.1854
46.4,1467484.0,-13.31863,67.1956
100.0,1629591.0,-9.569469,67.2092
215.4,1221133.0,-17.79257,67.1924
464.2,805240.2,-43.06913,67.2075
1000.0,635983.9,-52.71381,67.2104
2154.4,352466.9,-65.42763,67.1896
4641.6,187937.6,-70.89361,67.195
10000.0,100995.5,-73.83024,67.2015
