Frequency,Impedance,Phase Angle,Temperature (Dry Bath)
10.0,137843.4,-24.92307,67.3807
21.5,113310.9,-22.37486,67.413
46.4,98201.98,-19.73459,67.3927
100.0,85144.99,-16.38889,67.3885
215.4,78603.46,-15.82437,67.3932
464.2,69421.06,-14.61343,67.3864
1000.0,64237.12,-15.91517,67.3709
2154.4,57536.97,-18.87827,67.3908
4641.6,49911.26,-24.3812,67.3762
10000.0,41205.88,-36.12565,67.3839
