Frequency,Impedance,Phase Angle,Temperature (Dry Bath)
10.0,134238.8,-6.481287,66.9477
21.5,128530.1,-5.618098,66.9628
46.4,123758.9,-5.205924,66.9554
100.0,118466.1,-4.648052,66.9586
215.4,114870.2,-6.115114,66.9581
464.2,112815.2,-8.699218,66.9631
1000.0,104679.6,-13.71803,66.9756
2154.4,97443.4,-19.47134,66.9661
4641.6,83497.43,-32.15269,66.9695
10000.0,58914.21,-49.37051,66.969
