Frequency,Impedance,Phase Angle,Temperature (Dry Bath)
10.0,128937.4,-23.95459,67.307
21.5,108595.2,-21.73345,67.3024
46.4,93691.67,-19.42977,67.3084
100.0,83401.64,-17.46958,67.319
215.4,70551.58,-14.60303,67.3224
464.2,68461.88,-15.26624,67.3184
1000.0,60510.64,-15.37267,67.3097
2154.4,55596.37,-17.90229,67.3151
4641.6,48057.1,-23.88071,67.3062
10000.0,39620.09,-34.77739,67.3256
