Frequency,Impedance,Phase Angle,Temperature (Dry Bath)
10.0,21941770.0,-13.52251,67.2986
21.5,22203960.0,-25.57135,67.2845
46.4,18180610.0,-54.37242,67.2859
100.0,1928317.0,-15.27923,67.2829
215.4,6098176.0,-122.5591,67.2927
464.2,2094447.0,-87.59226,67.2959
1000.0,1047308.0,-83.33571,67.287
2154.4,591187.0,-95.62353,67.2845
4641.6,290079.3,-87.72811,67.2902
10000.0,129337.0,-86.97213,67.2729
