Frequency,Impedance,Phase Angle,Temperature (Dry Bath)
10.0,19567840.0,-11.81663,67.9523
21.5,22760260.0,-38.75808,67.9441
46.4,21678270.0,-35.93913,67.9607
100.0,12889870.0,24.31027,67.9483
215.4,8307151.0,-35.89424,67.9585
464.2,3237362.0,-62.64527,67.9618
1000.0,1463210.0,-82.926,67.9696
2154.4,663376.9,-90.29077,67.9735
4641.6,294537.1,-87.06176,67.9632
10000.0,139386.1,-92.0525,67.9646
