Frequency,Impedance,Phase Angle,Temperature (Dry Bath)
10.0,27527270.0,-12.87712,67.1423
21.5,26644130.0,-18.04919,67.1265
46.4,18379550.0,-70.7337,67.1179
100.0,5390321.0,48.36625,67.1346
215.4,293757.6,-121.6721,67.1429
464.2,2386125.0,-75.86103,67.1254
1000.0,1382772.0,-87.61673,67.1292
2154.4,578701.7,-84.03269,67.1173
4641.6,278216.7,-88.07293,67.1235
10000.0,130115.9,-87.67742,67.1231
