Frequency,Impedance,Phase Angle,Temperature (Dry Bath)
10.0,139259.5,-5.817087,67.3155
21.5,134264.4,-4.802629,67.3102
46.4,129957.3,-4.503487,67.3181
100.0,125210.0,-4.410447,67.316
215.4,315805.1,-31.14804,67.3058
464.2,119199.4,-8.735439,67.3012
1000.0,113107.0,-12.6498,67.3196
2154.4,102876.3,-20.34803,67.3088
4641.6,86895.03,-33.75274,67.3109
10000.0,61532.71,-51.2843,67.2937
