Frequency,Impedance,Phase Angle,Temperature (Dry Bath)
10.0,4707184.0,-9.475193,67.3
21.544346900318832,5322329.0,-1.016034,67.3
46.41588833612777,11292540.0,-23.59726,67.3
100.0,5925872.0,-82.98862,67.3
215.44346900318823,12893400.0,16.05548,67.3
464.15888336127773,4754680.0,-13.48162,67.3
1000.0,3150482.0,-73.90571,67.3
2154.4346900318824,3332668.0,19.23873,67.3
4641.588833612777,4773258.0,-85.02051,67.3
10000.0,2027669.0,-15.48954,67.3
