Frequency,Impedance,Phase Angle,Temperature (Dry Bath)
10.0,134873.6,-6.326929,67.2718
21.5,130772.6,-5.35915,67.2924
46.4,126284.9,-5.078096,67.2817
100.0,123659.6,-5.456651,67.288
215.4,120237.3,-5.838627,67.2776
464.2,115645.1,-7.805229,67.3021
1000.0,110278.4,-13.0427,67.2752
2154.4,100098.2,-18.57557,67.2917
4641.6,83785.58,-32.3761,67.2938
10000.0,61536.33,-49.20159,67.2852
