Frequency,Impedance,Phase Angle,Temperature (Dry Bath)
10.0,23145270.0,-6.538796,68.1154
21.5,27701160.0,-23.98559,68.1154
46.4,26420370.0,-53.88282,68.1154
100.0,5714402.0,-41.34238,68.1154
215.4,4343204.0,-68.38358,68.1154
464.2,2417526.0,-88.53796,68.1154
1000.0,1144874.0,-80.4472,68.1154
2154.4,519419.1,-87.79359,68.1154
4641.6,242139.5,-93.065,68.1154
10000.0,108940.2,-94.47728,68.1154
