Frequency,Impedance,Phase Angle,Temperature (Dry Bath)
10.0,20407400.0,-23.12628,68.0892
21.5,18859930.0,-50.02377,68.068
46.4,11253670.0,-56.85949,68.0865
100.0,3250629.0,-52.25431,68.0827
215.4,3356975.0,-90.35784,68.0724
464.2,2049238.0,-73.48704,68.0851
1000.0,1030603.0,-82.87927,68.0825
2154.4,533120.4,-83.33515,68.078
4641.6,228234.7,-85.93478,68.0711
10000.0,111597.7,-94.32792,68.0815
