Frequency,Impedance,Phase Angle,Temperature (Dry Bath)
10.0,4446127.0,-6.37189,71.4859
21.544346900318832,4376288.0,-6.30855,71.4783
46.41588833612777,5159938.0,-28.31926,71.472
100.0,2159055.0,10.16417,71.4715
215.44346900318823,2298005.0,-9.427417,71.4967
464.15888336127773,732568.8,176.6338,71.4784
1000.0,1013042.0,-50.91265,71.4835
2154.4346900318824,710164.9,-63.41664,71.4873
4641.588833612777,279886.3,-78.01625,71.4848
10000.0,116321.6,-86.15159,71.48
