Frequency,Impedance,Phase Angle,Temperature (Dry Bath)
10.0,73352.63,-14.95953,71.5446
21.544346900318832,65910.8,-13.06425,71.5377
46.41588833612777,59529.42,-12.17304,71.5393
100.0,57804.12,-8.675941,71.5357
215.44346900318823,49375.56,-9.652765,71.5427
464.15888336127773,43341.95,-9.855167,71.551
1000.0,41957.73,-9.162183,71.5571
2154.4346900318824,40248.27,-10.79645,71.5503
4641.588833612777,36730.02,-15.529,71.5398
10000.0,33252.47,-22.70681,71.546
