Frequency,Impedance,Phase Angle,Temperature (Dry Bath)
10.0,16698000.0,-6.959567,67.7824
21.5,19614770.0,-24.97664,67.7933
46.4,31243270.0,-58.06996,67.788
100.0,5671777.0,-38.75529,67.7768
215.4,3413193.0,-69.22334,67.7868
464.2,2416750.0,-77.89701,67.7922
1000.0,1202187.0,-83.35179,67.7992
2154.4,566173.5,-77.19512,67.7857
4641.6,314868.7,-84.50422,67.7931
10000.0,145768.0,-91.02145,67.7973
