Frequency,Impedance,Phase Angle,Temperature (Dry Bath)
10.0,33641790.0,18.48864,68.0838
21.5,22977770.0,-50.45516,68.0838
46.4,27762130.0,-51.32623,68.0838
100.0,4107813.0,-45.17812,68.0838
215.4,5353895.0,-55.14014,68.0838
464.2,2154534.0,-81.48121,68.0838
1000.0,1085809.0,-85.47104,68.0838
2154.4,510827.3,-88.82966,68.0838
4641.6,242047.5,-90.20191,68.0838
10000.0,111808.4,-92.45102,68.0838
