Frequency,Impedance,Phase Angle,Temperature (Dry Bath)
10.0,24700.95,-20.30883,71.2987
21.544346900318832,21081.97,-17.88787,71.2953
46.41588833612777,18331.79,-15.75468,71.298
100.0,16069.55,-14.52455,71.293
215.44346900318823,14718.49,-11.89706,71.3028
464.15888336127773,13472.41,-9.420893,71.289
1000.0,12251.94,-10.50362,71.295
2154.4346900318824,11944.48,-8.394967,71.2918
4641.588833612777,10861.35,-10.99532,71.2796
10000.0,10231.33,-15.95083,71.2784
