Frequency,Impedance,Phase Angle,Temperature (Dry Bath)
10.0,31902.46,-22.69966,28.2825
21.544346900318832,26489.51,-22.1324,28.1792
46.41588833612777,22121.14,-22.10701,28.3335
100.0,18394.45,-22.85877,28.2752
215.44346900318823,15394.23,-22.52933,28.1762
464.15888336127773,12677.77,-22.52953,28.3596
1000.0,10675.39,-23.39889,28.4135
2154.4346900318824,8607.383,-23.43841,28.393
4641.588833612777,6993.635,-22.91514,28.2607
10000.0,5804.119,-21.15217,27.9086
