Frequency,Impedance,Phase Angle,Temperature (Dry Bath)
10.0,25735590.0,-13.96228,68.0201
21.5,29427110.0,-15.04676,68.0156
46.4,28753640.0,-42.89202,68.014
100.0,5191799.0,-40.93449,68.0111
215.4,4569139.0,-74.61021,68.0169
464.2,2492922.0,-95.22673,68.0031
1000.0,1302404.0,-84.62336,68.0191
2154.4,705321.0,-90.62702,68.0093
4641.6,326619.8,-87.82875,68.0189
10000.0,157005.5,-96.17662,68.02
