Frequency,Impedance,Phase Angle,Temperature (Dry Bath)
10.0,7472531.0,-11.47445,71.4483
21.544346900318832,8724642.0,4.756862,71.4532
46.41588833612777,3529209.0,-38.03349,71.4476
100.0,678060.0,-56.55143,71.4298
215.44346900318823,956755.9,3.767013,71.4483
464.15888336127773,609010.8,-75.07685,71.4406
1000.0,841291.6,-96.82929,71.457
2154.4346900318824,277253.1,-78.88804,71.4466
4641.588833612777,148008.5,-70.24626,71.4612
10000.0,50738.62,-87.44017,71.4583
