Frequency,Impedance,Phase Angle,Temperature (Dry Bath)
10.0,22472.33,-21.7167,65.7402
21.544346900318832,18846.32,-18.5182,65.7568
46.41588833612777,16359.87,-15.281,65.7526
100.0,23883.53,-6.384579,65.7342
215.44346900318823,13851.93,-11.48423,65.7547
464.15888336127773,12667.51,-8.411377,65.7418
1000.0,12196.04,-8.636811,65.7445
2154.4346900318824,11311.04,-8.243,65.7303
4641.588833612777,10988.51,-9.293822,65.7382
10000.0,10235.08,-15.5046,65.752
