Frequency,Impedance,Phase Angle,Temperature (Dry Bath)
10.0,7345355.0,-11.05951,68.1785
21.5,7808600.0,-24.53302,68.1762
46.4,9443797.0,-35.6274,68.1804
100.0,6624862.0,-73.95676,68.2004
215.4,2916117.0,-74.81025,68.1767
464.2,1553495.0,-71.26128,68.2052
1000.0,891530.3,-86.07378,68.1971
2154.4,479724.2,-83.09021,68.1814
4641.6,234680.5,-82.69278,68.1903
10000.0,117739.8,-89.26049,68.1899
