Frequency,Impedance,Phase Angle,Temperature (Dry Bath)
10.0,3731149.0,-20.01065,71.2751
21.544346900318832,4165427.0,-7.50498,71.2707
46.41588833612777,4561328.0,-19.69817,71.2664
100.0,637212.7,95.49742,71.2744
215.44346900318823,469871.6,138.8309,71.2696
464.15888336127773,1050354.0,50.69001,71.2698
1000.0,645320.2,-59.24776,71.2719
2154.4346900318824,199630.8,-67.37119,71.2721
4641.588833612777,138742.1,-72.4154,71.261
10000.0,61082.27,-80.35153,71.2659
