Frequency,Impedance,Phase Angle,Temperature (Dry Bath)
10.0,22327.43,-21.92788,17.6047
21.5,19030.45,-17.5143,17.6356
46.4,16922.13,-13.63168,17.6093
100.0,15205.25,-10.97853,17.6203
215.4,14165.93,-8.436924,17.6123
464.2,13643.27,-7.331331,17.6407
1000.0,12802.69,-7.156106,17.6283
2154.4,12496.55,-6.739491,17.6269
4641.6,11654.65,-8.155302,17.6019
10000.0,11238.6,-12.82242,17.6086
