Frequency,Impedance,Phase Angle,Temperature (Dry Bath)
10.0,38000720.0,-23.61622,67.117
21.5,27056330.0,-28.09689,67.13
46.4,15857790.0,-55.46845,67.1216
100.0,3895168.0,15.58295,67.1362
215.4,349725.3,119.903,67.1301
464.2,2954473.0,-82.47473,67.1318
1000.0,1315318.0,-80.94526,67.1198
2154.4,552103.0,-91.86748,67.1477
4641.6,271405.5,-88.54995,67.1406
10000.0,131461.3,-87.47918,67.135
