Frequency,Impedance,Phase Angle,Temperature (Dry Bath)
10.0,15074.23,-26.1801,71.4138
21.544346900318832,12152.91,-23.92859,71.3978
46.41588833612777,9986.827,-21.67558,71.3917
100.0,8535.927,-19.59306,71.3731
215.44346900318823,7207.635,-16.34648,71.383
464.15888336127773,6327.298,-13.74086,71.3852
1000.0,5745.889,-11.6672,71.3835
2154.4346900318824,5313.113,-9.250951,71.3757
4641.588833612777,4945.901,-9.126459,71.3815
10000.0,4650.49,-9.22157,71.3698
