Frequency,Impedance,Phase Angle,Temperature (Dry Bath)
10.0,158175.1,-6.378271,68.0244
21.5,151053.4,-5.060951,68.017
46.4,145890.1,-4.854484,68.0319
100.0,138714.6,-6.930843,68.0348
215.4,135525.7,-4.811655,68.03
464.2,134342.0,-6.331384,68.031
1000.0,125735.2,-10.81482,68.0399
2154.4,118867.7,-18.1171,68.0293
4641.6,96272.33,-33.79608,68.0296
10000.0,70644.36,-54.95603,68.0351
