Frequency,Impedance,Phase Angle,Temperature (Dry Bath)
10.0,43550280.0,-26.39784,68.1996
21.5,32417020.0,-32.01328,68.2108
46.4,11904330.0,-55.69466,68.2212
100.0,8012443.0,-7.304499,68.2199
215.4,3477859.0,-87.76386,68.2157
464.2,1563364.0,-74.45721,68.2115
1000.0,933813.8,-75.56115,68.2045
2154.4,533000.9,-75.96953,68.1857
4641.6,257042.9,-82.8657,68.2042
10000.0,147439.2,-91.3835,68.1686
