Frequency,Impedance,Phase Angle,Temperature (Dry Bath)
10.0,29428560.0,-21.46248,67.3683
21.5,22074580.0,-38.83701,67.36
46.4,23222000.0,-38.28603,67.3661
100.0,10214120.0,-43.91703,67.3678
215.4,271986.0,2.858719,67.3715
464.2,1714724.0,-75.72912,67.3668
1000.0,926195.4,-84.88383,67.3728
2154.4,452026.8,-81.35094,67.3739
4641.6,222145.3,-81.25951,67.3723
10000.0,110686.8,-82.84432,67.3646
