Frequency,Impedance,Phase Angle,Temperature (Dry Bath)
10.0,267946.9,-13.77128,71.4117
21.544346900318832,244447.0,-15.5006,71.3975
46.41588833612777,218289.8,-15.45633,71.4135
100.0,195320.1,-11.19073,71.4124
215.44346900318823,175923.9,-17.42042,71.4114
464.15888336127773,127041.5,-28.69861,71.4092
1000.0,111287.7,-18.94482,71.3952
2154.4346900318824,105473.8,-25.28628,71.4098
4641.588833612777,98230.95,-37.91038,71.4066
10000.0,85547.84,-49.90585,71.3881
