Frequency,Impedance,Phase Angle,Temperature (Dry Bath)
10.0,3536894.0,12.00503,72.0092
21.544346900318832,5327931.0,-2.413916,72.0023
46.41588833612777,4123959.0,-19.28563,72.0073
100.0,2909243.0,-106.7479,72.0096
215.44346900318823,544982.5,-67.49181,72.0118
464.15888336127773,331445.8,-135.8244,72.0121
1000.0,405569.8,12.49859,72.0053
2154.4346900318824,370284.5,-78.10334,72.0128
4641.588833612777,512014.5,-48.89247,72.0046
10000.0,136815.9,-101.0062,71.9986
