Frequency,Impedance,Phase Angle,Temperature (Dry Bath)
10.0,26860420.0,-18.80713,67.9228
21.5,28038980.0,-35.57546,67.9232
46.4,26577370.0,-48.99913,67.92
100.0,5334455.0,-57.23459,67.9078
215.4,4530923.0,-56.65167,67.9258
464.2,2027505.0,-72.01793,67.9299
1000.0,948505.0,-83.9597,67.9384
2154.4,469015.3,-88.08949,67.9408
4641.6,244058.5,-91.9449,67.9292
10000.0,112047.3,-90.9568,67.9343
