Frequency,Impedance,Phase Angle,Temperature (Dry Bath)
10.0,33492460.0,-27.28922,68.036
21.5,40084670.0,-30.49716,68.0492
46.4,32663490.0,-49.44383,68.0619
100.0,5785749.0,-86.43154,68.0356
215.4,4242366.0,-91.11192,68.0565
464.2,2003611.0,-81.21343,68.0409
1000.0,981635.7,-76.35373,68.0313
2154.4,539458.2,-76.2531,68.0434
4641.6,270340.2,-80.86038,68.0415
10000.0,157820.7,-88.93183,68.0519
