Frequency,Impedance,Phase Angle,Temperature (Dry Bath)
10.0,5359062.0,-5.270372,71.5359
21.544346900318832,5817333.0,-17.97931,71.5343
46.41588833612777,4659848.0,-0.5792343,71.5567
100.0,701760.7,125.6241,71.5407
215.44346900318823,1350504.0,-107.7956,71.5536
464.15888336127773,4936361.0,60.02169,71.5398
1000.0,794932.0,-120.6118,71.5647
2154.4346900318824,543746.3,-93.22715,71.5632
4641.588833612777,251057.5,-84.29431,71.5326
10000.0,119688.3,-84.62025,71.5461
