Frequency,Impedance,Phase Angle,Temperature (Dry Bath)
10.0,4373938.0,1.366069,71.4186
21.544346900318832,4700269.0,-3.289722,71.4229
46.41588833612777,6936493.0,-21.31793,71.4349
100.0,938305.8,157.9707,71.4152
215.44346900318823,1370050.0,-28.45522,71.4399
464.15888336127773,3540574.0,-77.6312,71.4296
1000.0,1056623.0,-39.25836,71.4136
2154.4346900318824,393148.9,-71.39152,71.439
4641.588833612777,250904.5,-68.41534,71.4204
10000.0,115867.6,-89.23233,71.4203
