Frequency,Impedance,Phase Angle,Temperature (Dry Bath)
10.0,3472169.0,-16.28773,65.7769
21.544346900318832,3411107.0,-17.43933,65.7483
46.41588833612777,4469952.0,-41.39944,65.7503
100.0,87466.46,93.12776,65.7574
215.44346900318823,250429.5,-50.12233,65.734
464.15888336127773,500327.9,-113.2098,65.738
1000.0,1051094.0,-62.37053,65.7454
2154.4346900318824,206601.4,-104.235,65.743
4641.588833612777,106689.3,-89.38543,65.751
10000.0,73231.12,-89.10487,65.7314
