Frequency,Impedance,Phase Angle,Temperature (Dry Bath)
10.0,1593761.0,-9.413764,67.1856
21.5,1472973.0,-10.64212,67.1776
46.4,1362028.0,-14.24359,67.1853
100.0,1217237.0,-18.31063,67.1984
215.4,863268.8,-15.4884,67.18
464.2,903939.2,-37.58562,67.1852
1000.0,535363.2,-54.38389,67.1914
2154.4,343901.3,-62.38596,67.1844
4641.6,188420.5,-65.80026,67.1871
10000.0,102014.8,-72.13557,67.1853
