Frequency,Impedance,Phase Angle,Temperature (Dry Bath)
10.0,27114770.0,-22.03331,68.1251
21.5,20271530.0,-39.55078,68.1084
46.4,22372740.0,-59.1388,68.1018
100.0,7786475.0,-50.0813,68.1032
215.4,4376051.0,-86.7423,68.1066
464.2,1896944.0,-77.05649,68.1083
1000.0,1038042.0,-83.76602,68.0983
2154.4,504764.9,-83.8846,68.1078
4641.6,278801.6,-85.32838,68.0981
10000.0,141140.9,-87.42053,68.1057
