Frequency,Impedance,Phase Angle,Temperature (Dry Bath)
10.0,23984290.0,-8.480982,68.1994
21.5,15889980.0,-38.11659,68.2244
46.4,18149600.0,-59.441,68.2112
100.0,4426248.0,-53.51484,68.2098
215.4,3361142.0,-73.98236,68.2071
464.2,2094686.0,-69.58415,68.1975
1000.0,1027074.0,-83.24471,68.2024
2154.4,524940.1,-86.60935,68.2082
4641.6,247354.1,-86.95085,68.1949
10000.0,114594.6,-97.06617,68.206
