Frequency,Impedance,Phase Angle,Temperature (Dry Bath)
10.0,12107.11,-4.357719,67.1802
21.5,11823.57,-3.700982,67.1853
46.4,11584.66,-3.216414,67.1716
100.0,11416.68,-3.345897,67.181
215.4,10953.01,-0.2261529,67.183
464.2,11094.93,-3.453501,67.1693
1000.0,10805.42,-3.602125,67.1786
2154.4,10631.7,-4.130343,67.1658
4641.6,10406.34,-5.754863,67.1719
10000.0,10114.45,-9.421105,67.1774
