Frequency,Impedance,Phase Angle,Temperature (Dry Bath)
10.0,12202.83,-8.069028,67.4453
21.5,11629.17,-4.537837,67.4538
46.4,11455.38,-4.436962,67.4336
100.0,11362.71,-4.968938,67.4509
215.4,11410.2,-5.984282,67.4324
464.2,11150.58,-5.848175,67.4448
1000.0,10819.0,-5.700568,67.457
2154.4,10492.61,-5.842567,67.4568
4641.6,10148.95,-6.837562,67.4446
10000.0,9839.002,-9.84498,67.4483
