Frequency,Impedance,Phase Angle,Temperature (Dry Bath)
10.0,6496.419,-35.57294,70.7718
21.544346900318832,4926.583,-30.86117,70.7702
46.41588833612777,3889.538,-26.31295,70.7627
100.0,3208.036,-22.21013,70.7703
215.44346900318823,2710.039,-18.46863,70.7706
464.15888336127773,2366.664,-15.22015,70.7737
1000.0,2096.84,-12.75527,70.7555
2154.4346900318824,1917.277,-10.88988,70.7843
4641.588833612777,1772.825,-9.408134,70.7796
10000.0,1659.751,-8.609469,70.7813
