Frequency,Impedance,Phase Angle,Temperature (Dry Bath)
10.0,18382480.0,-10.3782,67.8123
21.5,16150660.0,-23.66566,67.803
46.4,20978600.0,-50.45147,67.8089
100.0,5746671.0,-13.31361,67.8107
215.4,4642381.0,-74.63334,67.7932
464.2,1992236.0,-81.34252,67.8112
1000.0,1147765.0,-83.27417,67.8105
2154.4,557811.0,-76.10202,67.785
4641.6,298880.5,-80.44092,67.7911
10000.0,153801.8,-93.65697,67.804
