Frequency,Impedance,Phase Angle,Temperature (Dry Bath)
10.0,29597410.0,-17.49803,67.3106
21.5,22904150.0,-36.53518,67.3012
46.4,22121670.0,-44.57106,67.2982
100.0,6079736.0,-44.53558,67.3022
215.4,182011.3,-113.0399,67.2987
464.2,2611682.0,-75.9008,67.295
1000.0,1359660.0,-94.77471,67.2863
2154.4,629788.6,-87.80803,67.3117
4641.6,281183.0,-87.60207,67.2868
10000.0,131959.3,-86.60461,67.3025
