Frequency,Impedance,Phase Angle,Temperature (Dry Bath)
10.0,2788847.0,-8.875259,68.042
21.5,2373098.0,-11.00967,68.042
46.4,2067467.0,-13.2293,68.042
100.0,1801650.0,-16.34462,68.042
215.4,1455545.0,-32.56416,68.042
464.2,1312514.0,-46.24266,68.042
1000.0,893271.3,-52.69071,68.042
2154.4,537606.3,-66.33949,68.042
4641.6,287643.1,-78.22189,68.042
10000.0,145249.5,-88.25496,68.042
