Frequency,Impedance,Phase Angle,Temperature (Dry Bath)
10.0,9086754.0,-15.67175,66.2799
21.544346900318832,4022194.0,-16.0913,66.2783
46.41588833612777,3930045.0,-22.58121,66.2693
100.0,947938.3,-83.456,66.2915
215.44346900318823,619828.2,179.4062,66.2952
464.15888336127773,554308.3,-47.30529,66.2793
1000.0,756022.4,-59.21059,66.2824
2154.4346900318824,728545.3,-81.65263,66.2815
4641.588833612777,133391.8,-88.85717,66.2988
10000.0,62888.56,-85.82777,66.2839
