Frequency,Impedance,Phase Angle,Temperature (Dry Bath)
10.0,2875639.0,13.24338,71.4652
21.544346900318832,4303483.0,-32.81633,71.4862
46.41588833612777,4424693.0,-16.78847,71.4829
100.0,736076.6,-17.81062,71.4869
215.44346900318823,503064.6,159.3007,71.4678
464.15888336127773,579075.9,-76.96457,71.4634
1000.0,433474.6,-128.0322,71.4821
2154.4346900318824,394592.6,-88.61166,71.4738
4641.588833612777,220297.3,-76.19468,71.4761
10000.0,81608.08,-91.78193,71.4802
