Frequency,Impedance,Phase Angle,Temperature (Dry Bath)
10.0,26801860.0,-41.47584,66.9805
21.5,23488660.0,-47.20288,66.9914
46.4,14723140.0,-65.10231,66.9897
100.0,18299890.0,-134.6209,66.9958
215.4,145198.0,-71.23754,66.9912
464.2,2345756.0,-83.93218,67.0024
1000.0,907291.3,-77.30194,66.9835
2154.4,442451.5,-85.07485,66.9852
4641.6,212905.6,-83.92183,66.9809
10000.0,109206.1,-84.25773,66.9906
