Frequency,Impedance,Phase Angle,Temperature (Dry Bath)
10.0,1227554.0,-8.00784,65.8225
21.544346900318832,1164740.0,-7.656458,65.8188
46.41588833612777,1049030.0,-11.6206,65.8308
100.0,441295.1,0.03516785,65.8215
215.44346900318823,18610.08,-56.81125,65.8422
464.15888336127773,860227.8,4.196134,65.8267
1000.0,425538.7,-49.74323,65.8302
2154.4346900318824,267430.0,-44.92227,65.8258
4641.588833612777,140108.9,-75.79877,65.8209
10000.0,61842.05,-76.84634,65.824
