Frequency,Impedance,Phase Angle,Temperature (Dry Bath)
10.0,354309.5,-7.472677,67.1142
21.5,338181.7,-7.122346,67.0982
46.4,320866.5,-7.004958,67.1162
100.0,332832.7,-7.52482,67.102
215.4,153405.8,1.224993,67.1203
464.2,278796.0,-12.04009,67.0942
1000.0,253965.8,-20.21059,67.1165
2154.4,225303.5,-32.42924,67.1109
4641.6,164069.3,-49.1659,67.1078
10000.0,96511.74,-63.43487,67.1133
