Frequency,Impedance,Phase Angle,Temperature (Dry Bath)
10.0,4177194.0,2.155314,71.2166
21.544346900318832,4625274.0,2.643522,71.2287
46.41588833612777,6993808.0,-24.85377,71.2277
100.0,498856.1,-82.80649,71.2314
215.44346900318823,726527.9,-111.29,71.2221
464.15888336127773,509520.3,-91.07123,71.2426
1000.0,523887.3,-57.35383,71.2387
2154.4346900318824,287745.6,-127.0319,71.2301
4641.588833612777,196094.3,-70.54299,71.2308
10000.0,66179.81,-86.11749,71.234
