Frequency,Impedance,Phase Angle,Temperature (Dry Bath)
10.0,14447.06,-20.23994,71.1655
21.544346900318832,12380.62,-17.51541,71.1828
46.41588833612777,10852.09,-15.28656,71.1713
100.0,9591.841,-12.44045,71.188
215.44346900318823,8846.955,-11.36103,71.1746
464.15888336127773,8025.183,-10.06796,71.1814
1000.0,7310.948,-9.788088,71.1887
2154.4346900318824,6808.849,-9.362707,71.1748
4641.588833612777,6420.019,-9.470573,71.1725
10000.0,6019.935,-11.89647,71.1776
