Frequency,Impedance,Phase Angle,Temperature (Dry Bath)
10.0,1442580.0,-9.21127,67.2736
21.5,1351316.0,-10.31065,67.2691
46.4,1222784.0,-13.77469,67.2672
100.0,871300.8,-19.50298,67.2671
215.4,1090212.0,-18.46573,67.282
464.2,679366.9,-37.97314,67.2472
1000.0,573209.2,-52.94996,67.2595
2154.4,329009.7,-60.35121,67.2541
4641.6,182500.6,-68.99911,67.2406
10000.0,100934.2,-73.1843,67.2378
