Frequency,Impedance,Phase Angle,Temperature (Dry Bath)
10.0,33010680.0,-14.16918,67.1423
21.5,28120090.0,-47.72932,67.1573
46.4,14445690.0,-62.56999,67.1543
100.0,2650423.0,-44.36193,67.1493
215.4,204580.0,85.4048,67.1695
464.2,1631007.0,-66.48112,67.163
1000.0,885858.5,-75.67755,67.1481
2154.4,414002.8,-78.44838,67.1521
4641.6,226810.3,-80.66195,67.151
10000.0,107266.7,-83.91976,67.1719
