Frequency,Impedance,Phase Angle,Temperature (Dry Bath)
10.0,33918310.0,-4.621575,68.235
21.5,23862800.0,-31.35365,68.2231
46.4,30480060.0,-49.5836,68.253
100.0,10204690.0,-35.09074,68.222
215.4,3528451.0,-77.09203,68.2347
464.2,1860798.0,-76.55649,68.2215
1000.0,1001457.0,-84.70704,68.2325
2154.4,527835.2,-80.43502,68.2188
4641.6,263528.6,-85.35036,68.2177
10000.0,147540.7,-89.51776,68.2492
