Frequency,Impedance,Phase Angle,Temperature (Dry Bath)
10.0,5930088.0,-16.53683,71.0196
21.544346900318832,8079920.0,-27.52777,71.032
46.41588833612777,4049498.0,-44.66297,71.0168
100.0,825209.6,-90.23679,71.0284
215.44346900318823,904600.8,-84.80456,71.0219
464.15888336127773,1097734.0,-51.3891,71.0058
1000.0,819302.4,-146.8797,71.0083
2154.4346900318824,313542.7,-101.7865,71.0126
4641.588833612777,124078.0,-89.242,71.0141
10000.0,56975.93,-81.67384,71.015
