Frequency,Impedance,Phase Angle,Temperature (Dry Bath)
10.0,149490.2,-6.459696,68.0196
21.5,144273.0,-5.325244,68.0196
46.4,139290.4,-4.818743,68.0196
100.0,130784.5,-4.758093,68.0196
215.4,130000.1,-4.837602,68.0196
464.2,127464.2,-7.564273,68.0196
1000.0,118929.2,-11.04911,68.0196
2154.4,111506.0,-17.97562,68.0196
4641.6,92683.2,-32.57472,68.0196
10000.0,71521.49,-52.12422,68.0196
