Frequency,Impedance,Phase Angle,Temperature (Dry Bath)
10.0,130831.2,-6.599021,67.3278
21.5,124957.3,-5.613905,67.3158
46.4,120714.5,-5.289826,67.305
100.0,115684.6,-5.000881,67.3285
215.4,109260.1,-4.527818,67.3274
464.2,108818.3,-8.333474,67.3214
1000.0,103281.1,-10.85156,67.3345
2154.4,98684.97,-17.49277,67.3402
4641.6,84232.24,-30.78479,67.3491
10000.0,60460.38,-47.2814,67.3506
