Frequency,Impedance,Phase Angle,Temperature (Dry Bath)
10.0,170964.6,-12.25425,65.7049
21.544346900318832,158248.7,-10.65243,65.7059
46.41588833612777,146051.4,-9.96381,65.7245
100.0,114422.2,-9.70103,65.7325
215.44346900318823,16764.35,11.85246,65.7237
464.15888336127773,115054.0,-6.153679,65.7236
1000.0,101567.8,-23.23828,65.7305
2154.4346900318824,102429.8,-20.34788,65.7388
4641.588833612777,84861.34,-36.38796,65.7416
10000.0,52029.75,-58.85371,65.755
