Frequency,Impedance,Phase Angle,Temperature (Dry Bath)
10.0,139486.9,-5.753414,67.2651
21.5,134021.9,-4.863509,67.2662
46.4,129853.4,-4.506443,67.2725
100.0,127491.1,-2.182449,67.2648
215.4,120032.4,-1.499866,67.2722
464.2,119391.3,-7.943213,67.2645
1000.0,111900.0,-12.67952,67.2543
2154.4,105818.7,-19.80996,67.2683
4641.6,88390.93,-34.71675,67.2717
10000.0,60586.45,-51.90685,67.2688
