Frequency,Impedance,Phase Angle,Temperature (Dry Bath)
10.0,152763.3,-6.392839,68.107
21.5,146873.2,-5.267501,68.1203
46.4,141770.4,-4.756744,68.1158
100.0,137471.5,-5.526762,68.1144
215.4,135179.4,-6.684805,68.0922
464.2,128115.4,-8.628612,68.112
1000.0,121251.4,-12.58139,68.1121
2154.4,114766.5,-19.49616,68.1006
4641.6,93937.91,-33.29184,68.1057
10000.0,72767.78,-51.99093,68.1046
