Frequency,Impedance,Phase Angle,Temperature (Dry Bath)
10.0,26565820.0,-16.56657,66.9731
21.5,28085770.0,-32.69885,66.9747
46.4,21534120.0,-53.2661,66.9732
100.0,5287443.0,-101.6973,66.9766
215.4,8292438.0,-69.64864,66.9765
464.2,3049543.0,-66.92492,66.9827
1000.0,1226193.0,-75.12354,66.9717
2154.4,583527.7,-88.52061,66.9822
4641.6,266602.1,-86.34061,66.9734
10000.0,130980.0,-88.25141,66.9779
