Frequency,Impedance,Phase Angle,Temperature (Dry Bath)
10.0,8717072.0,30.71326,71.4257
21.544346900318832,3875518.0,-12.81235,71.4143
46.41588833612777,4405412.0,-27.76933,71.4449
100.0,299302.3,46.41615,71.417
215.44346900318823,257210.7,-104.6913,71.4397
464.15888336127773,597806.4,-117.1441,71.4174
1000.0,264049.0,114.326,71.4249
2154.4346900318824,341952.5,-40.40057,71.4379
4641.588833612777,346827.4,-25.67948,71.4257
10000.0,202483.4,-99.73363,71.426
