Frequency,Impedance,Phase Angle,Temperature (Dry Bath)
10.0,138128.3,-25.81026,67.1252
21.5,112954.4,-22.6658,67.1322
46.4,96326.68,-19.4627,67.1221
100.0,83916.46,-18.00617,67.1226
215.4,74780.76,-14.27837,67.1265
464.2,68953.52,-14.32773,67.1284
1000.0,62000.54,-16.57733,67.1272
2154.4,56487.19,-18.89162,67.1279
4641.6,49565.63,-26.27084,67.1273
10000.0,39188.23,-38.14021,67.1194
