Frequency,Impedance,Phase Angle,Temperature (Dry Bath)
10.0,331343.4,-6.503063,67.1997
21.5,317471.4,-6.076946,67.1891
46.4,304260.4,-6.219421,67.1905
100.0,284236.6,-8.628512,67.2003
215.4,294257.7,-2.720817,67.1894
464.2,273928.6,-11.64375,67.192
1000.0,244601.6,-17.48593,67.1912
2154.4,214671.9,-29.28612,67.19
4641.6,167484.7,-45.86957,67.1976
10000.0,97024.25,-62.25679,67.1968
