Frequency,Impedance,Phase Angle,Temperature (Dry Bath)
10.0,22141220.0,-24.11854,68.0473
21.5,20890780.0,-29.28008,68.0473
46.4,12796680.0,-54.65867,68.0473
100.0,5975874.0,-30.05859,68.0473
215.4,4445174.0,-74.7104,68.0473
464.2,2339015.0,-92.97751,68.0473
1000.0,1011854.0,-86.34084,68.0473
2154.4,498373.2,-88.29315,68.0473
4641.6,245315.8,-89.41548,68.0473
10000.0,117017.2,-94.33502,68.0473
