Frequency,Impedance,Phase Angle,Temperature (Dry Bath)
10.0,19252880.0,-23.80936,68.007
21.5,21120960.0,-20.8154,68.007
46.4,24736960.0,-42.15652,68.007
100.0,7980931.0,-64.89181,68.007
215.4,14317080.0,-84.07196,68.007
464.2,2884561.0,-79.01091,68.007
1000.0,1487260.0,-87.57844,68.007
2154.4,662650.9,-85.95312,68.007
4641.6,359920.2,-90.31834,68.007
10000.0,157299.7,-94.08745,68.007
