Frequency,Impedance,Phase Angle,Temperature (Dry Bath)
10.0,17463900.0,-25.15319,68.1062
21.5,17450740.0,-33.04346,68.1063
46.4,13235870.0,-55.5113,68.1006
100.0,2564130.0,-39.67652,68.105
215.4,3606909.0,-90.44923,68.1026
464.2,2013295.0,-64.26816,68.1042
1000.0,1034550.0,-86.28381,68.1216
2154.4,430893.0,-86.92902,68.1097
4641.6,240707.9,-83.49069,68.1083
10000.0,115405.2,-89.76583,68.1059
