Frequency,Impedance,Phase Angle,Temperature (Dry Bath)
10.0,23182.08,-21.21232,66.2067
21.544346900318832,19571.7,-18.36226,66.1896
46.41588833612777,16999.73,-15.4565,66.1976
100.0,15349.49,-12.3972,66.1961
215.44346900318823,13981.62,-9.916039,66.1994
464.15888336127773,13097.53,-8.072572,66.1921
1000.0,12180.13,-8.368147,66.2104
2154.4346900318824,11352.49,-8.466603,66.2059
4641.588833612777,10904.7,-10.07209,66.1922
10000.0,10226.74,-15.24097,66.1905
