Frequency,Impedance,Phase Angle,Temperature (Dry Bath)
10.0,11954.66,-25.47909,71.2522
21.544346900318832,9774.66,-22.69898,71.2595
46.41588833612777,8157.738,-20.09086,71.2585
100.0,6991.234,-17.19461,71.2709
215.44346900318823,6072.06,-15.00208,71.2613
464.15888336127773,5455.313,-12.61365,71.2733
1000.0,4907.582,-10.84671,71.2807
2154.4346900318824,4528.371,-10.07369,71.2571
4641.588833612777,4204.462,-9.392545,71.2743
10000.0,3999.81,-10.70301,71.2807
