Frequency,Impedance,Phase Angle,Temperature (Dry Bath)
10.0,2698275.0,-8.092645,67.3549
21.5,2479245.0,-11.37295,67.3799
46.4,2424535.0,-11.67149,67.3613
100.0,1551250.0,-20.13396,67.3617
215.4,647255.4,-28.63958,67.3595
464.2,1197015.0,-44.93624,67.3632
1000.0,835596.1,-59.1652,67.3686
2154.4,481844.7,-63.2182,67.3715
4641.6,270188.4,-68.06384,67.3698
10000.0,148615.0,-74.1806,67.3552
