Frequency,Impedance,Phase Angle,Temperature (Dry Bath)
10.0,135149.4,-6.501922,67.0599
21.5,129315.0,-5.522083,67.0626
46.4,124633.6,-5.192479,67.0595
100.0,116789.7,-4.698362,67.049
215.4,117730.8,-6.770731,67.0645
464.2,112112.1,-8.178305,67.0517
1000.0,107226.9,-12.91421,67.0735
2154.4,97781.78,-21.02698,67.064
4641.6,84053.41,-33.04536,67.0565
10000.0,59161.98,-50.26851,67.0678
