Frequency,Impedance,Phase Angle,Temperature (Dry Bath)
10.0,15601.39,-18.3537,71.32
21.544346900318832,11410.38,-17.89965,71.3178
46.41588833612777,9972.622,-15.39148,71.3448
100.0,8959.921,-13.36108,71.3357
215.44346900318823,8082.507,-13.1148,71.3282
464.15888336127773,7661.14,-9.284917,71.313
1000.0,118708.4,-10.54983,71.3257
2154.4346900318824,87703.91,-28.7919,71.3238
4641.588833612777,65035.18,-45.47341,71.3303
10000.0,42626.87,-61.47485,71.33
