Frequency,Impedance,Phase Angle,Temperature (Dry Bath)
10.0,20473850.0,-30.86358,68.2407
21.5,15489810.0,-29.19302,68.2407
46.4,11197910.0,-58.54394,68.2407
100.0,4132143.0,-65.82738,68.2407
215.4,3241892.0,-67.05279,68.2407
464.2,1750395.0,-72.1934,68.2407
1000.0,949770.9,-81.21957,68.2407
2154.4,456038.8,-81.9697,68.2407
4641.6,248665.9,-86.6433,68.2407
10000.0,112123.5,-88.32958,68.2407
