Frequency,Impedance,Phase Angle,Temperature (Dry Bath)
10.0,2965737.0,-24.05397,71.4505
21.544346900318832,3979546.0,-13.74516,71.4362
46.41588833612777,5526902.0,-16.40176,71.4514
100.0,1670821.0,-28.6707,71.442
215.44346900318823,1410346.0,8.771167,71.4495
464.15888336127773,2607783.0,86.95936,71.4543
1000.0,1794846.0,-127.041,71.4539
2154.4346900318824,996868.3,-36.76655,71.446
4641.588833612777,520052.5,-101.529,71.4486
10000.0,175960.8,-81.09232,71.4482
