Frequency,Impedance,Phase Angle,Temperature (Dry Bath)
10.0,22467630.0,-17.11863,67.9905
21.5,43365630.0,-19.3021,67.983
46.4,33097310.0,-41.94166,67.9909
100.0,8300809.0,-42.18015,67.9891
215.4,3509234.0,-86.90698,68.0001
464.2,2860558.0,-78.89739,67.9871
1000.0,1425508.0,-85.14371,67.9787
2154.4,725031.3,-86.14914,67.9852
4641.6,306319.7,-91.60808,67.9756
10000.0,150369.2,-99.39275,67.9863
