Frequency,Impedance,Phase Angle,Temperature (Dry Bath)
10.0,153001.2,-6.205164,68.021
21.5,147162.7,-5.349495,68.0344
46.4,142114.8,-4.758657,68.03
100.0,137309.0,-5.311355,68.0343
215.4,131754.2,-5.35098,68.019
464.2,127009.8,-9.497268,68.0177
1000.0,122391.8,-11.7313,68.0213
2154.4,113493.2,-19.89855,68.0263
4641.6,96064.68,-33.42909,68.048
10000.0,73642.49,-52.46586,68.0173
