Frequency,Impedance,Phase Angle,Temperature (Dry Bath)
10.0,31442940.0,0.6895505,67.0368
21.5,41678980.0,-48.66907,67.0327
46.4,21987150.0,-52.63539,67.0228
100.0,9642496.0,-35.71745,67.0347
215.4,4615286.0,-95.63275,67.0222
464.2,2811575.0,-78.05157,67.0505
1000.0,1156041.0,-82.92889,67.0279
2154.4,554817.5,-88.00639,67.0387
4641.6,290636.8,-88.28327,67.0341
10000.0,130116.9,-87.23758,67.0349
