Frequency,Impedance,Phase Angle,Temperature (Dry Bath)
10.0,18846630.0,-44.09732,28.9549
21.544346900318832,4134167.0,-20.43462,28.9914
46.41588833612777,6408710.0,18.79563,29.0243
100.0,828855.1,-2.483826,29.0311
215.44346900318823,1946899.0,-16.28609,28.7124
464.15888336127773,852555.3,-18.93144,29.0022
1000.0,1193155.0,-1.423635,29.0237
2154.4346900318824,873115.6,-94.58072,28.4412
4641.588833612777,438321.9,-85.57034,29.0743
10000.0,169555.5,-98.548,29.0899
