Frequency,Impedance,Phase Angle,Temperature (Dry Bath)
10.0,30092490.0,-11.60893,67.3797
21.5,24075490.0,-39.09315,67.372
46.4,15356220.0,-56.62285,67.3693
100.0,5716124.0,-104.8584,67.3792
215.4,206387.8,149.119,67.3724
464.2,1972998.0,-76.34722,67.3845
1000.0,1014673.0,-75.20946,67.3713
2154.4,480524.8,-84.03138,67.3858
4641.6,238576.8,-81.8547,67.3765
10000.0,113438.8,-86.37907,67.3767
