Frequency,Impedance,Phase Angle,Temperature (Dry Bath)
10.0,113290.5,-24.3338,67.3851
21.5,93434.95,-21.25695,67.4084
46.4,81036.8,-18.27978,67.3911
100.0,71960.48,-15.44603,67.3813
215.4,58515.54,-25.52304,67.391
464.2,56854.55,-13.39693,67.3893
1000.0,53048.0,-13.39724,67.3872
2154.4,49512.97,-15.89524,67.3925
4641.6,44807.56,-22.44462,67.3864
10000.0,37480.72,-33.54637,67.3779
