Frequency,Impedance,Phase Angle,Temperature (Dry Bath)
10.0,150895.4,-6.359332,67.9814
21.5,145328.4,-5.242617,67.9814
46.4,140408.0,-4.665082,67.9814
100.0,132510.2,-4.207734,67.9814
215.4,130756.9,-5.841411,67.9814
464.2,125946.3,-8.068263,67.9814
1000.0,120472.0,-11.30718,67.9814
2154.4,115102.5,-18.76534,67.9814
4641.6,99328.93,-33.17781,67.9814
10000.0,74013.59,-50.91813,67.9814
