Frequency,Impedance,Phase Angle,Temperature (Dry Bath)
10.0,153429.1,-6.467694,68.1144
21.5,147779.4,-5.028537,68.1062
46.4,142439.1,-4.827667,68.114
100.0,140613.0,-3.051963,68.1308
215.4,126453.3,-5.576173,68.1302
464.2,129853.8,-6.526795,68.1131
1000.0,121754.7,-11.70296,68.1091
2154.4,111798.0,-19.24914,68.1148
4641.6,98034.99,-30.37157,68.1253
10000.0,77182.26,-51.64898,68.1096
