Frequency,Impedance,Phase Angle,Temperature (Dry Bath)
10.0,5332124.0,-40.07158,71.2557
21.544346900318832,5373829.0,-6.336945,71.2487
46.41588833612777,4384652.0,-14.36108,71.2524
100.0,2789690.0,-43.64009,71.2527
215.44346900318823,4720412.0,-37.06097,71.2693
464.15888336127773,2112004.0,40.57962,71.2498
1000.0,4154975.0,24.58004,71.2641
2154.4346900318824,537722.2,-72.65264,71.2756
4641.588833612777,255655.3,-71.49383,71.2654
10000.0,133021.8,-90.54068,71.255
