Frequency,Impedance,Phase Angle,Temperature (Dry Bath)
10.0,879377.0,-12.16893,67.9358
21.5,821784.5,-10.29012,67.9233
46.4,782986.6,-11.34845,67.9062
100.0,629489.0,-10.73612,67.9166
215.4,641991.7,-21.69432,67.9199
464.2,515836.7,-23.24952,67.9155
1000.0,405487.3,-36.75909,67.924
2154.4,289529.2,-47.57858,67.9317
4641.6,188519.3,-54.53586,67.9131
10000.0,114630.6,-70.19395,67.9308
