Frequency,Impedance,Phase Angle,Temperature (Dry Bath)
10.0,1992943.0,-9.289955,67.2286
21.5,1852850.0,-10.15676,67.2287
46.4,1735234.0,-13.1487,67.2279
100.0,1644194.0,-40.62095,67.2374
215.4,247039.3,40.01128,67.2336
464.2,1012790.0,-39.78069,67.2377
1000.0,664418.2,-54.82674,67.2311
2154.4,383984.4,-67.94404,67.2295
4641.6,192382.9,-70.73834,67.2301
10000.0,105063.5,-72.20527,67.2186
