Frequency,Impedance,Phase Angle,Temperature (Dry Bath)
10.0,119954.5,-24.77543,67.4681
21.5,98987.82,-21.53214,67.4816
46.4,85519.76,-18.27182,67.4767
100.0,78590.98,-16.78752,67.4628
215.4,172479.6,-36.92152,67.447
464.2,62576.66,-12.2722,67.4607
1000.0,56641.04,-13.10928,67.4667
2154.4,53155.59,-15.82701,67.4529
4641.6,46546.71,-23.55122,67.4656
10000.0,38893.26,-35.44195,67.4644
