Frequency,Impedance,Phase Angle,Temperature (Dry Bath)
10.0,22239.06,-21.7435,65.8386
21.544346900318832,18656.06,-18.57792,65.8443
46.41588833612777,16168.71,-15.28775,65.8486
100.0,14500.03,-11.55927,65.8404
215.44346900318823,13749.7,-9.436642,65.8266
464.15888336127773,12438.55,-8.532667,65.8439
1000.0,11599.52,-7.744013,65.8292
2154.4346900318824,11297.17,-7.57381,65.8313
4641.588833612777,10714.56,-8.164772,65.8353
10000.0,10046.23,-13.59583,65.8216
