Frequency,Impedance,Phase Angle,Temperature (Dry Bath)
10.0,26956560.0,-28.42319,66.9067
21.5,24360320.0,-24.53595,66.9201
46.4,17273320.0,-56.01953,66.9225
100.0,8653790.0,-80.04386,66.9308
215.4,219321.8,32.70184,66.9222
464.2,2045849.0,-85.95682,66.9283
1000.0,946128.3,-82.74616,66.9381
2154.4,436136.2,-89.20948,66.9335
4641.6,225263.9,-83.5202,66.9083
10000.0,107741.8,-82.30403,66.9035
