Frequency,Impedance,Phase Angle,Temperature (Dry Bath)
10.0,39006280.0,-7.931375,67.7702
21.5,46439400.0,-27.8604,67.7702
46.4,32683660.0,-55.59711,67.7846
100.0,10164270.0,11.46334,67.7778
215.4,9132787.0,-102.6224,67.8014
464.2,2348980.0,-89.70023,67.7765
1000.0,1083353.0,-76.8328,67.7739
2154.4,567037.8,-82.17476,67.7801
4641.6,293939.1,-81.85414,67.8025
10000.0,153257.5,-89.41331,67.7775
