Frequency,Impedance,Phase Angle,Temperature (Dry Bath)
10.0,6246776.0,12.47685,66.3661
21.544346900318832,8470935.0,-8.965128,66.3481
46.41588833612777,4379840.0,-18.57019,66.349
100.0,298435.5,103.0157,66.3527
215.44346900318823,4046438.0,-112.5699,66.3573
464.15888336127773,1717071.0,-60.26234,66.3471
1000.0,622910.0,-109.5965,66.3509
2154.4346900318824,262117.0,-92.50414,66.3653
4641.588833612777,124239.7,-85.90203,66.3451
10000.0,66298.64,-91.43925,66.3635
