Frequency,Impedance,Phase Angle,Temperature (Dry Bath)
10.0,5018556.0,-23.66168,70.9482
21.544346900318832,4464620.0,2.635098,70.9433
46.41588833612777,3636469.0,-18.25973,70.945
100.0,1794251.0,113.3773,70.9392
215.44346900318823,530978.5,-132.3732,70.9334
464.15888336127773,2163858.0,-121.1221,70.9346
1000.0,566497.2,-97.8332,70.9293
2154.4346900318824,411071.6,-101.9816,70.9301
4641.588833612777,99013.95,-86.41233,70.941
10000.0,59053.61,-88.02618,70.9372
