Frequency,Impedance,Phase Angle,Temperature (Dry Bath)
10.0,133211.3,-6.743842,66.9593
21.5,127419.7,-5.766061,66.9354
46.4,122908.5,-5.395276,66.946
100.0,118746.0,-7.799082,66.9594
215.4,139312.1,-47.71328,66.932
464.2,111503.4,-9.10621,66.9311
1000.0,102422.6,-13.13707,66.9358
2154.4,97450.79,-19.61804,66.9349
4641.6,81796.51,-32.09458,66.9321
10000.0,58469.26,-49.77811,66.9224
