Frequency,Impedance,Phase Angle,Temperature (Dry Bath)
10.0,1445634.0,-12.34144,65.7116
21.544346900318832,1217225.0,-5.893797,65.7151
46.41588833612777,1204693.0,-11.97598,65.705
100.0,509154.5,-24.66959,65.7244
215.44346900318823,48240.56,-34.56763,65.7114
464.15888336127773,2002383.0,-61.01804,65.7187
1000.0,493920.1,-92.44769,65.6945
2154.4346900318824,258686.3,-68.04593,65.7019
4641.588833612777,107391.7,-80.13642,65.7126
10000.0,66220.43,-78.45732,65.7123
