Frequency,Impedance,Phase Angle,Temperature (Dry Bath)
10.0,128263.8,-24.86019,67.1598
21.5,106372.3,-21.84487,67.1661
46.4,91547.45,-18.38519,67.1562
100.0,79987.2,-15.69257,67.1615
215.4,44818.69,-19.90521,67.1549
464.2,66057.47,-12.87282,67.1385
1000.0,60417.3,-14.03254,67.1614
2154.4,56022.35,-17.56221,67.1521
4641.6,48974.49,-24.60905,67.1653
10000.0,39643.2,-37.19446,67.1387
