Frequency,Impedance,Phase Angle,Temperature (Dry Bath)
10.0,26030590.0,-19.1527,68.1821
21.5,19409350.0,-38.0111,68.1906
46.4,15045120.0,-59.36515,68.1884
100.0,5822058.0,-49.76968,68.1685
215.4,3592971.0,-70.92713,68.1708
464.2,1843814.0,-78.42971,68.1961
1000.0,961920.2,-80.2489,68.193
2154.4,529928.1,-75.89082,68.189
4641.6,256474.0,-77.39377,68.2204
10000.0,143635.0,-90.54073,68.1926
