Frequency,Impedance,Phase Angle,Temperature (Dry Bath)
10.0,295151.4,-15.81804,71.3757
21.544346900318832,256777.7,-15.72597,71.3754
46.41588833612777,230480.4,-16.84776,71.3675
100.0,418846.5,41.72763,71.3582
215.44346900318823,138321.8,-10.005,71.3496
464.15888336127773,144913.3,-27.69693,71.3392
1000.0,110399.0,-27.55677,71.3327
2154.4346900318824,93160.9,-42.71847,71.3387
4641.588833612777,84382.92,-47.11649,71.3378
10000.0,51294.7,-56.40284,71.3151
