Frequency,Impedance,Phase Angle,Temperature (Dry Bath)
10.0,19403.96,-18.71336,67.7169
21.5,16909.31,-15.34022,67.7188
46.4,15175.03,-12.19646,67.7138
100.0,13809.59,-9.81835,67.7276
215.4,13088.33,-7.58512,67.7218
464.2,12474.64,-6.853942,67.7118
1000.0,11942.66,-5.36527,67.7129
2154.4,11970.95,-7.246479,67.733
4641.6,11075.15,-7.839019,67.7027
10000.0,11048.58,-11.5822,67.7108
