Frequency,Impedance,Phase Angle,Temperature (Dry Bath)
10.0,187764.9,-20.67484,65.8619
21.544346900318832,161423.4,-16.77171,65.8497
46.41588833612777,139469.6,-16.53085,65.8336
100.0,138558.4,-23.86174,65.8515
215.44346900318823,23279.28,-61.77252,65.8478
464.15888336127773,105560.4,-5.1174,65.8404
1000.0,80923.1,-16.23784,65.8452
2154.4346900318824,78585.53,-28.15051,65.8431
4641.588833612777,62044.04,-40.36753,65.8484
10000.0,39095.14,-53.90692,65.839
