Frequency,Impedance,Phase Angle,Temperature (Dry Bath)
10.0,1171927.0,-11.47628,67.8
21.5,1114487.0,-11.23933,67.8002
46.4,1067040.0,-11.67945,67.7907
100.0,919389.7,-13.25415,67.8048
215.4,798221.0,-19.61715,67.8107
464.2,710439.9,-20.45347,67.8126
1000.0,588504.3,-36.17611,67.8091
2154.4,406291.4,-46.75224,67.7837
4641.6,256850.4,-58.72733,67.7956
10000.0,164188.9,-78.16676,67.8072
