Frequency,Impedance,Phase Angle,Temperature (Dry Bath)
10.0,855614.9,-11.52116,68.0131
21.5,811763.4,-10.32666,68.008
46.4,763647.7,-11.6031,68.0141
100.0,668499.7,-16.74488,68.0226
215.4,581189.9,-21.03759,68.0073
464.2,512466.6,-27.14911,68.0218
1000.0,409631.0,-33.87802,68.0133
2154.4,296004.0,-46.0354,68.0249
4641.6,197600.9,-55.25058,68.019
10000.0,127258.8,-71.23824,68.0174
