Frequency,Impedance,Phase Angle,Temperature (Dry Bath)
10.0,19333950.0,-8.629899,67.9962
21.5,18718810.0,-20.42244,68.0043
46.4,23633310.0,-49.06928,67.9929
100.0,18269370.0,-27.71403,67.9906
215.4,5148579.0,-77.40674,68.0012
464.2,2474584.0,-94.84437,67.9944
1000.0,1443487.0,-83.67794,67.9806
2154.4,656536.6,-84.08549,67.9912
4641.6,305455.2,-91.17321,67.9861
10000.0,148270.3,-100.0658,67.9969
