Frequency,Impedance,Phase Angle,Temperature (Dry Bath)
10.0,3453474.0,18.37727,67.1
21.544346900318832,5818689.0,1.276479,67.1
46.41588833612777,6165196.0,-0.8850899,67.1
100.0,2478237.0,-22.29115,67.1
215.44346900318823,12645920.0,97.23974,67.1
464.15888336127773,2454889.0,-0.7874519,67.1
1000.0,5238188.0,-21.26859,67.1
2154.4346900318824,5793371.0,78.94464,67.1
4641.588833612777,3247047.0,-2.738858,67.1
10000.0,6881193.0,8.865798,67.1
