Frequency,Impedance,Phase Angle,Temperature (Dry Bath)
10.0,18753890.0,-12.71253,67.9637
21.5,20507740.0,-40.85412,67.9623
46.4,19503500.0,-48.25302,67.9579
100.0,3599376.0,-41.67052,67.9669
215.4,2430371.0,-74.82243,67.9659
464.2,2261888.0,-87.86718,67.9762
1000.0,899302.7,-85.61436,67.9717
2154.4,505952.7,-82.68429,67.9695
4641.6,233485.3,-79.85773,67.9807
10000.0,117595.5,-85.66961,67.9752
