Frequency,Impedance,Phase Angle,Temperature (Dry Bath)
10.0,162608.7,-6.315437,67.8439
21.5,156007.2,-5.32263,67.8611
46.4,151104.2,-4.808431,67.8356
100.0,145473.7,-2.026875,67.858
215.4,137239.4,-4.630671,67.8617
464.2,139477.1,-8.290903,67.8644
1000.0,132211.0,-12.02255,67.8579
2154.4,119632.8,-21.68858,67.8512
4641.6,104454.0,-35.00192,67.8643
10000.0,74920.95,-58.29293,67.857
