Frequency,Impedance,Phase Angle,Temperature (Dry Bath)
10.0,2256112.0,-0.22802,68.1182
21.5,2175697.0,-0.7259522,68.1142
46.4,2325682.0,-1.525154,68.1241
100.0,2260854.0,-7.631377,68.1387
215.4,3785948.0,-34.92671,68.1231
464.2,1638422.0,-53.5191,68.1324
1000.0,917644.1,-65.26991,68.1379
2154.4,551630.0,-77.62562,68.1269
4641.6,282430.7,-78.41788,68.1232
10000.0,137355.8,-84.50966,68.1218
