Frequency,Impedance,Phase Angle,Temperature (Dry Bath)
10.0,31202730.0,-8.261964,67.1422
21.5,33489800.0,-26.90526,67.1291
46.4,20754420.0,-55.90051,67.1154
100.0,15426360.0,2.690854,67.1173
215.4,3202625.0,-86.59758,67.123
464.2,2394437.0,-85.2019,67.1375
1000.0,1297100.0,-87.16305,67.1212
2154.4,569345.4,-86.87025,67.1073
4641.6,276126.8,-89.64477,67.1195
10000.0,132096.9,-86.90521,67.103
