Frequency,Impedance,Phase Angle,Temperature (Dry Bath)
10.0,112067.5,-28.12899,72.1971
21.544346900318832,89417.39,-27.92681,72.1983
46.41588833612777,70718.85,-28.66495,72.1914
100.0,55917.7,-26.13915,72.2085
215.44346900318823,45153.16,-32.7974,72.1998
464.15888336127773,33802.01,-33.89402,72.1997
1000.0,24691.1,-32.46246,72.1909
2154.4346900318824,19092.43,-29.32741,72.207
4641.588833612777,14783.59,-27.67061,72.1995
10000.0,12612.0,-23.37832,72.2043
