Frequency,Impedance,Phase Angle,Temperature (Dry Bath)
10.0,12327.98,-4.435507,67.202
21.5,12025.61,-3.735348,67.2208
46.4,11811.03,-3.575624,67.2198
100.0,11568.87,-3.334552,67.2164
215.4,11165.78,-5.327541,67.2373
464.2,11233.89,-3.480261,67.2055
1000.0,10976.7,-3.652194,67.2228
2154.4,10772.57,-4.14797,67.2136
4641.6,10547.91,-5.911973,67.2131
10000.0,10272.59,-9.472025,67.2363
