Frequency,Impedance,Phase Angle,Temperature (Dry Bath)
10.0,159571.7,-6.414141,68.0279
21.5,153704.4,-5.217834,68.0295
46.4,148973.9,-4.78669,68.0242
100.0,142771.2,-4.321806,68.0193
215.4,140449.8,-5.847433,68.0194
464.2,133202.8,-8.419534,68.0299
1000.0,129508.8,-12.35441,68.0306
2154.4,117886.6,-19.17688,68.0169
4641.6,103699.2,-37.24283,68.0384
10000.0,70443.33,-57.08462,68.0154
