Frequency,Impedance,Phase Angle,Temperature (Dry Bath)
10.0,23864.79,-21.02838,71.3955
21.544346900318832,20178.52,-18.18762,71.3969
46.41588833612777,17528.64,-15.62006,71.4196
100.0,14048.47,-13.22453,71.4032
215.44346900318823,14302.33,-14.37998,71.4145
464.15888336127773,12842.9,-10.03927,71.4094
1000.0,12687.11,-9.808445,71.4202
2154.4346900318824,11308.33,-8.686257,71.408
4641.588833612777,10853.57,-10.00674,71.4002
10000.0,10261.35,-16.42179,71.4174
