Frequency,Impedance,Phase Angle,Temperature (Dry Bath)
10.0,120888.9,-24.72067,67.488
21.5,100713.0,-21.50088,67.5182
46.4,86738.94,-18.41659,67.5111
100.0,77500.95,-15.25791,67.4784
215.4,66428.09,7.688933,67.4812
464.2,63531.94,-12.04947,67.4946
1000.0,58102.36,-13.37268,67.4888
2154.4,53087.62,-16.36986,67.4965
4641.6,47177.04,-23.69582,67.4787
10000.0,39164.04,-35.59822,67.4709
