Frequency,Impedance,Phase Angle,Temperature (Dry Bath)
10.0,3997412.0,-11.20182,17.5898
21.5,4733576.0,-12.64441,17.6192
46.4,4920470.0,-20.07381,17.6076
100.0,2177303.0,-23.4841,17.6213
215.4,2491776.0,-48.16062,17.6032
464.2,1688257.0,-47.11948,17.6175
1000.0,1055857.0,-57.84334,17.6127
2154.4,639975.8,-66.0583,17.6264
4641.6,339614.0,-79.8842,17.5978
10000.0,184936.9,-93.30191,17.6207
