Frequency,Impedance,Phase Angle,Temperature (Dry Bath)
10.0,13123.56,-28.29368,70.9655
21.544346900318832,10437.18,-25.56677,70.9509
46.41588833612777,8496.674,-22.6045,70.9639
100.0,7180.974,-19.92728,70.9555
215.44346900318823,6146.441,-16.6597,70.9712
464.15888336127773,5413.443,-14.84759,70.9619
1000.0,4849.131,-12.96026,70.9642
2154.4346900318824,4378.64,-11.64863,70.9493
4641.588833612777,4037.46,-11.75959,70.9581
10000.0,3701.25,-13.00039,70.9284
