Frequency,Impedance,Phase Angle,Temperature (Dry Bath)
10.0,218128.2,-26.29728,71.3881
21.544346900318832,173936.8,-24.12652,71.3556
46.41588833612777,141018.8,-22.6786,71.3777
100.0,121635.5,-31.07176,71.3759
215.44346900318823,26886.85,-67.36868,71.3705
464.15888336127773,74014.52,-18.30461,71.3811
1000.0,71223.04,-21.83079,71.3838
2154.4346900318824,64677.62,-29.37715,71.396
4641.588833612777,53813.46,-43.66825,71.3943
10000.0,35347.54,-53.94182,71.3814
