Frequency,Impedance,Phase Angle,Temperature (Dry Bath)
10.0,13391.49,-28.35176,70.9575
21.544346900318832,10626.36,-25.79632,70.96
46.41588833612777,8634.265,-22.9052,70.9614
100.0,7299.325,-20.7668,70.9648
215.44346900318823,6227.159,-17.6782,70.9623
464.15888336127773,5407.819,-15.57894,70.9567
1000.0,4812.136,-13.25616,70.9502
2154.4346900318824,4347.926,-12.19739,70.955
4641.588833612777,3963.277,-11.88511,70.9552
10000.0,3662.326,-12.9531,70.9574
