Frequency,Impedance,Phase Angle,Temperature (Dry Bath)
10.0,23591.22,-21.20252,71.3128
21.544346900318832,19981.16,-18.24813,71.3165
46.41588833612777,17396.65,-15.62971,71.3142
100.0,15164.92,-14.05302,71.3224
215.44346900318823,13980.77,-8.533789,71.3202
464.15888336127773,13071.54,-10.04933,71.3246
1000.0,11946.58,-8.428293,71.3034
2154.4346900318824,11521.01,-8.638305,71.3153
4641.588833612777,10928.64,-11.23317,71.3203
10000.0,10176.23,-15.9153,71.3227
