Frequency,Impedance,Phase Angle,Temperature (Dry Bath)
10.0,10154.51,-25.77298,70.5396
21.544346900318832,8274.746,-22.65212,70.5381
46.41588833612777,6934.767,-19.78788,70.54
100.0,5894.311,-17.54783,70.5366
215.44346900318823,5288.79,-14.46147,70.5307
464.15888336127773,4720.172,-12.7516,70.5359
1000.0,4354.092,-11.58708,70.5321
2154.4346900318824,3925.196,-10.10672,70.544
4641.588833612777,3665.226,-9.713105,70.5312
10000.0,3467.85,-10.36588,70.5393
