Frequency,Impedance,Phase Angle,Temperature (Dry Bath)
10.0,23443.48,-21.19475,66.271
21.544346900318832,19793.6,-18.33658,66.2624
46.41588833612777,17173.88,-15.5216,66.2772
100.0,15452.3,-14.27922,66.2582
215.44346900318823,13693.6,-12.27624,66.2577
464.15888336127773,12984.71,-8.84446,66.2736
1000.0,12218.15,-7.965471,66.249
2154.4346900318824,11610.86,-8.137026,66.2447
4641.588833612777,10914.35,-10.3126,66.2486
10000.0,10066.91,-15.75575,66.2609
