Frequency,Impedance,Phase Angle,Temperature (Dry Bath)
10.0,277996.3,-13.12641,72.1625
21.544346900318832,267008.6,-12.57474,72.134
46.41588833612777,231038.6,-13.79542,72.1453
100.0,186117.2,-1.001975,72.1537
215.44346900318823,138133.4,-13.53179,72.1575
464.15888336127773,132588.8,-21.04475,72.1503
1000.0,161815.6,-7.551108,72.1479
2154.4346900318824,105618.9,-10.94093,72.1576
4641.588833612777,89693.74,-26.46523,72.1442
10000.0,62331.46,-46.82618,72.1668
