Frequency,Impedance,Phase Angle,Temperature (Dry Bath)
10.0,8753476.0,9.715461,70.9579
21.544346900318832,4970836.0,-1.941506,70.9564
46.41588833612777,5370330.0,-26.06202,70.9735
100.0,864171.8,13.48531,70.9527
215.44346900318823,7059396.0,-132.7594,70.9605
464.15888336127773,1182759.0,-121.35,70.956
1000.0,514909.7,-78.86019,70.9436
2154.4346900318824,245786.8,-80.95676,70.9668
4641.588833612777,140717.8,-90.19021,70.9506
10000.0,66559.76,-80.79719,70.9638
