Frequency,Impedance,Phase Angle,Temperature (Dry Bath)
10.0,8925.298,-29.39975,70.6223
21.544346900318832,7090.77,-26.67311,70.6211
46.41588833612777,5752.098,-24.14907,70.6409
100.0,4774.995,-21.51547,70.6304
215.44346900318823,4049.406,-18.10238,70.6363
464.15888336127773,3524.022,-15.08751,70.624
1000.0,3125.321,-12.90705,70.6404
2154.4346900318824,2858.32,-10.40394,70.6306
4641.588833612777,2673.665,-9.414382,70.6331
10000.0,2528.703,-9.005947,70.6339
