Frequency,Impedance,Phase Angle,Temperature (Dry Bath)
10.0,314093.4,-22.26071,71.24
21.544346900318832,253249.8,-22.23211,71.2685
46.41588833612777,213526.5,-20.86543,71.2568
100.0,233375.2,-45.73249,71.2646
215.44346900318823,160208.7,9.362358,71.2562
464.15888336127773,149519.0,-13.64694,71.2738
1000.0,92996.83,-13.33451,71.252
2154.4346900318824,108936.9,-45.14749,71.2595
4641.588833612777,60608.37,-49.65728,71.262
10000.0,42082.38,-59.98171,71.2371
