Frequency,Impedance,Phase Angle,Temperature (Dry Bath)
10.0,23314020.0,-36.20019,68.0609
21.5,34954110.0,-25.7765,68.0599
46.4,25513470.0,-52.76495,68.0528
100.0,5856308.0,-45.09334,68.0529
215.4,7227400.0,-95.32382,68.0659
464.2,1929867.0,-69.96998,68.0719
1000.0,920661.6,-75.80083,68.0499
2154.4,488691.3,-81.05966,68.0417
4641.6,264369.0,-84.15845,68.0516
10000.0,120848.5,-90.81585,68.0557
