Frequency,Impedance,Phase Angle,Temperature (Dry Bath)
10.0,4730145.0,5.574798,68.007
21.5,2267731.0,0.08590681,68.007
46.4,2160450.0,-8.633886,68.007
100.0,3043986.0,-25.86248,68.007
215.4,5018227.0,-70.75996,68.007
464.2,2091838.0,-76.8326,68.007
1000.0,965965.6,-74.61731,68.007
2154.4,540456.4,-78.94904,68.007
4641.6,266321.2,-83.73399,68.007
10000.0,135939.4,-91.05282,68.007
