Frequency,Impedance,Phase Angle,Temperature (Dry Bath)
10.0,42035140.0,-41.55256,67.7829
21.5,13470090.0,-35.92802,67.7915
46.4,10370930.0,-70.85397,67.7898
100.0,4567681.0,-68.86662,67.7813
215.4,3121996.0,-82.54023,67.778
464.2,1790563.0,-76.32775,67.7835
1000.0,984724.6,-78.55452,67.7798
2154.4,520119.3,-78.26238,67.7662
4641.6,265087.4,-84.53267,67.7765
10000.0,117207.1,-90.48692,67.7632
