Frequency,Impedance,Phase Angle,Temperature (Dry Bath)
10.0,120553.6,-24.6786,67.412
21.5,100559.2,-21.4447,67.425
46.4,86200.35,-18.23535,67.4138
100.0,80028.43,-17.06872,67.4331
215.4,71638.5,-15.55598,67.4245
464.2,63335.09,-12.27604,67.4223
1000.0,57296.13,-13.51837,67.4577
2154.4,53215.91,-16.98297,67.4306
4641.6,47680.9,-23.00423,67.4367
10000.0,39288.3,-35.82043,67.4049
