Frequency,Impedance,Phase Angle,Temperature (Dry Bath)
10.0,27273450.0,-28.89234,67.121
21.5,22944050.0,-39.4322,67.1372
46.4,14770230.0,-59.75824,67.1423
100.0,9388068.0,-16.12849,67.1215
215.4,3873279.0,-97.38948,67.1376
464.2,1754805.0,-86.21117,67.1296
1000.0,927921.1,-84.99516,67.146
2154.4,450279.2,-86.09051,67.1411
4641.6,235660.8,-79.36884,67.1468
10000.0,117440.9,-79.58123,67.1305
