Frequency,Impedance,Phase Angle,Temperature (Dry Bath)
10.0,138359.2,-5.930435,67.4207
21.5,133306.9,-4.852387,67.4359
46.4,129210.4,-4.798667,67.4309
100.0,123150.8,-4.279698,67.4219
215.4,121185.8,-1.764652,67.4181
464.2,118819.2,-7.365293,67.4369
1000.0,112108.5,-11.10745,67.446
2154.4,105657.7,-18.95359,67.4308
4641.6,89036.92,-32.28156,67.4416
10000.0,63434.47,-49.16562,67.4296
