Frequency,Impedance,Phase Angle,Temperature (Dry Bath)
10.0,23860100.0,-12.23385,67.9169
21.5,25405660.0,-37.39761,67.9195
46.4,30660330.0,-59.96331,67.9284
100.0,5862653.0,-28.98025,67.9113
215.4,3596032.0,-83.95346,67.9051
464.2,1899678.0,-79.44489,67.9095
1000.0,1023378.0,-76.72307,67.9189
2154.4,489940.6,-86.25363,67.911
4641.6,251505.0,-87.66015,67.8876
10000.0,121244.4,-89.67951,67.8929
