Frequency,Impedance,Phase Angle,Temperature (Dry Bath)
10.0,23685880.0,-6.286129,68.1004
21.5,16900910.0,-54.1569,68.11
46.4,22664400.0,-43.92203,68.0904
100.0,5466104.0,-19.21834,68.0736
215.4,4391400.0,-65.92191,68.0731
464.2,3400998.0,-86.68722,68.094
1000.0,1354040.0,-83.98343,68.0929
2154.4,684362.9,-88.36867,68.0889
4641.6,322354.4,-91.34428,68.0878
10000.0,147116.7,-95.20523,68.0877
