Frequency,Impedance,Phase Angle,Temperature (Dry Bath)
10.0,429797.6,-26.42358,17.6185
21.5,353439.8,-26.95962,17.629
46.4,287281.5,-27.61485,17.607
100.0,221358.3,-26.72783,17.6274
215.4,190133.8,-26.41902,17.6198
464.2,158869.6,-25.47595,17.6211
1000.0,134600.2,-27.42242,17.6188
2154.4,112019.7,-30.27024,17.5794
4641.6,90385.19,-39.79427,17.6204
10000.0,65494.05,-55.27948,17.6074
