Frequency,Impedance,Phase Angle,Temperature (Dry Bath)
10.0,133707.2,-6.324501,67.362
21.5,128103.4,-5.486154,67.366
46.4,123486.1,-5.14826,67.3699
100.0,117530.6,-5.145188,67.384
215.4,114756.0,-6.917325,67.3671
464.2,116374.7,-8.381897,67.3824
1000.0,106158.6,-11.53691,67.3692
2154.4,99829.7,-18.76482,67.3875
4641.6,85829.52,-33.07705,67.3505
10000.0,60209.03,-48.34711,67.3891
