Frequency,Impedance,Phase Angle,Temperature (Dry Bath)
10.0,32520190.0,-31.40581,67.9805
21.5,23371450.0,-52.48727,67.9848
46.4,20727760.0,-58.99061,67.9905
100.0,6530083.0,-19.97947,68.0066
215.4,5174531.0,-95.69169,67.984
464.2,2638274.0,-75.04875,68.0068
1000.0,989869.7,-87.34359,67.9814
2154.4,523363.1,-86.33411,67.9833
4641.6,228120.9,-90.99027,67.9751
10000.0,120213.7,-95.08341,67.9963
