Frequency,Impedance,Phase Angle,Temperature (Dry Bath)
10.0,5469.465,-31.78268,70.9359
21.544346900318832,4274.44,-26.32847,70.9402
46.41588833612777,3528.899,-21.13769,70.9302
100.0,3041.211,-16.8549,70.9299
215.44346900318823,2702.992,-13.75357,70.9264
464.15888336127773,2462.723,-11.14294,70.9307
1000.0,2272.567,-8.807978,70.9417
2154.4346900318824,2124.336,-7.850195,70.9439
4641.588833612777,2013.073,-6.834022,70.9317
10000.0,1931.849,-6.892232,70.9367
