Frequency,Impedance,Phase Angle,Temperature (Dry Bath)
10.0,126860.7,-25.04387,67.4642
21.5,106460.4,-22.24405,67.4423
46.4,91102.91,-19.28924,67.459
100.0,78361.58,-16.50664,67.4488
215.4,75297.94,-14.02248,67.4655
464.2,66707.16,-14.3015,67.4537
1000.0,60228.92,-15.44143,67.4552
2154.4,54702.37,-18.50004,67.4582
4641.6,48132.74,-24.39108,67.4467
10000.0,39474.64,-35.05867,67.4612
