Frequency,Impedance,Phase Angle,Temperature (Dry Bath)
10.0,1299023.0,-10.52121,67.211
21.5,1238967.0,-11.0588,67.2375
46.4,1102202.0,-13.56488,67.2184
100.0,1025237.0,-27.95285,67.2129
215.4,306830.1,150.7456,67.2197
464.2,709100.4,-30.42562,67.2043
1000.0,496469.4,-47.56144,67.1904
2154.4,306146.1,-58.0845,67.2142
4641.6,175405.5,-67.21992,67.2082
10000.0,100987.9,-71.67422,67.2143
