Frequency,Impedance,Phase Angle,Temperature (Dry Bath)
10.0,19636330.0,-15.76813,68.2664
21.5,20348030.0,-38.60641,68.2838
46.4,11796690.0,-60.29049,68.2968
100.0,6083605.0,-50.27572,68.2912
215.4,3366301.0,-62.75705,68.2882
464.2,1754718.0,-78.79338,68.2884
1000.0,957117.4,-75.50903,68.2949
2154.4,519134.0,-82.15957,68.2842
4641.6,241997.0,-84.60353,68.2744
10000.0,120183.7,-93.81927,68.269
