Frequency,Impedance,Phase Angle,Temperature (Dry Bath)
10.0,223415.8,-25.71396,71.4128
21.544346900318832,179842.9,-23.7362,71.404
46.41588833612777,150909.7,-21.19061,71.3993
100.0,136877.8,-42.4333,71.412
215.44346900318823,111666.3,-18.67171,71.3884
464.15888336127773,96529.12,-30.69348,71.4051
1000.0,72861.54,-14.53049,71.3885
2154.4346900318824,70105.7,-32.05053,71.3933
4641.588833612777,57650.72,-40.58492,71.413
10000.0,36225.6,-54.27879,71.3939
