Frequency,Impedance,Phase Angle,Temperature (Dry Bath)
10.0,901305.6,-10.88781,68.1085
21.5,846134.0,-10.10456,68.0954
46.4,801861.4,-11.94712,68.0943
100.0,645071.7,-17.68053,68.1014
215.4,670277.5,-17.34273,68.0924
464.2,553136.8,-32.04176,68.094
1000.0,415074.3,-36.37472,68.0949
2154.4,286405.1,-47.31116,68.0911
4641.6,192829.2,-58.81711,68.0895
10000.0,118703.3,-68.70752,68.0814
