Frequency,Impedance,Phase Angle,Temperature (Dry Bath)
10.0,132027.0,-24.26963,67.2331
21.5,110245.9,-22.15942,67.2363
46.4,95182.54,-19.66458,67.2315
100.0,83444.06,-17.24713,67.2385
215.4,73563.2,-15.53199,67.2418
464.2,68379.62,-14.37683,67.2269
1000.0,61245.45,-14.71992,67.2321
2154.4,56124.83,-18.2302,67.2192
4641.6,48777.26,-24.98678,67.2294
10000.0,38493.15,-34.5303,67.2264
