Frequency,Impedance,Phase Angle,Temperature (Dry Bath)
10.0,125455.2,-25.19649,67.3256
21.5,104459.4,-22.24894,67.3418
46.4,90243.11,-19.19205,67.3557
100.0,79502.63,-17.9906,67.3497
215.4,70142.98,-14.56997,67.3361
464.2,65174.29,-14.34866,67.351
1000.0,59484.64,-15.11755,67.3618
2154.4,54525.01,-17.74797,67.32
4641.6,48456.52,-23.86369,67.3173
10000.0,39222.5,-34.8421,67.31
