Frequency,Impedance,Phase Angle,Temperature (Dry Bath)
10.0,18416600.0,-33.67908,68.2018
21.5,18407450.0,-54.5985,68.215
46.4,14691610.0,-60.7494,68.2008
100.0,6858789.0,-46.70453,68.202
215.4,4786425.0,-53.59248,68.2068
464.2,1727526.0,-76.83582,68.1954
1000.0,906526.0,-76.44862,68.2143
2154.4,504074.9,-75.0654,68.2013
4641.6,270226.0,-81.32842,68.2055
10000.0,132252.9,-87.20083,68.2109
