Frequency,Impedance,Phase Angle,Temperature (Dry Bath)
10.0,129769.8,-25.23783,67.2387
21.5,107951.3,-21.97693,67.2131
46.4,92241.66,-18.83349,67.2226
100.0,81049.72,-16.35721,67.2181
215.4,73766.71,-13.37919,67.2189
464.2,66736.4,-12.91697,67.2138
1000.0,61062.51,-14.03805,67.2125
2154.4,55795.92,-17.65475,67.2138
4641.6,49105.93,-25.06734,67.2156
10000.0,39586.87,-36.86445,67.2306
