Frequency,Impedance,Phase Angle,Temperature (Dry Bath)
10.0,4794893.0,16.85953,71.546
21.544346900318832,7225621.0,-5.83728,71.5446
46.41588833612777,4593548.0,-19.28269,71.5513
100.0,936739.2,-49.6577,71.542
215.44346900318823,476065.5,-139.7454,71.556
464.15888336127773,688335.9,126.4579,71.5665
1000.0,760714.1,-62.49455,71.5569
2154.4346900318824,759565.7,-75.9154,71.5561
4641.588833612777,317047.0,-83.78954,71.5649
10000.0,140146.0,-84.99054,71.5527
