Frequency,Impedance,Phase Angle,Temperature (Dry Bath)
10.0,27430440.0,-11.44151,66.965
21.5,26094130.0,-61.0918,66.9672
46.4,13704700.0,-56.92293,66.9525
100.0,7008863.0,-110.972,66.969
215.4,4401223.0,-84.96591,66.9474
464.2,1653230.0,-86.9687,66.9642
1000.0,907153.7,-71.21301,66.9673
2154.4,459068.6,-81.75352,66.9681
4641.6,217908.9,-82.29483,66.9515
10000.0,107967.7,-84.32811,66.9715
