Frequency,Impedance,Phase Angle,Temperature (Dry Bath)
10.0,138783.5,-18.81181,66.4322
21.544346900318832,116378.8,-17.76539,66.4046
46.41588833612777,100450.0,-16.5728,66.412
100.0,76122.1,-7.042145,66.4157
215.44346900318823,69763.41,-10.91303,66.4166
464.15888336127773,73318.45,-16.54668,66.4122
1000.0,60853.4,-15.53226,66.4129
2154.4346900318824,53014.88,-25.37575,66.4148
4641.588833612777,48874.8,-32.43737,66.4158
10000.0,30908.47,-45.61814,66.4085
