Frequency,Impedance,Phase Angle,Temperature (Dry Bath)
10.0,121390.6,-27.61549,72.1611
21.544346900318832,96518.57,-28.21787,72.1593
46.41588833612777,77298.78,-28.64278,72.1406
100.0,53779.28,-26.83594,72.14
215.44346900318823,48240.42,-29.20529,72.1545
464.15888336127773,32847.82,-26.76702,72.1502
1000.0,29322.76,-29.82072,72.1477
2154.4346900318824,20908.99,-25.73924,72.1492
4641.588833612777,16449.59,-25.77112,72.1536
10000.0,14009.54,-20.33717,72.1548
