Frequency,Impedance,Phase Angle,Temperature (Dry Bath)
10.0,45982470.0,-9.909225,67.052
21.5,25544830.0,-30.91827,67.0457
46.4,15724380.0,-60.71495,67.0377
100.0,7279779.0,-49.5946,67.0409
215.4,3178258.0,-101.0494,67.0415
464.2,1799358.0,-76.53786,67.0478
1000.0,883856.9,-86.73497,67.0256
2154.4,445208.5,-84.44251,67.0226
4641.6,238159.9,-79.00518,67.0389
10000.0,115373.7,-80.73255,67.0534
