Frequency,Impedance,Phase Angle,Temperature (Dry Bath)
10.0,33934500.0,-17.11081,68.1329
21.5,24003560.0,-21.316,68.1166
46.4,18678310.0,-61.23279,68.13
100.0,5149378.0,-29.21191,68.1359
215.4,3997736.0,-77.14185,68.142
464.2,2241314.0,-78.60175,68.1462
1000.0,856186.5,-83.17204,68.1283
2154.4,453876.0,-83.98102,68.1347
4641.6,225674.6,-86.93119,68.1298
10000.0,118506.7,-90.02028,68.14
