Frequency,Impedance,Phase Angle,Temperature (Dry Bath)
10.0,3376157.0,6.943537,70.7857
21.544346900318832,3956465.0,-29.80746,70.7866
46.41588833612777,3439024.0,-38.71463,70.7849
100.0,578353.3,-17.1882,70.7848
215.44346900318823,1716449.0,-101.8508,70.7951
464.15888336127773,762303.5,-56.57786,70.7764
1000.0,448196.6,-106.2985,70.7679
2154.4346900318824,189782.9,-91.78963,70.8015
4641.588833612777,110205.8,-84.07464,70.8106
10000.0,50268.89,-90.03741,70.7804
