Frequency,Impedance,Phase Angle,Temperature (Dry Bath)
10.0,27269380.0,-27.1762,67.6518
21.5,34796110.0,-22.73443,67.6543
46.4,35405610.0,-45.82426,67.6766
100.0,4763184.0,-15.37532,67.6698
215.4,4778704.0,-67.11738,67.6654
464.2,2663249.0,-82.0544,67.6611
1000.0,1409157.0,-89.58161,67.6481
2154.4,762892.8,-84.66548,67.6697
4641.6,323277.5,-90.99613,67.6451
10000.0,147238.5,-97.54754,67.6652
