Frequency,Impedance,Phase Angle,Temperature (Dry Bath)
10.0,134754.5,-6.412645,67.0144
21.5,129059.4,-5.477033,66.9945
46.4,124381.9,-5.09976,66.9786
100.0,119942.8,-4.941605,66.996
215.4,1266804.0,30.5928,66.9943
464.2,110524.6,-7.41722,66.9972
1000.0,104867.4,-11.42136,66.9904
2154.4,98367.18,-20.44518,66.9928
4641.6,83881.08,-33.4803,66.9892
10000.0,59873.31,-49.36426,66.9944
