Frequency,Impedance,Phase Angle,Temperature (Dry Bath)
10.0,15050.68,-36.59038,70.8828
21.544346900318832,11193.37,-33.31685,70.8859
46.41588833612777,8528.683,-30.01186,70.896
100.0,6735.839,-25.61917,70.8799
215.44346900318823,5509.45,-22.13879,70.875
464.15888336127773,4604.986,-18.80235,70.8932
1000.0,4067.84,-14.49054,70.8819
2154.4346900318824,3656.262,-12.00052,70.8687
4641.588833612777,3385.818,-10.21001,70.8712
10000.0,3208.51,-10.209,70.8678
