Frequency,Impedance,Phase Angle,Temperature (Dry Bath)
10.0,34166170.0,-40.29183,67.4439
21.5,20436160.0,-30.34896,67.4285
46.4,13447430.0,-64.12152,67.4481
100.0,4166728.0,-82.20627,67.4406
215.4,5765327.0,-99.46475,67.4499
464.2,1790603.0,-92.52225,67.4502
1000.0,890961.1,-84.30559,67.4511
2154.4,474179.7,-84.92618,67.4588
4641.6,227850.9,-81.53556,67.4665
10000.0,111793.2,-84.05447,67.4613
