Frequency,Impedance,Phase Angle,Temperature (Dry Bath)
10.0,944918.4,-10.57115,68.0196
21.5,873749.4,-10.11165,68.0196
46.4,829093.0,-11.4003,68.0196
100.0,697712.7,-13.01251,68.0196
215.4,673240.8,-13.57928,68.0196
464.2,585608.3,-18.14204,68.0196
1000.0,534013.8,-27.11969,68.0196
2154.4,431921.2,-37.13606,68.0196
4641.6,300094.5,-54.33347,68.0196
10000.0,168772.1,-78.51299,68.0196
