Frequency,Impedance,Phase Angle,Temperature (Dry Bath)
10.0,934239.2,-28.53711,71.0841
21.544346900318832,725269.7,-25.08985,71.0938
46.41588833612777,607876.7,-22.12289,71.0723
100.0,337305.6,-10.00839,71.0883
215.44346900318823,615099.3,-19.54142,71.0776
464.15888336127773,285858.5,-35.15784,71.084
1000.0,234505.8,-63.8765,71.0839
2154.4346900318824,186860.7,-58.69916,71.0819
4641.588833612777,91148.71,-64.06063,71.0623
10000.0,57076.61,-74.97833,71.0644
