Frequency,Impedance,Phase Angle,Temperature (Dry Bath)
10.0,33003000.0,-26.00765,67.3204
21.5,27985310.0,-9.627708,67.3216
46.4,16218240.0,-49.75552,67.3047
100.0,4629197.0,-59.73328,67.3114
215.4,330039.7,109.7238,67.303
464.2,2197120.0,-85.72939,67.338
1000.0,1296178.0,-81.87632,67.3051
2154.4,625089.7,-93.23326,67.3181
4641.6,269085.6,-86.06106,67.3235
10000.0,129412.4,-87.02609,67.3241
