Frequency,Impedance,Phase Angle,Temperature (Dry Bath)
10.0,4123581.0,-5.064613,65.8298
21.544346900318832,6316118.0,-25.51577,65.8384
46.41588833612777,4140899.0,-26.36227,65.8225
100.0,471873.2,59.52903,65.8379
215.44346900318823,319024.2,102.9388,65.8343
464.15888336127773,1211442.0,-94.90513,65.8282
1000.0,624763.8,-104.2286,65.8228
2154.4346900318824,304085.1,-88.07688,65.8074
4641.588833612777,124898.5,-85.84304,65.8327
10000.0,68577.25,-87.5639,65.8159
