Frequency,Impedance,Phase Angle,Temperature (Dry Bath)
10.0,26004800.0,-13.00768,67.0729
21.5,24097390.0,-21.24058,67.0718
46.4,16568860.0,-58.98132,67.0897
100.0,7197250.0,-18.70692,67.0796
215.4,3855194.0,-29.35606,67.0924
464.2,2080844.0,-76.9469,67.0882
1000.0,946098.9,-79.94911,67.0829
2154.4,458313.3,-84.8431,67.0675
4641.6,235171.2,-81.39411,67.097
10000.0,120236.7,-79.68965,67.0738
