Frequency,Impedance,Phase Angle,Temperature (Dry Bath)
10.0,9728.02,-26.14199,70.7615
21.544346900318832,7995.899,-21.80337,70.7545
46.41588833612777,6791.613,-18.15418,70.762
100.0,5987.508,-15.24483,70.772
215.44346900318823,5334.861,-12.15135,70.7769
464.15888336127773,4922.164,-10.34546,70.7643
1000.0,4518.758,-7.727463,70.778
2154.4346900318824,4253.092,-7.916765,70.7676
4641.588833612777,4067.195,-7.880895,70.7623
10000.0,3797.426,-9.009586,70.7641
