Frequency,Impedance,Phase Angle,Temperature (Dry Bath)
10.0,5229044.0,-0.09471218,65.7578
21.544346900318832,10948170.0,-20.99995,65.7454
46.41588833612777,37102140.0,-70.94397,65.7637
100.0,311777.0,14.04536,65.7534
215.44346900318823,27793.73,118.1965,65.7381
464.15888336127773,2220805.0,-61.06422,65.7513
1000.0,491563.1,-111.2902,65.7535
2154.4346900318824,337840.2,-61.54784,65.7621
4641.588833612777,131936.5,-85.25659,65.7515
10000.0,74383.64,-90.08946,65.7444
