Frequency,Impedance,Phase Angle,Temperature (Dry Bath)
10.0,38167.84,-19.79361,70.4
21.544346900318832,33444.67,-20.4963,70.4
46.41588833612777,28336.92,-21.78429,70.4
100.0,23508.78,-23.3578,70.4
215.44346900318823,19144.44,-25.34415,70.4
464.15888336127773,15079.78,-26.97254,70.4
1000.0,11919.33,-27.80485,70.4
2154.4346900318824,9172.872,-26.50911,70.4
4641.588833612777,7326.153,-23.62354,70.4
10000.0,6099.77,-20.65154,70.4
