Frequency,Impedance,Phase Angle,Temperature (Dry Bath)
10.0,148716.9,-10.18217,71.3841
21.544346900318832,139608.7,-9.782796,71.3867
46.41588833612777,129283.0,-9.35271,71.385
100.0,111290.8,-5.005021,71.3763
215.44346900318823,119354.5,-20.05237,71.3816
464.15888336127773,116681.1,-18.13944,71.3886
1000.0,98365.37,-15.89022,71.3711
2154.4346900318824,85277.3,-33.98323,71.3764
4641.588833612777,62950.61,-53.92392,71.3783
10000.0,41600.65,-60.73511,71.3897
