Frequency,Impedance,Phase Angle,Temperature (Dry Bath)
10.0,152903.0,-6.264478,68.0057
21.5,147182.7,-5.103628,68.0014
46.4,142166.8,-4.852586,68.0046
100.0,134957.1,-6.305785,68.0073
215.4,131505.9,-7.177399,67.9939
464.2,129006.0,-9.278613,67.9829
1000.0,121375.1,-12.78724,68.005
2154.4,111016.7,-20.91759,67.9869
4641.6,92038.54,-34.0286,68.0148
10000.0,73228.01,-50.65224,67.9845
