Frequency,Impedance,Phase Angle,Temperature (Dry Bath)
10.0,4146777.0,13.28874,65.7433
21.544346900318832,7476202.0,-35.81952,65.7425
46.41588833612777,3987807.0,-19.30249,65.7161
100.0,1823397.0,-179.5196,65.7417
215.44346900318823,19632.0,-114.3457,65.7544
464.15888336127773,656355.9,-48.39106,65.7366
1000.0,332064.6,-78.44173,65.7367
2154.4346900318824,392571.8,-77.52957,65.7495
4641.588833612777,174521.1,-85.48707,65.7428
10000.0,77116.73,-90.25509,65.7397
