Frequency,Impedance,Phase Angle,Temperature (Dry Bath)
10.0,118536.9,-25.33365,67.99
21.5,99814.08,-22.1146,67.9848
46.4,85211.44,-19.16928,67.9802
100.0,73588.84,-16.1458,67.9667
215.4,66229.68,-13.25516,67.9845
464.2,61525.22,-12.39636,67.9914
1000.0,56062.0,-13.13052,67.9965
2154.4,52407.07,-16.63964,67.987
4641.6,46378.59,-23.10393,67.9775
10000.0,39520.25,-35.73455,67.9862
