Frequency,Impedance,Phase Angle,Temperature (Dry Bath)
10.0,24683.08,-20.31939,71.1899
21.544346900318832,21101.07,-17.68585,71.213
46.41588833612777,18312.66,-15.6921,71.2019
100.0,16231.94,-12.16778,71.1953
215.44346900318823,14219.61,-10.88018,71.2109
464.15888336127773,13432.87,-9.656157,71.2012
1000.0,12382.7,-7.846167,71.2098
2154.4346900318824,11576.03,-10.22118,71.2012
4641.588833612777,10978.23,-9.93479,71.1964
10000.0,10361.48,-16.25611,71.206
