Frequency,Impedance,Phase Angle,Temperature (Dry Bath)
10.0,127377.4,-23.56934,67.2329
21.5,106844.8,-21.55341,67.2276
46.4,92643.98,-19.46604,67.2241
100.0,82021.49,-17.74147,67.2569
215.4,72752.51,-15.29492,67.2369
464.2,66111.26,-15.57014,67.2591
1000.0,59145.93,-15.9822,67.2358
2154.4,51815.11,-18.82599,67.2696
4641.6,45851.46,-23.70814,67.2524
10000.0,38595.63,-34.84087,67.2416
