Frequency,Impedance,Phase Angle,Temperature (Dry Bath)
10.0,35180970.0,-37.89388,68.1605
21.5,26817320.0,-28.78417,68.1582
46.4,12585370.0,-50.95221,68.1426
100.0,7577258.0,-35.59105,68.1559
215.4,4207331.0,-94.73476,68.1743
464.2,2273637.0,-80.93395,68.1679
1000.0,1101157.0,-85.68699,68.1674
2154.4,522924.6,-82.952,68.1749
4641.6,278951.2,-85.93853,68.1727
10000.0,145169.4,-87.54897,68.168
