Frequency,Impedance,Phase Angle,Temperature (Dry Bath)
10.0,201135.0,-26.98254,66.4243
21.544346900318832,165772.0,-24.4861,66.412
46.41588833612777,132747.1,-22.75318,66.4151
100.0,109771.0,-24.06131,66.4114
215.44346900318823,85933.36,-25.44077,66.415
464.15888336127773,80951.17,-16.80373,66.4046
1000.0,69740.14,-20.11795,66.4001
2154.4346900318824,58745.58,-32.26165,66.4086
4641.588833612777,51698.23,-41.27947,66.3928
10000.0,35520.15,-47.40947,66.4131
