Frequency,Impedance,Phase Angle,Temperature (Dry Bath)
10.0,58436860.0,-20.23875,67.2668
21.5,22365490.0,-35.33383,67.2704
46.4,12026280.0,-58.52911,67.2717
100.0,4028877.0,-72.39555,67.2672
215.4,223551.8,-125.5977,67.2672
464.2,1857308.0,-78.11298,67.2948
1000.0,853493.7,-81.41075,67.2967
2154.4,455134.2,-83.21174,67.2818
4641.6,231564.8,-83.67843,67.2841
10000.0,111075.2,-83.39743,67.281
