Frequency,Impedance,Phase Angle,Temperature (Dry Bath)
10.0,2884727.0,-30.01544,70.922
21.544346900318832,2237963.0,-29.4184,70.9285
46.41588833612777,1861237.0,-21.91913,70.9286
100.0,462804.0,-2.320285,70.929
215.44346900318823,344694.5,-45.9613,70.9162
464.15888336127773,381939.8,-37.04578,70.9279
1000.0,216393.1,-35.73253,70.9253
2154.4346900318824,190843.5,-74.87037,70.9286
4641.588833612777,113020.4,-75.23535,70.9318
10000.0,52408.21,-84.39673,70.9362
