Frequency,Impedance,Phase Angle,Temperature (Dry Bath)
10.0,16218.03,-20.71197,71.0779
21.544346900318832,13879.08,-17.74126,71.0928
46.41588833612777,12149.11,-15.36059,71.0864
100.0,10705.34,-14.43528,71.0588
215.44346900318823,9806.381,-12.13027,71.0863
464.15888336127773,8989.936,-11.49601,71.0807
1000.0,8153.366,-9.261506,71.0763
2154.4346900318824,7644.077,-9.364771,71.0764
4641.588833612777,7255.246,-9.31576,71.0626
10000.0,6825.632,-12.96218,71.0655
