Frequency,Impedance,Phase Angle,Temperature (Dry Bath)
10.0,164974.5,-6.156783,67.7043
21.5,158635.8,-5.178814,67.7237
46.4,153425.0,-4.768487,67.6957
100.0,149706.3,-4.618639,67.7148
215.4,147134.8,-6.276578,67.7074
464.2,139841.1,-9.08495,67.7186
1000.0,130215.4,-13.34474,67.7103
2154.4,121018.6,-23.41554,67.7
4641.6,97450.19,-37.21677,67.7196
10000.0,76768.88,-57.1388,67.7006
