Frequency,Impedance,Phase Angle,Temperature (Dry Bath)
10.0,7153280.0,8.219114,71.1298
21.544346900318832,5985647.0,-20.24066,71.1357
46.41588833612777,6422651.0,-44.7927,71.1289
100.0,611648.3,33.0071,71.1327
215.44346900318823,597388.8,-57.35382,71.1232
464.15888336127773,658256.3,-79.54444,71.1269
1000.0,454435.7,-118.8711,71.123
2154.4346900318824,239809.9,-88.70293,71.1209
4641.588833612777,114848.9,-79.19136,71.1238
10000.0,54519.7,-86.99537,71.122
