Frequency,Impedance,Phase Angle,Temperature (Dry Bath)
10.0,41223790.0,-25.61971,67.2186
21.5,26528300.0,-37.79035,67.2378
46.4,20743790.0,-52.38692,67.2029
100.0,10483550.0,-47.3402,67.2096
215.4,244639.0,-91.39646,67.22
464.2,2045431.0,-82.67533,67.2241
1000.0,1060396.0,-83.77394,67.2046
2154.4,532338.7,-82.68262,67.2136
4641.6,264770.6,-78.58891,67.2047
10000.0,140455.0,-79.87347,67.1921
