Frequency,Impedance,Phase Angle,Temperature (Dry Bath)
10.0,22525.5,-21.58399,65.8414
21.544346900318832,18966.37,-18.44786,65.8532
46.41588833612777,16435.72,-15.46522,65.8633
100.0,14896.64,-12.27591,65.8394
215.44346900318823,10621.96,117.5725,65.8438
464.15888336127773,12499.17,-8.600394,65.8588
1000.0,11508.06,-7.413854,65.8548
2154.4346900318824,11136.86,-7.229013,65.8382
4641.588833612777,10591.31,-10.76967,65.84
10000.0,10105.84,-14.18264,65.8406
