Frequency,Impedance,Phase Angle,Temperature (Dry Bath)
10.0,2016806.0,-10.65919,67.2564
21.5,1907708.0,-9.795865,67.2507
46.4,1696089.0,-20.64579,67.2767
100.0,1530949.0,-24.27129,67.238
215.4,117688.5,121.1568,67.2337
464.2,963614.4,-41.92819,67.2575
1000.0,636818.5,-51.86254,67.2646
2154.4,357729.1,-64.88557,67.2641
4641.6,197198.0,-70.36266,67.2911
10000.0,106431.4,-71.73389,67.2835
