Frequency,Impedance,Phase Angle,Temperature (Dry Bath)
10.0,12222.37,-4.808785,67.0543
21.5,11925.72,-4.173597,67.0708
46.4,11663.78,-3.587139,67.0529
100.0,11555.02,-3.79317,67.0572
215.4,11439.3,-3.980661,67.062
464.2,11220.14,-4.054329,67.0612
1000.0,10881.0,-4.299054,67.0532
2154.4,10675.52,-4.819457,67.0517
4641.6,10437.15,-6.248612,67.0531
10000.0,10102.31,-9.761265,67.0649
