Frequency,Impedance,Phase Angle,Temperature (Dry Bath)
10.0,3960094.0,-26.34007,71.0065
21.544346900318832,7064915.0,7.0823,71.0263
46.41588833612777,5113380.0,-14.7805,71.0108
100.0,692230.3,45.23957,71.0284
215.44346900318823,976092.6,85.17539,71.016
464.15888336127773,1075019.0,-51.44726,71.0031
1000.0,233041.7,-65.5521,71.0085
2154.4346900318824,267294.6,-84.20749,71.0207
4641.588833612777,114691.4,-83.21857,71.0115
10000.0,62489.47,-86.12546,71.0078
