Frequency,Impedance,Phase Angle,Temperature (Dry Bath)
10.0,1416684.0,-13.80599,65.6765
21.544346900318832,1172377.0,-7.809205,65.6775
46.41588833612777,1037860.0,-5.532401,65.6827
100.0,489981.6,-30.84494,65.6646
215.44346900318823,104221.3,52.32144,65.6698
464.15888336127773,792317.6,-34.25347,65.6786
1000.0,336926.2,-34.61083,65.6844
2154.4346900318824,372851.1,-75.42752,65.6725
4641.588833612777,132545.8,-74.57395,65.677
10000.0,64908.99,-76.6694,65.6494
