Frequency,Impedance,Phase Angle,Temperature (Dry Bath)
10.0,25559660.0,-23.35449,68.1573
21.5,26707070.0,-18.94014,68.1609
46.4,28879790.0,-54.0757,68.1588
100.0,3822447.0,-17.01187,68.1414
215.4,4763390.0,-67.26551,68.1415
464.2,3337447.0,-80.55558,68.1549
1000.0,1002636.0,-84.08715,68.165
2154.4,517811.2,-78.87157,68.1424
4641.6,275459.5,-79.53824,68.1538
10000.0,135250.8,-90.8483,68.1567
