Frequency,Impedance,Phase Angle,Temperature (Dry Bath)
10.0,24358160.0,-29.5284,68.1936
21.5,22248840.0,-40.69914,68.2041
46.4,23708230.0,-62.4202,68.2005
100.0,7628380.0,-26.1581,68.1888
215.4,3640060.0,-68.32751,68.19
464.2,2145626.0,-74.80466,68.1851
1000.0,1072553.0,-82.81958,68.1734
2154.4,537842.1,-83.8581,68.1707
4641.6,247199.4,-83.89447,68.1777
10000.0,143240.2,-88.88595,68.1767
