Frequency,Impedance,Phase Angle,Temperature (Dry Bath)
10.0,135369.4,-25.47685,67.148
21.5,111139.8,-22.26901,67.1328
46.4,94683.6,-19.12712,67.1408
100.0,83185.7,-17.19388,67.149
215.4,44085.5,-26.19868,67.1439
464.2,69208.13,-14.12742,67.1371
1000.0,62463.36,-14.74921,67.1302
2154.4,57159.44,-17.4115,67.1342
4641.6,49627.62,-25.72278,67.1604
10000.0,39942.71,-37.9893,67.1337
