Frequency,Impedance,Phase Angle,Temperature (Dry Bath)
10.0,22341770.0,-7.691814,68.0908
21.5,22701220.0,-25.2915,68.1121
46.4,18402770.0,-44.89945,68.0957
100.0,3940929.0,-43.25807,68.1015
215.4,2405175.0,-69.69857,68.1006
464.2,2221622.0,-65.41961,68.1
1000.0,903894.4,-81.37293,68.098
2154.4,435758.1,-80.74054,68.1046
4641.6,213828.5,-81.5144,68.109
10000.0,113531.4,-88.27887,68.0967
