Frequency,Impedance,Phase Angle,Temperature (Dry Bath)
10.0,168945.4,-6.318326,67.995
21.5,162682.1,-5.230739,67.9788
46.4,157148.2,-4.836931,67.9984
100.0,147544.6,-5.805605,67.9909
215.4,144352.1,-5.446773,67.9903
464.2,142322.1,-11.40842,67.991
1000.0,134525.9,-13.88488,67.9937
2154.4,124737.3,-20.23654,67.9898
4641.6,102347.5,-36.92484,67.9803
10000.0,75722.6,-56.89249,68.0015
