Frequency,Impedance,Phase Angle,Temperature (Dry Bath)
10.0,144905.6,-8.104792,67.3423
21.5,137248.9,-7.451068,67.3562
46.4,131383.4,-7.552634,67.3542
100.0,124274.2,-6.400349,67.3522
215.4,118387.9,-10.26011,67.3617
464.2,110955.3,-12.31169,67.3647
1000.0,100112.1,-16.4296,67.3474
2154.4,88440.78,-22.07739,67.3488
4641.6,70681.55,-32.46259,67.3599
10000.0,52697.97,-42.964,67.3504
