Frequency,Impedance,Phase Angle,Temperature (Dry Bath)
10.0,2656598.0,-9.922805,67.4892
21.5,2575723.0,-11.01332,67.4967
46.4,2390435.0,-12.27458,67.4892
100.0,1451635.0,-19.71666,67.482
215.4,540054.8,-123.3037,67.5021
464.2,1355135.0,-41.53529,67.4994
1000.0,792872.5,-53.7873,67.4779
2154.4,455390.7,-63.36953,67.4731
4641.6,271070.7,-66.81611,67.4939
10000.0,147686.1,-73.87048,67.5009
