Frequency,Impedance,Phase Angle,Temperature (Dry Bath)
10.0,16880900.0,-14.74517,67.9883
21.5,22656910.0,-44.2348,67.9917
46.4,22312970.0,-59.49761,68.0012
100.0,8147726.0,-46.51041,67.9705
215.4,5960586.0,-62.26606,67.9871
464.2,1942188.0,-71.28138,67.9972
1000.0,964124.1,-80.93825,67.9709
2154.4,522618.5,-80.80264,67.9807
4641.6,248063.6,-88.73738,67.9802
10000.0,126610.9,-91.10017,67.9786
