Frequency,Impedance,Phase Angle,Temperature (Dry Bath)
10.0,2538675.0,-5.023255,70.4
21.544346900318832,2818727.0,-5.014087,70.4
46.41588833612777,2386616.0,-2.559869,70.4
100.0,1450934.0,17.72742,70.4
215.44346900318823,1277891.0,-9.707995,70.4
464.15888336127773,1630485.0,-31.21651,70.4
1000.0,577646.7,-9.380639,70.4
2154.4346900318824,992971.7,-57.64709,70.4
4641.588833612777,508944.2,-77.35117,70.4
10000.0,216804.3,-71.72696,70.4
