Frequency,Impedance,Phase Angle,Temperature (Dry Bath)
10.0,4770331.0,13.55304,70.8386
21.544346900318832,7261625.0,8.923232,70.8284
46.41588833612777,3897770.0,-21.87223,70.825
100.0,547219.2,-77.19922,70.8369
215.44346900318823,936665.7,13.40493,70.8358
464.15888336127773,954882.3,-146.39,70.8331
1000.0,653636.8,-73.06892,70.8392
2154.4346900318824,260824.6,-77.81464,70.8324
4641.588833612777,111119.3,-80.01168,70.8263
10000.0,60427.69,-82.54517,70.8398
