Frequency,Impedance,Phase Angle,Temperature (Dry Bath)
10.0,4008663.0,10.6284,66.5
21.544346900318832,4847149.0,5.91262,66.5
46.41588833612777,4736934.0,-0.06822674,66.5
100.0,3201290.0,-4.463669,66.5
215.44346900318823,6853749.0,49.33333,66.5
464.15888336127773,3572868.0,18.13464,66.5
1000.0,2852413.0,-49.97901,66.5
2154.4346900318824,2528325.0,-21.86099,66.5
4641.588833612777,2458249.0,30.33085,66.5
10000.0,2858326.0,-23.76568,66.5
