Frequency,Impedance,Phase Angle,Temperature (Dry Bath)
10.0,12345.48,-4.525176,67.1491
21.5,12041.32,-3.839835,67.1675
46.4,11747.63,-3.179106,67.1766
100.0,11632.1,-3.568523,67.1749
215.4,12694.6,-0.3103435,67.1649
464.2,11273.62,-3.518862,67.1488
1000.0,11003.15,-3.782224,67.181
2154.4,10815.44,-4.39035,67.165
4641.6,10551.51,-5.960475,67.16
10000.0,10262.85,-9.567786,67.1688
