Frequency,Impedance,Phase Angle,Temperature (Dry Bath)
10.0,28018930.0,-22.56031,67.506
21.5,27029560.0,-31.94038,67.5276
46.4,15471160.0,-52.37278,67.4979
100.0,15309320.0,34.07795,67.5176
215.4,9968420.0,-115.4176,67.4937
464.2,1888803.0,-77.06613,67.5127
1000.0,1020822.0,-77.09463,67.4986
2154.4,459311.1,-81.8419,67.502
4641.6,234687.6,-81.76224,67.511
10000.0,121404.4,-77.77897,67.5069
