Frequency,Impedance,Phase Angle,Temperature (Dry Bath)
10.0,14769.81,-19.4851,71.1448
21.544346900318832,12756.69,-16.69667,71.1505
46.41588833612777,11236.05,-14.54339,71.1572
100.0,10117.23,-11.72454,71.1545
215.44346900318823,9251.512,-11.85434,71.1536
464.15888336127773,8415.156,-10.3547,71.1454
1000.0,7969.225,-10.83803,71.1403
2154.4346900318824,7293.424,-9.393633,71.1396
4641.588833612777,6794.873,-10.85618,71.1397
10000.0,6368.969,-13.06574,71.1528
