Frequency,Impedance,Phase Angle,Temperature (Dry Bath)
10.0,4152012.0,1.254361,70.9881
21.544346900318832,9290273.0,-43.90056,71.0143
46.41588833612777,3498966.0,-30.76016,71.0191
100.0,1032868.0,-169.0503,71.0113
215.44346900318823,750703.8,11.74035,71.0136
464.15888336127773,482620.5,-89.14091,71.0075
1000.0,744772.1,-11.79333,71.0075
2154.4346900318824,336261.8,-69.28415,71.0115
4641.588833612777,148829.6,-95.51474,71.0083
10000.0,75576.15,-94.36051,70.9999
