Frequency,Impedance,Phase Angle,Temperature (Dry Bath)
10.0,6534680.0,16.48085,70.9364
21.544346900318832,7783184.0,6.302723,70.9354
46.41588833612777,5236062.0,-46.78593,70.9334
100.0,864964.8,-148.4707,70.9239
215.44346900318823,943345.7,-130.0653,70.9402
464.15888336127773,533591.1,-169.4203,70.9188
1000.0,402361.1,-105.0992,70.9224
2154.4346900318824,311301.3,-79.54331,70.9196
4641.588833612777,114680.9,-79.14949,70.9051
10000.0,54764.79,-85.82558,70.9058
