Frequency,Impedance,Phase Angle,Temperature (Dry Bath)
10.0,6283234.0,-21.43292,70.9235
21.544346900318832,4103815.0,-26.78719,70.9284
46.41588833612777,9365147.0,-7.721595,70.9179
100.0,670159.0,-111.0893,70.9113
215.44346900318823,1908555.0,88.62452,70.9133
464.15888336127773,434356.3,-61.74724,70.9124
1000.0,570198.2,-36.5834,70.9197
2154.4346900318824,461893.2,-55.59193,70.9142
4641.588833612777,252227.7,-41.65301,70.9135
10000.0,189078.4,-65.23909,70.9027
