Frequency,Impedance,Phase Angle,Temperature (Dry Bath)
10.0,1152269.0,-10.88635,68.1367
21.5,1044542.0,-9.604843,68.1367
46.4,942000.0,-10.81315,68.1367
100.0,825159.4,-11.2706,68.1367
215.4,785393.3,-14.7367,68.1367
464.2,699404.4,-16.10801,68.1367
1000.0,616394.4,-28.01705,68.1367
2154.4,503350.8,-40.23679,68.1367
4641.6,350438.9,-60.86764,68.1367
10000.0,185269.3,-83.42445,68.1367
