Frequency,Impedance,Phase Angle,Temperature (Dry Bath)
10.0,8448148.0,-0.8779099,65.6867
21.544346900318832,14572980.0,3.187257,65.6834
46.41588833612777,5697315.0,-9.906975,65.7015
100.0,1011539.0,-61.56348,65.6938
215.44346900318823,39969.92,-107.6597,65.6903
464.15888336127773,943419.6,-138.7544,65.6999
1000.0,514448.3,-100.9668,65.6757
2154.4346900318824,274417.7,-79.83917,65.6994
4641.588833612777,111134.2,-86.85254,65.7061
10000.0,66118.23,-82.12717,65.6997
