Frequency,Impedance,Phase Angle,Temperature (Dry Bath)
10.0,13083.46,-20.8263,71.2487
21.544346900318832,11166.83,-17.77057,71.2472
46.41588833612777,9738.912,-15.34879,71.2651
100.0,8848.912,-12.21332,71.2423
215.44346900318823,7943.821,-10.86959,71.2327
464.15888336127773,7329.08,-9.589834,71.2478
1000.0,6733.008,-8.324124,71.2269
2154.4346900318824,6319.045,-8.150198,71.2469
4641.588833612777,6022.558,-9.120863,71.2417
10000.0,5722.006,-10.6056,71.2315
