Frequency,Impedance,Phase Angle,Temperature (Dry Bath)
10.0,659908.7,-13.10537,67.9457
21.5,607321.1,-12.78475,67.9457
46.4,552818.9,-12.90599,67.9457
100.0,476003.6,-16.06088,67.9457
215.4,466192.0,-15.36235,67.9457
464.2,393597.4,-21.36235,67.9457
1000.0,337261.5,-26.9339,67.9457
2154.4,275985.4,-33.51427,67.9457
4641.6,206437.4,-47.27148,67.9457
10000.0,133586.5,-66.76028,67.9457
