Frequency,Impedance,Phase Angle,Temperature (Dry Bath)
10.0,38437300.0,-10.82082,67.2092
21.5,28842390.0,-34.95837,67.2239
46.4,24638470.0,-18.672,67.2211
100.0,5455158.0,-16.54036,67.2288
215.4,238293.6,35.88924,67.2199
464.2,2128851.0,-88.27904,67.228
1000.0,1260242.0,-92.18274,67.2226
2154.4,584771.8,-88.62611,67.2282
4641.6,270457.1,-82.89608,67.1938
10000.0,131654.7,-86.48581,67.1954
