Frequency,Impedance,Phase Angle,Temperature (Dry Bath)
10.0,36939580.0,-44.97621,67.061
21.5,30551670.0,-54.4865,67.0686
46.4,13295690.0,-59.21689,67.0855
100.0,2557053.0,-15.13379,67.0694
215.4,2438738.0,-90.72429,67.0943
464.2,1544913.0,-80.13396,67.0701
1000.0,799541.6,-80.92973,67.0913
2154.4,445630.6,-79.91906,67.0749
4641.6,218186.5,-83.10242,67.0861
10000.0,108222.9,-84.12584,67.0771
