Frequency,Impedance,Phase Angle,Temperature (Dry Bath)
10.0,7963309.0,-0.9025675,71.4805
21.544346900318832,4119894.0,-14.75649,71.4791
46.41588833612777,3575492.0,-42.93805,71.4798
100.0,483350.8,-14.91679,71.4631
215.44346900318823,393486.8,-86.08754,71.4531
464.15888336127773,597236.0,-73.92092,71.4611
1000.0,231824.3,-94.51398,71.4578
2154.4346900318824,226418.8,-92.91061,71.4567
4641.588833612777,94968.52,-82.17304,71.4528
10000.0,57734.02,-90.85272,71.4396
