Frequency,Impedance,Phase Angle,Temperature (Dry Bath)
10.0,8120875.0,0.5810831,71.3622
21.544346900318832,4984688.0,-10.17304,71.3525
46.41588833612777,5159008.0,-28.06978,71.3552
100.0,282002.8,-19.82919,71.3558
215.44346900318823,39221.09,71.59331,71.3648
464.15888336127773,849351.0,-78.24655,71.3646
1000.0,668629.8,-52.5082,71.3669
2154.4346900318824,209108.7,-81.58905,71.3629
4641.588833612777,128795.4,-81.9449,71.3819
10000.0,49925.27,-87.30693,71.3742
