Frequency,Impedance,Phase Angle,Temperature (Dry Bath)
10.0,8037316.0,-11.47103,68.1656
21.5,9081630.0,-19.62749,68.1803
46.4,8933060.0,-30.68045,68.1633
100.0,2874307.0,-39.14327,68.1803
215.4,3108896.0,-77.70748,68.1718
464.2,1417907.0,-74.94988,68.1657
1000.0,835111.2,-79.08058,68.1584
2154.4,422834.9,-85.44697,68.1583
4641.6,223235.2,-79.67728,68.1638
10000.0,110187.4,-90.63329,68.1726
