Frequency,Impedance,Phase Angle,Temperature (Dry Bath)
10.0,5819304.0,16.11302,70.4
21.544346900318832,9159302.0,10.92589,70.4
46.41588833612777,7386555.0,-10.76172,70.4
100.0,3423335.0,14.61175,70.4
215.44346900318823,2803446.0,1.18158,70.4
464.15888336127773,5556886.0,6.360374,70.4
1000.0,3562060.0,-59.73117,70.4
2154.4346900318824,5589102.0,-40.68033,70.4
4641.588833612777,3388502.0,10.75632,70.4
10000.0,3993333.0,-15.34285,70.4
