Frequency,Impedance,Phase Angle,Temperature (Dry Bath)
10.0,1499153.0,-8.469022,67.3779
21.5,1399283.0,-9.777209,67.3742
46.4,1317620.0,-12.13311,67.3881
100.0,942733.3,-20.03447,67.3881
215.4,1516420.0,17.45323,67.3779
464.2,885933.5,-43.6868,67.3635
1000.0,656391.8,-54.38922,67.3716
2154.4,385003.4,-61.63536,67.3582
4641.6,204112.4,-70.22304,67.3713
10000.0,101267.8,-75.86623,67.3709
