Frequency,Impedance,Phase Angle,Temperature (Dry Bath)
10.0,7085848.0,-11.37573,67.8906
21.5,5994792.0,-19.79389,67.9018
46.4,7545523.0,-24.41813,67.8861
100.0,3601904.0,-38.21521,67.8933
215.4,3558176.0,-53.1889,67.9054
464.2,2192401.0,-73.97958,67.9043
1000.0,860118.9,-78.68493,67.9013
2154.4,436579.7,-80.27615,67.915
4641.6,202065.4,-80.00354,67.9323
10000.0,119890.7,-83.91112,67.9391
