Frequency,Impedance,Phase Angle,Temperature (Dry Bath)
10.0,3407584.0,-12.67377,68.0107
21.5,3555269.0,-13.94734,68.0152
46.4,3619669.0,-18.66248,68.0121
100.0,3020695.0,-21.32625,68.0115
215.4,1899170.0,-41.64112,68.012
464.2,1522643.0,-61.37904,68.0184
1000.0,736624.2,-65.4858,68.0184
2154.4,411980.3,-75.52983,68.0131
4641.6,209521.1,-75.74282,68.0259
10000.0,109594.6,-87.10368,68.0203
