Frequency,Impedance,Phase Angle,Temperature (Dry Bath)
10.0,72508.9,-28.21102,71.3132
21.544346900318832,57473.14,-26.75471,71.3174
46.41588833612777,46293.97,-24.81895,71.3227
100.0,39903.7,-22.65089,71.3127
215.44346900318823,32248.33,-21.62322,71.3047
464.15888336127773,27953.82,-18.59502,71.3168
1000.0,23014.39,-16.91778,71.3211
2154.4346900318824,20186.1,-16.37009,71.3353
4641.588833612777,18746.31,-17.13578,71.3195
10000.0,16828.88,-17.73222,71.3274
