Frequency,Impedance,Phase Angle,Temperature (Dry Bath)
10.0,29365090.0,-29.55085,67.3145
21.5,19705330.0,-41.89127,67.3187
46.4,23147050.0,-21.07866,67.3054
100.0,3326683.0,6.240184,67.3077
215.4,180273.0,96.3442,67.3022
464.2,1371107.0,-85.49359,67.2923
1000.0,712329.1,-82.69155,67.3086
2154.4,399011.8,-80.09012,67.285
4641.6,221058.7,-75.63048,67.2992
10000.0,115417.8,-79.98161,67.2794
