Frequency,Impedance,Phase Angle,Temperature (Dry Bath)
10.0,12373.48,-8.602194,67.4886
21.5,11810.96,-4.996795,67.4905
46.4,11637.03,-4.821876,67.485
100.0,11541.95,-5.282778,67.4832
215.4,11444.77,-5.946076,67.487
464.2,11320.68,-6.068858,67.4932
1000.0,10950.34,-5.81031,67.4905
2154.4,10589.49,-5.886208,67.4722
4641.6,10267.66,-6.74708,67.4804
10000.0,9929.33,-9.534835,67.5
