Frequency,Impedance,Phase Angle,Temperature (Dry Bath)
10.0,26215040.0,-27.43269,67.2622
21.5,24048060.0,-50.41994,67.2526
46.4,13621900.0,-63.34775,67.2591
100.0,2971717.0,-2.706225,67.2632
215.4,4065509.0,-3.003802,67.2557
464.2,1953261.0,-91.43835,67.2795
1000.0,936076.1,-76.80835,67.2586
2154.4,517436.8,-77.70256,67.2593
4641.6,237928.4,-82.65378,67.2542
10000.0,117641.2,-81.81348,67.265
