Frequency,Impedance,Phase Angle,Temperature (Dry Bath)
10.0,9404373.0,-7.378915,71.3657
21.544346900318832,3567480.0,11.20164,71.364
46.41588833612777,4386531.0,-1.030597,71.3639
100.0,794497.9,-35.18186,71.3479
215.44346900318823,6899136.0,-64.01031,71.3532
464.15888336127773,910248.5,-36.01995,71.3476
1000.0,3172414.0,110.0902,71.3516
2154.4346900318824,613589.3,-64.99228,71.3624
4641.588833612777,244843.8,-70.64427,71.3556
10000.0,137418.3,-82.52605,71.3514
