Frequency,Impedance,Phase Angle,Temperature (Dry Bath)
10.0,18760470.0,-5.795132,68.1176
21.5,21523310.0,-29.16711,68.141
46.4,13326480.0,-52.95234,68.1201
100.0,11957460.0,-46.532,68.1404
215.4,3918468.0,-58.41389,68.146
464.2,1550273.0,-71.7291,68.1293
1000.0,905324.7,-84.20299,68.1249
2154.4,467687.2,-82.78875,68.1429
4641.6,224293.4,-84.67025,68.1301
10000.0,111289.4,-91.33411,68.1436
