Frequency,Impedance,Phase Angle,Temperature (Dry Bath)
10.0,260987.2,-5.633823,67.0312
21.5,252258.4,-5.603623,67.0306
46.4,243995.2,-6.068077,67.0397
100.0,249070.4,-11.75709,67.0399
215.4,234299.4,-9.162099,67.0363
464.2,214763.4,-14.5503,67.0288
1000.0,186535.8,-23.68151,67.0345
2154.4,155471.1,-37.75586,67.0485
4641.6,102118.1,-50.37705,67.0295
10000.0,60907.52,-60.68984,67.0344
