Frequency,Impedance,Phase Angle,Temperature (Dry Bath)
10.0,22730040.0,-6.237704,67.7006
21.5,30502250.0,-51.74995,67.6993
46.4,21271990.0,-57.92256,67.7055
100.0,5212276.0,-92.11031,67.6946
215.4,4030357.0,-63.26077,67.7247
464.2,1792977.0,-69.26293,67.6973
1000.0,935102.4,-66.92886,67.695
2154.4,511976.0,-75.43672,67.7123
4641.6,277459.8,-85.27671,67.7097
10000.0,130103.6,-87.66049,67.6944
