Frequency,Impedance,Phase Angle,Temperature (Dry Bath)
10.0,19463.02,-18.69739,68.186
21.5,16870.1,-15.38142,68.1811
46.4,15185.51,-12.24999,68.1641
100.0,13738.81,-8.926345,68.1793
215.4,13108.28,-7.237702,68.1755
464.2,12349.26,-7.25322,68.1636
1000.0,11941.37,-4.964407,68.1672
2154.4,11490.27,-5.81134,68.1919
4641.6,11205.93,-7.454231,68.1576
10000.0,10941.38,-11.16734,68.1853
