Frequency,Impedance,Phase Angle,Temperature (Dry Bath)
10.0,28948550.0,-31.10508,66.9717
21.5,34382030.0,-24.69933,66.9925
46.4,17129940.0,-44.61996,66.9748
100.0,4583374.0,-33.6964,66.976
215.4,4151930.0,-104.6101,66.9806
464.2,2689610.0,-57.33428,66.9686
1000.0,1252366.0,-84.29628,66.9765
2154.4,604507.3,-88.54337,66.9814
4641.6,268661.9,-86.26246,66.9771
10000.0,129833.0,-86.81347,66.9854
