Frequency,Impedance,Phase Angle,Temperature (Dry Bath)
10.0,26751110.0,-29.09897,67.2844
21.5,16633080.0,-46.25569,67.2647
46.4,13424990.0,-77.31541,67.2858
100.0,18852950.0,-84.88059,67.2735
215.4,1222958.0,-43.03113,67.269
464.2,1973128.0,-81.23245,67.2769
1000.0,867393.3,-79.78464,67.2671
2154.4,455224.8,-84.37019,67.269
4641.6,234636.1,-82.51887,67.2671
10000.0,112579.7,-84.06385,67.297
