Frequency,Impedance,Phase Angle,Temperature (Dry Bath)
10.0,139380.7,-5.795632,67.1483
21.5,133753.2,-4.92138,67.1557
46.4,130142.3,-4.686559,67.1321
100.0,124623.0,-4.363636,67.1483
215.4,157535.8,-4.832042,67.1493
464.2,118616.8,-8.903184,67.1493
1000.0,111744.3,-12.07972,67.1478
2154.4,102466.8,-20.11,67.1535
4641.6,87647.66,-34.18,67.1449
10000.0,61206.21,-51.62878,67.1513
