Frequency,Impedance,Phase Angle,Temperature (Dry Bath)
10.0,32528760.0,-13.8262,67.1681
21.5,24566790.0,-36.0945,67.1881
46.4,17449740.0,-64.08628,67.1921
100.0,47943290.0,14.59628,67.1718
215.4,274414.8,-34.24632,67.1763
464.2,2036072.0,-82.83504,67.1859
1000.0,886915.4,-80.02124,67.156
2154.4,486797.7,-85.53177,67.1739
4641.6,237920.1,-79.6203,67.1738
10000.0,125674.8,-79.11044,67.1738
