Frequency,Impedance,Phase Angle,Temperature (Dry Bath)
10.0,12352.61,-21.24496,71.0218
21.544346900318832,10609.68,-17.79518,71.0161
46.41588833612777,9307.026,-15.32975,70.9952
100.0,8302.251,-13.33735,70.9994
215.44346900318823,7505.817,-11.31674,71.0126
464.15888336127773,6804.609,-10.25208,71.0138
1000.0,6346.558,-9.864232,71.0083
2154.4346900318824,5999.749,-8.437908,71.0216
4641.588833612777,5567.858,-8.905119,71.0168
10000.0,5335.88,-10.47597,71.0113
