Frequency,Impedance,Phase Angle,Temperature (Dry Bath)
10.0,26765020.0,-24.82521,67.9687
21.5,64574310.0,-36.11201,67.9699
46.4,23524020.0,-54.00476,67.9888
100.0,8221430.0,-38.19648,67.9911
215.4,5244959.0,-73.0714,67.9805
464.2,2113728.0,-85.79932,67.9966
1000.0,1077663.0,-81.87113,67.9995
2154.4,568502.4,-81.32918,67.9928
4641.6,274330.8,-75.69023,67.9963
10000.0,144942.9,-84.09787,67.9973
