Frequency,Impedance,Phase Angle,Temperature (Dry Bath)
10.0,30255160.0,-5.685375,67.1307
21.5,24454770.0,-42.92822,67.1217
46.4,14344160.0,-63.11074,67.1523
100.0,11648920.0,-66.59487,67.1334
215.4,2651840.0,-58.17943,67.1382
464.2,2054162.0,-82.68142,67.1264
1000.0,866692.5,-77.55543,67.1503
2154.4,421668.6,-80.70488,67.1436
4641.6,217714.4,-80.29621,67.1403
10000.0,109383.3,-83.18634,67.1319
