Frequency,Impedance,Phase Angle,Temperature (Dry Bath)
10.0,153866.3,-6.260583,68.3373
21.5,147858.1,-5.369108,68.3435
46.4,143025.7,-4.827579,68.3423
100.0,137811.6,-5.454534,68.3263
215.4,135154.6,-5.27234,68.3429
464.2,127412.7,-8.260912,68.3249
1000.0,122868.8,-12.19755,68.3309
2154.4,112740.2,-20.3041,68.3305
4641.6,98340.8,-33.0987,68.3174
10000.0,69406.63,-50.77244,68.3374
