Frequency,Impedance,Phase Angle,Temperature (Dry Bath)
10.0,12135.89,-4.278772,67.2872
21.5,11728.41,-3.753004,67.2863
46.4,11441.68,-3.086148,67.2794
100.0,11333.01,-3.291417,67.2527
215.4,10759.87,-4.470794,67.2762
464.2,11005.96,-3.373341,67.2764
1000.0,10732.25,-3.510504,67.2856
2154.4,10525.81,-4.070965,67.2896
4641.6,10333.18,-5.730968,67.2968
10000.0,10047.17,-9.266904,67.2545
