Frequency,Impedance,Phase Angle,Temperature (Dry Bath)
10.0,36904970.0,-14.59886,67.1239
21.5,27514230.0,-47.98281,67.1141
46.4,13817780.0,-58.56344,67.1247
100.0,3390304.0,-49.31062,67.1098
215.4,3922264.0,-98.39728,67.0977
464.2,1854497.0,-92.49688,67.1127
1000.0,820616.1,-79.44454,67.1082
2154.4,459761.1,-83.63995,67.0987
4641.6,219613.7,-83.08323,67.1166
10000.0,108807.5,-84.35425,67.1023
