Frequency,Impedance,Phase Angle,Temperature (Dry Bath)
10.0,24229610.0,-9.426593,68.2796
21.5,19489480.0,-18.48035,68.2796
46.4,16222140.0,-42.80717,68.2796
100.0,8231855.0,-9.535557,68.2796
215.4,4916581.0,-46.80974,68.2796
464.2,3065114.0,-55.72192,68.2796
1000.0,1410129.0,-88.0395,68.2796
2154.4,713046.4,-89.55161,68.2796
4641.6,345496.1,-91.32871,68.2796
10000.0,150016.7,-100.4067,68.2796
