Frequency,Impedance,Phase Angle,Temperature (Dry Bath)
10.0,51693920.0,-21.68776,68.181
21.5,31837820.0,-49.76113,68.1859
46.4,10061610.0,-55.6412,68.1783
100.0,29414530.0,-100.4242,68.1846
215.4,4523192.0,-77.95999,68.1683
464.2,1884171.0,-76.03625,68.2073
1000.0,1103200.0,-87.68117,68.175
2154.4,490202.3,-81.41126,68.1841
4641.6,268419.3,-86.18983,68.1819
10000.0,124226.7,-94.71466,68.1892
