Frequency,Impedance,Phase Angle,Temperature (Dry Bath)
10.0,1114878.0,-11.95673,67.8949
21.5,1039630.0,-11.09501,67.8928
46.4,996059.6,-12.21241,67.8946
100.0,919431.8,-17.11254,67.8906
215.4,818678.7,-18.737,67.8903
464.2,729635.5,-23.66516,67.9026
1000.0,524585.2,-36.59122,67.895
2154.4,399251.4,-45.32894,67.8936
4641.6,247381.0,-55.72404,67.9094
10000.0,143490.7,-77.25036,67.8947
