Frequency,Impedance,Phase Angle,Temperature (Dry Bath)
10.0,28130190.0,0.5847194,67.3822
21.5,24724650.0,-21.81458,67.4094
46.4,16758490.0,-47.529,67.4125
100.0,10434840.0,-42.80187,67.4106
215.4,327106.8,12.69275,67.3993
464.2,3578267.0,-98.47841,67.4119
1000.0,1178368.0,-95.61582,67.4058
2154.4,593675.8,-92.10565,67.4146
4641.6,282995.3,-83.64623,67.4112
10000.0,130075.8,-86.28395,67.4089
