Frequency,Impedance,Phase Angle,Temperature (Dry Bath)
10.0,263079.1,-24.94752,71.2832
21.544346900318832,212684.2,-21.57247,71.2965
46.41588833612777,182587.6,-19.16322,71.2884
100.0,156027.9,-26.31536,71.2777
215.44346900318823,118298.8,-7.54898,71.2949
464.15888336127773,113421.7,-23.89739,71.281
1000.0,104120.6,-20.50176,71.2872
2154.4346900318824,76851.42,-32.14073,71.2891
4641.588833612777,58329.95,-51.48556,71.2849
10000.0,42888.74,-60.42438,71.2832
