Frequency,Impedance,Phase Angle,Temperature (Dry Bath)
10.0,153910.6,-15.11404,71.2105
21.544346900318832,139145.5,-14.01974,71.2256
46.41588833612777,123146.1,-12.54146,71.2231
100.0,128509.0,-13.31406,71.2364
215.44346900318823,101328.6,-9.428843,71.2101
464.15888336127773,88468.0,-4.162521,71.2233
1000.0,85507.19,-18.26264,71.2383
2154.4346900318824,82223.74,-19.57017,71.214
4641.588833612777,63567.55,-26.21652,71.2339
10000.0,52515.79,-32.38633,71.2349
