Frequency,Impedance,Phase Angle,Temperature (Dry Bath)
10.0,19028360.0,-23.64115,67.9677
21.5,25939770.0,-44.30423,67.9677
46.4,22468740.0,-57.60295,67.9677
100.0,8084224.0,-60.56294,67.9677
215.4,3405262.0,-84.48389,67.9677
464.2,2663796.0,-76.4212,67.9677
1000.0,988344.3,-88.16883,67.9677
2154.4,464081.0,-83.71521,67.9677
4641.6,262608.9,-83.58099,67.9677
10000.0,124562.2,-90.65893,67.9677
