Frequency,Impedance,Phase Angle,Temperature (Dry Bath)
10.0,155474.3,-6.265224,68.0876
21.5,149977.8,-5.043551,68.1014
46.4,144791.9,-4.783448,68.0976
100.0,137813.9,-5.331192,68.0857
215.4,136109.2,-6.038908,68.0911
464.2,130524.7,-8.465187,68.0987
1000.0,125353.1,-11.64389,68.091
2154.4,114794.0,-21.8043,68.1044
4641.6,99727.26,-33.11445,68.1069
10000.0,71005.97,-55.60057,68.0923
