Frequency,Impedance,Phase Angle,Temperature (Dry Bath)
10.0,31973370.0,-24.51181,68.0536
21.5,29973980.0,-28.43117,68.0715
46.4,23523880.0,-54.31488,68.0547
100.0,9183412.0,-31.68637,68.0544
215.4,2874381.0,-75.41791,68.0554
464.2,1970286.0,-75.92331,68.0566
1000.0,1015076.0,-71.71605,68.0686
2154.4,501774.1,-81.14125,68.0562
4641.6,253860.0,-89.15876,68.0615
10000.0,124481.8,-93.01222,68.0634
