Frequency,Impedance,Phase Angle,Temperature (Dry Bath)
10.0,22260.85,-21.56365,65.8285
21.544346900318832,18752.17,-18.56329,65.834
46.41588833612777,16231.22,-15.27184,65.8371
100.0,14453.97,-12.2363,65.864
215.44346900318823,13268.59,-10.49914,65.8408
464.15888336127773,12475.65,-8.216027,65.8395
1000.0,12013.05,-7.832863,65.852
2154.4346900318824,11358.8,-7.259814,65.8378
4641.588833612777,10671.04,-8.909211,65.8427
10000.0,10292.84,-14.75022,65.8351
