Frequency,Impedance,Phase Angle,Temperature (Dry Bath)
10.0,126709.2,-25.17282,67.3866
21.5,104854.8,-22.28526,67.3988
46.4,90101.94,-19.28945,67.3785
100.0,79473.74,-16.93989,67.3861
215.4,70533.59,-15.54909,67.382
464.2,65634.11,-13.86973,67.3961
1000.0,59658.23,-15.62057,67.3901
2154.4,53565.95,-17.80495,67.3801
4641.6,47431.28,-23.96637,67.3895
10000.0,39573.64,-34.56396,67.3904
