Frequency,Impedance,Phase Angle,Temperature (Dry Bath)
10.0,156307.0,-9.165756,65.8177
21.544346900318832,146879.3,-8.285427,65.8349
46.41588833612777,138551.8,-7.498126,65.8337
100.0,106582.0,-11.85492,65.8479
215.44346900318823,116884.2,-8.825569,65.8225
464.15888336127773,129255.7,-11.42243,65.8317
1000.0,125625.0,-10.65308,65.8206
2154.4346900318824,107852.0,-28.32741,65.8262
4641.588833612777,71492.9,-32.28691,65.8318
10000.0,46436.88,-62.75338,65.8272
