Frequency,Impedance,Phase Angle,Temperature (Dry Bath)
10.0,33549420.0,-26.21124,67.1664
21.5,24682140.0,-23.70578,67.1642
46.4,14589370.0,-45.96177,67.1524
100.0,3129691.0,-16.86588,67.1565
215.4,201773.2,-89.51019,67.1831
464.2,2127588.0,-96.04476,67.1592
1000.0,852485.2,-79.41897,67.1638
2154.4,487393.5,-78.50699,67.155
4641.6,249857.2,-82.22395,67.1675
10000.0,123351.4,-77.91335,67.1467
