Frequency,Impedance,Phase Angle,Temperature (Dry Bath)
10.0,39027.62,-30.32256,71.2492
21.544346900318832,30177.53,-28.7433,71.2218
46.41588833612777,23641.57,-27.03123,71.2427
100.0,18519.62,-23.09974,71.2396
215.44346900318823,16044.85,-21.60219,71.236
464.15888336127773,12960.44,-19.9892,71.2429
1000.0,11347.72,-15.67087,71.2376
2154.4346900318824,10062.82,-14.0706,71.2401
4641.588833612777,8994.555,-12.40238,71.2491
10000.0,8138.235,-16.91777,71.2545
