Frequency,Impedance,Phase Angle,Temperature (Dry Bath)
10.0,15607.42,-25.55162,71.296
21.544346900318832,12646.11,-23.70552,71.2782
46.41588833612777,10409.01,-21.61981,71.2823
100.0,8588.252,-18.62221,71.2732
215.44346900318823,7538.566,-16.14098,71.2789
464.15888336127773,6643.034,-14.20492,71.2612
1000.0,5903.479,-11.77053,71.2549
2154.4346900318824,5447.078,-9.643913,71.2717
4641.588833612777,5133.273,-8.948088,71.2806
10000.0,4852.756,-8.840138,71.2585
