Frequency,Impedance,Phase Angle,Temperature (Dry Bath)
10.0,21210680.0,-14.62683,68.0638
21.5,17343010.0,-37.7197,68.0485
46.4,11889210.0,-57.4761,68.0429
100.0,8738522.0,-55.67587,68.0529
215.4,3862399.0,-50.31806,68.0442
464.2,1670109.0,-92.35488,68.0464
1000.0,1087795.0,-82.85304,68.0705
2154.4,517556.3,-87.26589,68.0323
4641.6,245430.5,-83.98507,68.0545
10000.0,122111.4,-95.78092,68.0447
