Frequency,Impedance,Phase Angle,Temperature (Dry Bath)
10.0,19389.62,-18.44669,68.1428
21.5,16896.69,-15.10651,68.152
46.4,15215.37,-12.07671,68.1442
100.0,13730.47,-9.182844,68.1388
215.4,13100.05,-7.22735,68.1488
464.2,12510.97,-5.399396,68.1513
1000.0,11982.39,-5.561473,68.1618
2154.4,11705.38,-5.637469,68.1819
4641.6,11601.35,-7.578633,68.163
10000.0,11004.09,-12.46062,68.1636
