Frequency,Impedance,Phase Angle,Temperature (Dry Bath)
10.0,8421482.0,-7.555494,65.8769
21.544346900318832,3809215.0,6.783419,65.8701
46.41588833612777,4205101.0,-24.33312,65.8571
100.0,611667.7,34.88903,65.8796
215.44346900318823,8169.747,46.96843,65.8592
464.15888336127773,958262.3,-74.32082,65.8686
1000.0,335455.8,-76.67641,65.8561
2154.4346900318824,228390.3,-93.97264,65.8459
4641.588833612777,138237.8,-81.53472,65.8485
10000.0,63442.5,-83.07618,65.8585
