Frequency,Impedance,Phase Angle,Temperature (Dry Bath)
10.0,124399.8,-25.14684,67.5309
21.5,104918.2,-22.15771,67.5475
46.4,91042.2,-19.14023,67.5377
100.0,78208.54,-16.06702,67.5441
215.4,171273.1,20.60379,67.5385
464.2,66521.93,-14.20749,67.5368
1000.0,60113.27,-14.28902,67.5321
2154.4,53833.8,-17.54562,67.543
4641.6,47583.64,-23.67081,67.5447
10000.0,39502.22,-34.53803,67.5243
