Frequency,Impedance,Phase Angle,Temperature (Dry Bath)
10.0,30111690.0,-14.08,67.1651
21.5,24611200.0,-31.34069,67.1687
46.4,14421110.0,-61.36987,67.1591
100.0,9101484.0,-107.3991,67.1604
215.4,2147554.0,-87.54346,67.1547
464.2,2159635.0,-79.69685,67.1594
1000.0,963263.4,-77.30784,67.169
2154.4,482941.0,-82.83852,67.1465
4641.6,224946.9,-80.48605,67.1691
10000.0,119486.7,-78.89435,67.1807
