Frequency,Impedance,Phase Angle,Temperature (Dry Bath)
10.0,1094589.0,-10.23843,68.3157
21.5,1004654.0,-10.04948,68.3157
46.4,911551.6,-11.32012,68.3157
100.0,731435.7,-13.69265,68.3157
215.4,747324.6,-18.09259,68.3157
464.2,659573.9,-18.34107,68.3157
1000.0,575015.5,-28.67253,68.3157
2154.4,475694.9,-41.41111,68.3157
4641.6,331879.0,-64.9275,68.3157
10000.0,199123.3,-82.61957,68.3157
