Frequency,Impedance,Phase Angle,Temperature (Dry Bath)
10.0,6736958.0,2.614466,71.425
21.544346900318832,4488728.0,-23.82466,71.408
46.41588833612777,6178258.0,-31.88173,71.4116
100.0,801732.0,137.3379,71.4071
215.44346900318823,658008.4,13.90044,71.4166
464.15888336127773,1006549.0,-77.8533,71.4071
1000.0,623687.2,-116.609,71.398
2154.4346900318824,312659.3,-81.32448,71.4313
4641.588833612777,130413.3,-78.30187,71.4021
10000.0,62083.09,-87.1496,71.4225
