Frequency,Impedance,Phase Angle,Temperature (Dry Bath)
10.0,19321770.0,-14.29127,67.1972
21.5,21994410.0,-41.23607,67.2264
46.4,21620540.0,-31.95747,67.1879
100.0,2946801.0,-48.60225,67.2093
215.4,275197.5,27.88259,67.2118
464.2,1430509.0,-82.7795,67.2201
1000.0,912464.7,-78.35755,67.1935
2154.4,441280.3,-82.06825,67.2026
4641.6,236671.6,-80.36522,67.2076
10000.0,113879.1,-83.27782,67.2031
