Frequency,Impedance,Phase Angle,Temperature (Dry Bath)
10.0,2386871.0,-10.22169,67.3529
21.5,2208433.0,-11.33498,67.393
46.4,1977770.0,-7.567872,67.3683
100.0,3344219.0,4.199617,67.3914
215.4,183363.8,-51.74922,67.3953
464.2,931463.4,-50.11308,67.3977
1000.0,671044.4,-57.90022,67.3822
2154.4,371116.3,-68.54509,67.3853
4641.6,207712.4,-71.59831,67.3991
10000.0,108566.3,-73.04246,67.4117
