Frequency,Impedance,Phase Angle,Temperature (Dry Bath)
10.0,26884.48,-21.48235,72.2238
21.544346900318832,22312.26,-22.73264,72.2184
46.41588833612777,18240.24,-23.95586,72.2223
100.0,14534.11,-28.76979,72.2223
215.44346900318823,12041.28,-25.91124,72.2204
464.15888336127773,9475.115,-25.94381,72.2231
1000.0,7672.95,-26.9849,72.215
2154.4346900318824,5892.631,-26.22649,72.2216
4641.588833612777,4803.687,-23.82872,72.2184
10000.0,3980.335,-21.26988,72.2104
