Frequency,Impedance,Phase Angle,Temperature (Dry Bath)
10.0,148524.7,-9.840679,71.266
21.544346900318832,139963.7,-9.678497,71.3029
46.41588833612777,131541.4,-8.497307,71.2598
100.0,105399.7,-8.24143,71.2588
215.44346900318823,108220.2,-26.16102,71.2743
464.15888336127773,113546.0,-13.57749,71.2649
1000.0,102869.8,-10.80088,71.2583
2154.4346900318824,92384.89,-25.29425,71.3014
4641.588833612777,77138.31,-46.24795,71.2713
10000.0,40944.8,-65.74904,71.2589
