Frequency,Impedance,Phase Angle,Temperature (Dry Bath)
10.0,156392.6,-6.221831,68.0054
21.5,150226.8,-5.293503,68.02
46.4,145740.4,-4.881395,68.033
100.0,142961.6,-4.476056,68.0059
215.4,140643.9,-5.244422,68.0127
464.2,130732.1,-6.624974,68.0115
1000.0,121919.4,-11.91588,68.0201
2154.4,119519.0,-22.05031,68.0176
4641.6,100492.1,-35.69736,68.0319
10000.0,69740.1,-54.55962,68.0039
