Frequency,Impedance,Phase Angle,Temperature (Dry Bath)
10.0,2479801.0,-9.770612,68.0473
21.5,2304036.0,-12.09971,68.0473
46.4,2174491.0,-14.53425,68.0473
100.0,1853057.0,-22.78468,68.0473
215.4,1896632.0,-29.49531,68.0473
464.2,1520782.0,-47.09344,68.0473
1000.0,863793.8,-52.12341,68.0473
2154.4,530638.4,-64.7664,68.0473
4641.6,280832.5,-75.18634,68.0473
10000.0,149995.3,-85.34348,68.0473
