Frequency,Impedance,Phase Angle,Temperature (Dry Bath)
10.0,199535.7,-15.1963,29.9617
21.544346900318832,178653.5,-15.02717,29.5973
46.41588833612777,157638.6,-14.04951,29.7268
100.0,138756.0,-23.60075,30.0819
215.44346900318823,123269.4,-18.05919,29.4405
464.15888336127773,121952.1,-21.62684,29.6743
1000.0,99658.6,-21.52796,29.5698
2154.4346900318824,91619.85,-18.7766,29.5915
4641.588833612777,82015.24,-27.20721,29.6447
10000.0,63842.27,-44.96521,29.5096
