Frequency,Impedance,Phase Angle,Temperature (Dry Bath)
10.0,1793282.0,-8.646875,68.0326
21.5,1661302.0,-11.07358,68.0326
46.4,1506118.0,-11.43594,68.0326
100.0,1265844.0,-11.31394,68.0326
215.4,1320777.0,-22.27132,68.0326
464.2,1112966.0,-27.21591,68.0326
1000.0,816558.0,-50.80015,68.0326
2154.4,491018.6,-62.31166,68.0326
4641.6,246768.9,-74.59261,68.0326
10000.0,139619.5,-89.22896,68.0326
