Frequency,Impedance,Phase Angle,Temperature (Dry Bath)
10.0,4951121.0,3.424307,66.2712
21.544346900318832,6189005.0,-20.62072,66.2779
46.41588833612777,5455168.0,-23.56857,66.2661
100.0,1843493.0,53.84341,66.2633
215.44346900318823,898895.0,136.8694,66.2718
464.15888336127773,1366521.0,-34.09267,66.2797
1000.0,869401.0,-60.13556,66.2861
2154.4346900318824,317597.4,-93.38398,66.2878
4641.588833612777,131827.8,-90.61318,66.2663
10000.0,74622.29,-88.46916,66.2751
