Frequency,Impedance,Phase Angle,Temperature (Dry Bath)
10.0,136999.1,-25.55841,67.0483
21.5,111580.8,-22.42001,67.0646
46.4,96408.0,-19.20016,67.0643
100.0,84847.79,-16.88339,67.053
215.4,76205.99,-12.82261,67.0586
464.2,69764.99,-14.28893,67.0404
1000.0,61708.94,-15.08563,67.0414
2154.4,57466.25,-18.74816,67.0272
4641.6,49268.53,-25.26478,67.043
10000.0,39561.63,-38.11207,67.0566
