Frequency,Impedance,Phase Angle,Temperature (Dry Bath)
10.0,32785320.0,-11.46736,67.2628
21.5,21887080.0,-31.3383,67.2653
46.4,18907710.0,-49.3706,67.2715
100.0,5483693.0,-144.1654,67.2657
215.4,3910436.0,-88.97147,67.2753
464.2,2431265.0,-77.40772,67.2699
1000.0,1004168.0,-82.73729,67.2518
2154.4,471516.0,-88.48827,67.259
4641.6,223812.5,-80.12385,67.2676
10000.0,115814.3,-80.38355,67.2695
