Frequency,Impedance,Phase Angle,Temperature (Dry Bath)
10.0,6366422.0,-9.411445,67.9655
21.5,7373762.0,-18.20745,67.9462
46.4,7641261.0,-26.8504,67.931
100.0,4349278.0,-30.27324,67.934
215.4,3492219.0,-71.60344,67.9498
464.2,1706522.0,-60.32611,67.9294
1000.0,896978.9,-74.88671,67.9636
2154.4,428326.9,-79.84725,67.9457
4641.6,219161.5,-81.77984,67.9379
10000.0,113482.9,-92.46961,67.9726
