Frequency,Impedance,Phase Angle,Temperature (Dry Bath)
10.0,42208520.0,-15.60344,67.1064
21.5,29287590.0,-39.05355,67.112
46.4,22032370.0,-48.13551,67.1065
100.0,4557121.0,-45.4712,67.1054
215.4,3706897.0,-73.56719,67.119
464.2,2859752.0,-75.8519,67.1136
1000.0,1330595.0,-82.57483,67.1086
2154.4,626048.9,-90.33238,67.1234
4641.6,273847.6,-85.86268,67.11
10000.0,132443.7,-87.77091,67.1088
