Frequency,Impedance,Phase Angle,Temperature (Dry Bath)
10.0,21739100.0,-32.98261,68.0201
21.5,30009170.0,-50.29708,68.0086
46.4,20836490.0,-58.29095,68.016
100.0,4622539.0,-10.6098,68.0088
215.4,3069963.0,-75.63693,68.0159
464.2,2275847.0,-85.83324,68.0294
1000.0,929372.9,-75.288,68.0147
2154.4,497006.9,-78.30703,68.0173
4641.6,276738.1,-87.59343,68.0166
10000.0,132281.8,-89.97653,68.0069
