Frequency,Impedance,Phase Angle,Temperature (Dry Bath)
10.0,42585260.0,-19.80582,67.349
21.5,22450810.0,-46.79174,67.3584
46.4,14519580.0,-62.31853,67.3407
100.0,9386559.0,-121.8546,67.3313
215.4,2874873.0,-53.44139,67.3519
464.2,1754178.0,-91.04968,67.3324
1000.0,845845.5,-84.01046,67.3275
2154.4,443742.8,-83.87424,67.3305
4641.6,220839.8,-81.08122,67.3117
10000.0,108550.6,-83.63204,67.3285
