Frequency,Impedance,Phase Angle,Temperature (Dry Bath)
10.0,79922930.0,-5.654713,67.9111
21.5,45964920.0,-39.93992,67.9069
46.4,17231030.0,-50.2899,67.9011
100.0,4924332.0,-7.495859,67.8936
215.4,4502348.0,-67.04727,67.9042
464.2,2359348.0,-91.56757,67.9083
1000.0,1136753.0,-80.01557,67.8861
2154.4,560995.9,-76.9133,67.908
4641.6,295479.1,-78.69073,67.8819
10000.0,141221.3,-85.75038,67.8938
