Frequency,Impedance,Phase Angle,Temperature (Dry Bath)
10.0,11384.88,-5.132062,67.4869
21.5,11139.46,-4.157867,67.4994
46.4,10986.36,-4.11993,67.493
100.0,10859.66,-4.310786,67.4872
215.4,10587.32,-2.485856,67.4927
464.2,10521.62,-4.417241,67.487
1000.0,10229.54,-4.1466,67.4921
2154.4,10005.77,-4.513326,67.4864
4641.6,9763.16,-5.807113,67.4902
10000.0,9470.672,-8.823962,67.4857
