Frequency,Impedance,Phase Angle,Temperature (Dry Bath)
10.0,465306.9,-7.935469,67.4192
21.5,434165.3,-7.823865,67.4066
46.4,407495.9,-8.452201,67.4174
100.0,343334.0,-10.80512,67.4116
215.4,228140.1,-63.90577,67.4137
464.2,320357.3,-15.49167,67.401
1000.0,300321.7,-21.98493,67.42
2154.4,248569.3,-34.45079,67.4177
4641.6,173022.1,-50.78567,67.4303
10000.0,101460.9,-65.62088,67.4166
