Frequency,Impedance,Phase Angle,Temperature (Dry Bath)
10.0,7179.237,-30.57653,70.2923
21.544346900318832,5655.788,-26.81646,70.2924
46.41588833612777,4601.857,-23.3312,70.2897
100.0,3835.649,-20.08624,70.2961
215.44346900318823,3302.268,-16.5669,70.3102
464.15888336127773,2937.73,-14.15186,70.3047
1000.0,2636.307,-11.2154,70.2963
2154.4346900318824,2428.461,-9.337696,70.2932
4641.588833612777,2286.618,-7.864101,70.2878
10000.0,2179.398,-8.008352,70.2786
