Frequency,Impedance,Phase Angle,Temperature (Dry Bath)
10.0,29021340.0,4.158414,67.1893
21.5,26665740.0,-22.10044,67.1986
46.4,11323280.0,-72.82427,67.2014
100.0,4844589.0,-90.20624,67.1773
215.4,2245149.0,77.28559,67.2036
464.2,3341919.0,-89.56929,67.1948
1000.0,1146886.0,-87.1571,67.1972
2154.4,574873.9,-92.40829,67.1972
4641.6,263073.8,-87.36118,67.1903
10000.0,131642.6,-86.46765,67.1919
