Frequency,Impedance,Phase Angle,Temperature (Dry Bath)
10.0,135836.1,-25.5148,66.9612
21.5,112287.3,-22.21197,66.9494
46.4,96130.88,-19.19371,66.9462
100.0,84961.74,-15.95344,66.9296
215.4,75656.83,-14.10927,66.9453
464.2,69214.58,-14.99157,66.9447
1000.0,62322.7,-15.18356,66.9511
2154.4,57011.27,-18.88029,66.948
4641.6,49678.4,-26.03794,66.9447
10000.0,39788.31,-38.35579,66.9505
