Frequency,Impedance,Phase Angle,Temperature (Dry Bath)
10.0,149596.2,-6.521772,68.0521
21.5,143449.3,-5.241851,68.0521
46.4,138457.7,-4.91164,68.0521
100.0,134385.4,-5.368463,68.0521
215.4,130546.9,-5.68245,68.0521
464.2,124244.8,-8.317284,68.0521
1000.0,120571.0,-10.58595,68.0521
2154.4,109082.2,-19.118,68.0521
4641.6,96713.69,-32.445,68.0521
10000.0,71731.66,-51.21653,68.0521
