Frequency,Impedance,Phase Angle,Temperature (Dry Bath)
10.0,35098610.0,-11.9758,67.9511
21.5,21316800.0,-36.18647,67.9435
46.4,22071350.0,-63.40515,67.9465
100.0,3810270.0,-29.27692,67.9324
215.4,3774091.0,-84.08553,67.9527
464.2,2079118.0,-76.62493,67.9474
1000.0,958747.3,-78.89136,67.9644
2154.4,556004.4,-77.84632,67.9592
4641.6,264201.6,-84.56266,67.934
10000.0,128020.0,-92.24056,67.9279
