Frequency,Impedance,Phase Angle,Temperature (Dry Bath)
10.0,154593.0,-6.361395,68.1275
21.5,149170.5,-5.253698,68.118
46.4,143964.7,-4.781921,68.1326
100.0,142299.8,-5.174094,68.1364
215.4,136930.7,-5.430939,68.1421
464.2,132445.9,-7.746174,68.1279
1000.0,125198.6,-11.90474,68.1357
2154.4,115990.6,-16.8004,68.1399
4641.6,99022.8,-34.35223,68.1299
10000.0,71086.84,-54.26377,68.1176
