Frequency,Impedance,Phase Angle,Temperature (Dry Bath)
10.0,129116.0,-23.76196,67.1422
21.5,107942.1,-21.74786,67.1578
46.4,93041.79,-19.38602,67.1353
100.0,82299.65,-16.86158,67.1602
215.4,75879.52,-16.07762,67.1414
464.2,66047.25,-15.82984,67.1425
1000.0,57234.87,-15.5332,67.1656
2154.4,52888.53,-17.75283,67.1565
4641.6,46684.11,-23.82832,67.171
10000.0,39167.9,-34.43356,67.1767
