Frequency,Impedance,Phase Angle,Temperature (Dry Bath)
10.0,8605392.0,-10.34133,65.8579
21.544346900318832,3784149.0,-24.49243,65.8637
46.41588833612777,4742507.0,-22.85137,65.8535
100.0,407887.1,4.723119,65.8658
215.44346900318823,6264.467,142.4695,65.8506
464.15888336127773,493473.2,-132.642,65.8498
1000.0,685004.5,-94.7009,65.8613
2154.4346900318824,473099.4,-90.82314,65.8581
4641.588833612777,127077.3,-87.04563,65.8553
10000.0,65374.0,-86.85603,65.857
