Frequency,Impedance,Phase Angle,Temperature (Dry Bath)
10.0,1149207.0,-11.58134,67.8918
21.5,1070261.0,-9.965189,67.8916
46.4,1020476.0,-11.65778,67.8971
100.0,925032.7,-14.57847,67.8901
215.4,835356.3,-19.5517,67.8916
464.2,687704.6,-25.35601,67.8767
1000.0,580281.8,-39.98365,67.896
2154.4,391154.8,-46.09898,67.8788
4641.6,264645.1,-62.15968,67.8867
10000.0,157959.7,-78.513,67.8761
