Frequency,Impedance,Phase Angle,Temperature (Dry Bath)
10.0,19036620.0,-32.34561,68.0473
21.5,16546680.0,-38.71827,68.0473
46.4,14724680.0,-55.97763,68.0473
100.0,8224250.0,-46.29016,68.0473
215.4,4547733.0,-58.32302,68.0473
464.2,1768492.0,-74.32176,68.0473
1000.0,995824.7,-77.58261,68.0473
2154.4,552551.3,-80.03604,68.0473
4641.6,277338.2,-79.90185,68.0473
10000.0,147534.4,-88.30776,68.0473
