Frequency,Impedance,Phase Angle,Temperature (Dry Bath)
10.0,31126400.0,-40.78396,67.1053
21.5,39328260.0,-31.73293,67.1048
46.4,21707000.0,-50.18147,67.118
100.0,5344658.0,-12.0652,67.1122
215.4,4363483.0,-111.1065,67.1172
464.2,2044416.0,-68.06943,67.119
1000.0,1245484.0,-84.20362,67.1256
2154.4,560243.7,-88.86068,67.1099
4641.6,265361.9,-85.35724,67.1261
10000.0,131128.3,-87.15564,67.0983
