Frequency,Impedance,Phase Angle,Temperature (Dry Bath)
10.0,5856215.0,-18.67826,70.7447
21.544346900318832,5975193.0,0.2333049,70.7523
46.41588833612777,4944802.0,-31.39351,70.7557
100.0,848567.9,-72.40179,70.7607
215.44346900318823,3738852.0,-23.14951,70.7714
464.15888336127773,828132.2,-64.06231,70.7575
1000.0,309638.0,-57.92974,70.7514
2154.4346900318824,324458.5,-70.38796,70.7516
4641.588833612777,116816.3,-94.61771,70.7519
10000.0,59339.33,-86.10318,70.7527
