Frequency,Impedance,Phase Angle,Temperature (Dry Bath)
10.0,23473630.0,-7.621391,67.9457
21.5,24082190.0,-43.92968,67.9457
46.4,25244660.0,-43.10064,67.9457
100.0,4393462.0,-36.81814,67.9457
215.4,7013293.0,-30.22707,67.9457
464.2,3027992.0,-92.16079,67.9457
1000.0,1462702.0,-86.53774,67.9457
2154.4,670459.9,-88.5466,67.9457
4641.6,321110.8,-90.74292,67.9457
10000.0,148627.0,-96.70163,67.9457
