Frequency,Impedance,Phase Angle,Temperature (Dry Bath)
10.0,117380.2,-24.50649,67.2348
21.5,98273.3,-21.39658,67.2572
46.4,84759.0,-18.1712,67.2481
100.0,75172.14,-14.81526,67.2318
215.4,67583.96,-12.89992,67.252
464.2,61481.98,-12.4328,67.2417
1000.0,56054.58,-13.08703,67.2456
2154.4,52218.71,-16.29575,67.2431
4641.6,46664.32,-23.48561,67.2534
10000.0,38394.97,-35.35577,67.2631
