Frequency,Impedance,Phase Angle,Temperature (Dry Bath)
10.0,156732.8,-9.57338,71.3342
21.544346900318832,147862.3,-8.909902,71.3176
46.41588833612777,139337.1,-8.563912,71.3174
100.0,91828.13,3.760958,71.3213
215.44346900318823,120642.8,-2.136258,71.3155
464.15888336127773,127643.0,-4.78993,71.3228
1000.0,108082.7,-19.76523,71.333
2154.4346900318824,86149.91,-27.83403,71.3298
4641.588833612777,67664.36,-42.88393,71.3252
10000.0,41025.85,-62.43377,71.3338
