Frequency,Impedance,Phase Angle,Temperature (Dry Bath)
10.0,27155530.0,-28.84985,67.1307
21.5,21801350.0,-48.31161,67.1355
46.4,13309160.0,-58.55189,67.1296
100.0,7421367.0,36.41877,67.1336
215.4,233727.2,75.73842,67.1469
464.2,1734532.0,-66.27133,67.1405
1000.0,869905.5,-76.01956,67.1296
2154.4,421738.8,-79.00194,67.1397
4641.6,225156.2,-83.9674,67.1292
10000.0,109419.8,-83.12557,67.1488
