Frequency,Impedance,Phase Angle,Temperature (Dry Bath)
10.0,26823970.0,-19.56936,68.1535
21.5,14977130.0,-42.15098,68.1535
46.4,10577480.0,-58.28323,68.1535
100.0,7236440.0,-23.71315,68.1535
215.4,3119067.0,-69.24117,68.1535
464.2,1755978.0,-76.93568,68.1535
1000.0,971537.8,-83.64474,68.1535
2154.4,493992.7,-82.24343,68.1535
4641.6,269939.7,-89.51483,68.1535
10000.0,123283.2,-91.89494,68.1535
