Frequency,Impedance,Phase Angle,Temperature (Dry Bath)
10.0,6180.789,-24.92501,70.9251
21.544346900318832,5091.56,-21.92773,70.9539
46.41588833612777,4297.959,-19.20891,70.9252
100.0,3741.207,-16.86286,70.9328
215.44346900318823,3282.916,-14.27531,70.9285
464.15888336127773,2936.843,-12.60798,70.9203
1000.0,2660.166,-10.18534,70.924
2154.4346900318824,2466.044,-9.383033,70.9211
4641.588833612777,2316.485,-8.198451,70.9259
10000.0,2185.295,-8.035026,70.9067
