Frequency,Impedance,Phase Angle,Temperature (Dry Bath)
10.0,4326430.0,5.755429,71.4588
21.544346900318832,4429101.0,-9.649617,71.4578
46.41588833612777,4014639.0,-20.41503,71.4524
100.0,822933.2,-8.100886,71.4547
215.44346900318823,580014.1,137.6688,71.4525
464.15888336127773,1073516.0,-67.50604,71.4513
1000.0,347027.1,-54.75583,71.4488
2154.4346900318824,170907.0,-93.58053,71.4577
4641.588833612777,111652.5,-77.40585,71.4501
10000.0,51966.08,-91.49468,71.4572
