Frequency,Impedance,Phase Angle,Temperature (Dry Bath)
10.0,19902090.0,-25.12176,68.1655
21.5,16471970.0,-34.05745,68.1707
46.4,16124700.0,-57.68901,68.1724
100.0,4860730.0,-32.68826,68.1673
215.4,2853455.0,-78.21016,68.1694
464.2,1458359.0,-72.29747,68.1625
1000.0,887613.8,-73.3859,68.1802
2154.4,525797.6,-76.71384,68.1662
4641.6,277458.4,-82.60063,68.1653
10000.0,143121.5,-89.7022,68.1515
