Frequency,Impedance,Phase Angle,Temperature (Dry Bath)
10.0,14230530.0,-22.51476,68.071
21.5,19615130.0,-27.92013,68.0766
46.4,19330200.0,-48.96108,68.0692
100.0,5528678.0,-53.47449,68.0729
215.4,3264770.0,-96.06264,68.0594
464.2,1758362.0,-94.76485,68.0776
1000.0,880052.7,-84.99924,68.0619
2154.4,460534.2,-85.78575,68.055
4641.6,238485.7,-88.46572,68.0734
10000.0,112682.5,-90.28274,68.0785
