Frequency,Impedance,Phase Angle,Temperature (Dry Bath)
10.0,138248.7,-6.38147,67.3879
21.5,132214.9,-5.338097,67.3825
46.4,127797.6,-5.003125,67.3862
100.0,124556.9,-5.386456,67.3711
215.4,79760.7,-25.3853,67.3863
464.2,113540.1,-9.87956,67.3884
1000.0,111686.8,-12.00325,67.388
2154.4,101341.2,-18.45682,67.3845
4641.6,88640.57,-32.57263,67.3834
10000.0,62636.45,-50.49675,67.379
