Frequency,Impedance,Phase Angle,Temperature (Dry Bath)
10.0,24633.1,-20.54785,71.3145
21.544346900318832,21025.55,-17.87364,71.3158
46.41588833612777,18266.52,-15.67278,71.3143
100.0,15358.61,-14.71031,71.3232
215.44346900318823,14782.72,-11.04931,71.3013
464.15888336127773,13367.57,-11.03705,71.3049
1000.0,11919.12,-9.114915,71.3082
2154.4346900318824,11825.21,-9.048154,71.3172
4641.588833612777,11212.0,-10.60551,71.3153
10000.0,10565.5,-15.43158,71.3046
