Frequency,Impedance,Phase Angle,Temperature (Dry Bath)
10.0,1470940.0,-8.417245,67.2991
21.5,1364466.0,-9.163562,67.3044
46.4,1271506.0,-13.19455,67.2906
100.0,1063579.0,-19.18232,67.2922
215.4,174604.6,105.3618,67.2911
464.2,959784.6,-32.97232,67.2941
1000.0,624543.8,-44.36222,67.2855
2154.4,354595.9,-60.18486,67.2914
4641.6,198223.6,-73.0667,67.284
10000.0,102537.3,-72.75856,67.2869
