Frequency,Impedance,Phase Angle,Temperature (Dry Bath)
10.0,1364018.0,-9.936084,67.1622
21.5,1269115.0,-11.51466,67.1813
46.4,1155398.0,-13.83678,67.1712
100.0,1130818.0,-12.53501,67.1744
215.4,251885.5,73.58816,67.1674
464.2,741179.3,-36.43776,67.1736
1000.0,506636.8,-53.21294,67.1582
2154.4,319485.4,-58.36667,67.184
4641.6,181234.8,-66.45007,67.175
10000.0,101127.9,-71.35208,67.1845
