Frequency,Impedance,Phase Angle,Temperature (Dry Bath)
10.0,155722.7,-6.431147,67.9081
21.5,148947.3,-5.237892,67.9147
46.4,143923.2,-4.766439,67.9189
100.0,140559.1,-4.642591,67.8991
215.4,133774.9,-5.317763,67.9007
464.2,134960.5,-7.275016,67.8857
1000.0,124130.4,-12.72884,67.8923
2154.4,116369.5,-20.45167,67.8966
4641.6,99790.49,-35.36079,67.9008
10000.0,74765.36,-54.39047,67.8912
