Frequency,Impedance,Phase Angle,Temperature (Dry Bath)
10.0,68043.1,-10.43906,71.3339
21.544346900318832,63750.86,-8.435494,71.3197
46.41588833612777,59765.63,-7.3149,71.3297
100.0,60613.95,1.085055,71.3213
215.44346900318823,55692.91,0.40902,71.3393
464.15888336127773,50932.8,-3.320636,71.3285
1000.0,42100.74,-4.916601,71.3339
2154.4346900318824,45546.32,-6.04402,71.3351
4641.588833612777,43786.43,-11.88501,71.3228
10000.0,42872.02,-32.7518,71.3311
