Frequency,Impedance,Phase Angle,Temperature (Dry Bath)
10.0,11915.59,-4.373414,67.486
21.5,11673.41,-3.701487,67.489
46.4,11380.3,-2.928577,67.4772
100.0,11321.03,-3.445428,67.4971
215.4,10528.51,-4.060299,67.4829
464.2,10999.99,-3.687806,67.4992
1000.0,10720.06,-3.780677,67.4637
2154.4,10522.76,-4.307362,67.4814
4641.6,10291.06,-5.776263,67.498
10000.0,10027.42,-9.196394,67.5127
