Frequency,Impedance,Phase Angle,Temperature (Dry Bath)
10.0,4540398.0,-25.68876,71.1285
21.544346900318832,10945560.0,-25.30912,71.1364
46.41588833612777,4235036.0,-13.63378,71.1288
100.0,638574.1,-39.95249,71.1307
215.44346900318823,1055820.0,0.1440084,71.1325
464.15888336127773,701823.2,-67.42509,71.1369
1000.0,562113.6,-122.5072,71.1384
2154.4346900318824,314971.0,-81.37303,71.1386
4641.588833612777,120172.1,-76.21404,71.1432
10000.0,50953.18,-88.33545,71.1365
