Frequency,Impedance,Phase Angle,Temperature (Dry Bath)
10.0,5805220.0,-18.00686,71.4093
21.544346900318832,5210333.0,-29.54799,71.3901
46.41588833612777,6421027.0,-26.22168,71.4027
100.0,1001019.0,32.24035,71.3984
215.44346900318823,530286.4,-124.3431,71.3983
464.15888336127773,351674.0,-54.8316,71.4043
1000.0,815164.6,-1.903053,71.3939
2154.4346900318824,193666.3,-62.99906,71.4032
4641.588833612777,128817.6,-85.16017,71.4152
10000.0,71284.18,-74.53955,71.3849
