Frequency,Impedance,Phase Angle,Temperature (Dry Bath)
10.0,154846.0,-6.403385,68.0163
21.5,148536.1,-5.243539,68.0094
46.4,143377.3,-4.781975,68.0142
100.0,132553.5,-4.776904,68.0135
215.4,134473.3,-4.1313,67.9998
464.2,134747.7,-8.338509,68.0155
1000.0,121732.4,-12.32052,68.0245
2154.4,113134.8,-20.71627,68.0064
4641.6,94302.61,-35.13356,67.9942
10000.0,73355.67,-51.77912,68.0115
