Frequency,Impedance,Phase Angle,Temperature (Dry Bath)
10.0,156217.6,-6.068971,68.0765
21.5,150758.3,-4.89625,68.0751
46.4,145615.5,-4.668614,68.0636
100.0,136719.2,-5.68188,68.0897
215.4,137232.6,-7.465991,68.0678
464.2,136087.5,-7.372703,68.071
1000.0,125332.4,-11.96379,68.0759
2154.4,123160.6,-19.74312,68.0741
4641.6,105410.0,-33.6476,68.0684
10000.0,71845.1,-53.60571,68.0678
