Frequency,Impedance,Phase Angle,Temperature (Dry Bath)
10.0,157942.2,-6.462005,67.8842
21.5,151515.8,-5.264425,67.8902
46.4,145936.1,-4.773826,67.8823
100.0,137468.0,-4.905375,67.8958
215.4,137618.7,-3.669288,67.8905
464.2,134045.8,-8.455551,67.8813
1000.0,128088.6,-10.8083,67.8996
2154.4,114984.8,-21.19665,67.9049
4641.6,103489.1,-36.6634,67.9044
10000.0,70214.74,-57.08528,67.8939
