Frequency,Impedance,Phase Angle,Temperature (Dry Bath)
10.0,156015.3,-6.40199,67.9881
21.5,148848.3,-5.233707,67.9797
46.4,144121.3,-4.725207,67.9771
100.0,136251.7,-6.261972,67.9743
215.4,131415.6,-4.113355,67.9636
464.2,129958.7,-8.701848,67.9654
1000.0,125385.9,-11.29579,67.9755
2154.4,115136.1,-17.48147,67.9704
4641.6,102046.2,-31.80754,67.975
10000.0,73407.32,-54.14935,67.9761
