Frequency,Impedance,Phase Angle,Temperature (Dry Bath)
10.0,25740.88,-29.05218,70.7905
21.544346900318832,20175.23,-27.05177,70.804
46.41588833612777,16124.42,-25.08656,70.793
100.0,12911.9,-23.20945,70.8001
215.44346900318823,10921.25,-20.41672,70.7932
464.15888336127773,9258.815,-17.53076,70.8124
1000.0,8523.098,-14.51609,70.7982
2154.4346900318824,7474.284,-12.2989,70.8124
4641.588833612777,6715.309,-11.59271,70.8168
10000.0,6366.875,-15.04334,70.7842
