Frequency,Impedance,Phase Angle,Temperature (Dry Bath)
10.0,24104640.0,-3.690421,67.371
21.5,23586870.0,-49.83037,67.3903
46.4,31708300.0,-37.73939,67.3811
100.0,10907300.0,15.22648,67.3867
215.4,612717.1,-57.42335,67.3886
464.2,1656539.0,-76.5825,67.3927
1000.0,913335.0,-78.95904,67.4008
2154.4,521721.8,-81.06735,67.4118
4641.6,258057.2,-78.47737,67.3914
10000.0,138239.7,-79.74446,67.3904
