Frequency,Impedance,Phase Angle,Temperature (Dry Bath)
10.0,23711.12,-21.00035,71.262
21.544346900318832,19985.73,-18.24947,71.2569
46.41588833612777,17376.23,-15.49799,71.2555
100.0,15886.86,-11.30328,71.2705
215.44346900318823,14012.79,-12.9776,71.2706
464.15888336127773,12871.59,-9.483145,71.2562
1000.0,12434.02,-5.645637,71.2614
2154.4346900318824,11528.31,-8.435679,71.2603
4641.588833612777,10854.64,-11.03964,71.2602
10000.0,10181.23,-15.48539,71.2785
