Frequency,Impedance,Phase Angle,Temperature (Dry Bath)
10.0,27674490.0,-2.619482,67.3167
21.5,21066990.0,-32.50124,67.3154
46.4,12124040.0,-69.83998,67.314
100.0,3097841.0,-91.82671,67.3339
215.4,585344.4,-118.1135,67.3159
464.2,1442940.0,-85.6026,67.3107
1000.0,799580.2,-74.30943,67.3302
2154.4,388132.1,-79.16563,67.3275
4641.6,211192.2,-75.98493,67.3086
10000.0,112073.8,-79.37042,67.3221
