Frequency,Impedance,Phase Angle,Temperature (Dry Bath)
10.0,24998350.0,-13.16663,67.4781
21.5,26865720.0,-42.04959,67.4698
46.4,25677390.0,-28.64986,67.4863
100.0,6041144.0,-42.60074,67.478
215.4,219749.5,104.567,67.4731
464.2,2434263.0,-111.5207,67.4719
1000.0,1632705.0,-80.84386,67.4845
2154.4,573890.3,-88.45491,67.487
4641.6,273335.3,-87.20602,67.4649
10000.0,128575.6,-87.36963,67.4679
