Frequency,Impedance,Phase Angle,Temperature (Dry Bath)
10.0,315018.6,-19.57284,71.2553
21.544346900318832,274532.8,-17.88655,71.2412
46.41588833612777,238179.6,-17.56228,71.2496
100.0,132527.1,-25.54458,71.2509
215.44346900318823,124449.5,-18.79321,71.2379
464.15888336127773,170216.1,-13.21387,71.2387
1000.0,150518.8,-35.23349,71.2656
2154.4346900318824,100831.5,-42.13052,71.2503
4641.588833612777,73701.89,-53.24987,71.2281
10000.0,47736.03,-52.03979,71.2283
