Frequency,Impedance,Phase Angle,Temperature (Dry Bath)
10.0,23715830.0,-31.66847,67.1688
21.5,24493010.0,-45.46906,67.1671
46.4,13396520.0,-53.64103,67.1712
100.0,3717364.0,-50.82346,67.1639
215.4,260551.7,-157.8936,67.1667
464.2,1469302.0,-74.04001,67.1724
1000.0,863967.3,-78.15585,67.1745
2154.4,483396.5,-83.24645,67.1848
4641.6,227329.0,-81.46462,67.1805
10000.0,110866.2,-83.71673,67.181
