Frequency,Impedance,Phase Angle,Temperature (Dry Bath)
10.0,12337.92,-4.516956,67.0951
21.5,12032.27,-3.840661,67.0907
46.4,11697.74,-3.038765,67.1044
100.0,11628.13,-3.335636,67.0983
215.4,11434.22,-3.492296,67.1152
464.2,11271.58,-3.681599,67.1239
1000.0,11010.08,-3.809974,67.0977
2154.4,10774.88,-4.429248,67.1014
4641.6,10541.52,-6.030758,67.0938
10000.0,10239.08,-9.614911,67.0958
