Frequency,Impedance,Phase Angle,Temperature (Dry Bath)
10.0,22683640.0,-28.90345,68.0075
21.5,23930820.0,-34.41352,68.0163
46.4,26973800.0,-61.21348,68.0309
100.0,7636052.0,-52.53923,68.012
215.4,3047745.0,-82.44228,68.0223
464.2,1867191.0,-78.27951,68.0198
1000.0,1080490.0,-88.08789,68.0174
2154.4,535069.3,-78.65327,68.0333
4641.6,275556.7,-82.86549,68.0267
10000.0,140658.4,-84.73345,68.0191
