Frequency,Impedance,Phase Angle,Temperature (Dry Bath)
10.0,127579.7,-24.98208,67.258
21.5,105837.9,-21.71816,67.236
46.4,90460.0,-18.48219,67.2511
100.0,80049.57,-15.42165,67.2527
215.4,109903.5,-20.57457,67.2519
464.2,66101.53,-12.78553,67.2511
1000.0,60899.21,-13.73088,67.2597
2154.4,55995.93,-17.79138,67.2433
4641.6,48980.04,-24.77804,67.2387
10000.0,39736.53,-36.95568,67.2611
