Frequency,Impedance,Phase Angle,Temperature (Dry Bath)
10.0,6255009.0,14.13991,71.3655
21.544346900318832,5311711.0,8.24481,71.3711
46.41588833612777,4589119.0,6.429376,71.3765
100.0,661390.3,-59.62079,71.3717
215.44346900318823,2255802.0,-47.87525,71.3623
464.15888336127773,11240450.0,36.49966,71.3671
1000.0,298560.5,0.2401475,71.374
2154.4346900318824,530129.5,-56.03577,71.3818
4641.588833612777,257656.9,-88.74769,71.3793
10000.0,150248.6,-78.86276,71.3758
