Frequency,Impedance,Phase Angle,Temperature (Dry Bath)
10.0,5546140.0,-22.34392,71.4451
21.544346900318832,3930849.0,-26.16777,71.4451
46.41588833612777,5171624.0,-48.01646,71.4296
100.0,1004361.0,-64.63942,71.4364
215.44346900318823,14170.74,-123.4208,71.4463
464.15888336127773,831249.7,-57.14546,71.434
1000.0,384624.5,-81.5943,71.4537
2154.4346900318824,310191.9,-62.76667,71.4363
4641.588833612777,136357.5,-89.07694,71.453
10000.0,71247.35,-85.80846,71.4436
