Frequency,Impedance,Phase Angle,Temperature (Dry Bath)
10.0,128557.0,-24.89348,67.1218
21.5,107336.9,-21.79307,67.1155
46.4,91691.82,-18.67449,67.1007
100.0,82953.17,-17.19617,67.1197
215.4,85081.72,-28.26016,67.1075
464.2,66313.98,-13.81366,67.0999
1000.0,60455.83,-13.90965,67.1153
2154.4,55201.18,-17.72225,67.0982
4641.6,49165.78,-25.12855,67.1286
10000.0,39775.51,-37.07694,67.1152
