Frequency,Impedance,Phase Angle,Temperature (Dry Bath)
10.0,27283720.0,-17.8001,68.2407
21.5,14255890.0,-26.1366,68.2407
46.4,23913440.0,-51.61151,68.2407
100.0,4921393.0,-51.78775,68.2407
215.4,5831936.0,-61.7813,68.2407
464.2,2759348.0,-83.34409,68.2407
1000.0,1338867.0,-82.71156,68.2407
2154.4,664429.9,-87.41168,68.2407
4641.6,346811.2,-86.86308,68.2407
10000.0,160797.7,-97.29189,68.2407
