Frequency,Impedance,Phase Angle,Temperature (Dry Bath)
10.0,5620916.0,-12.0251,68.0932
21.5,5122117.0,-18.75814,68.1061
46.4,5470528.0,-29.51263,68.0962
100.0,2489697.0,-29.87535,68.114
215.4,2233962.0,-43.00413,68.0995
464.2,1928107.0,-55.69696,68.0995
1000.0,869787.8,-77.87344,68.1064
2154.4,444192.4,-81.06019,68.1042
4641.6,227919.6,-86.64847,68.0827
10000.0,111208.5,-89.99941,68.0945
