Frequency,Impedance,Phase Angle,Temperature (Dry Bath)
10.0,4320316.0,-3.741981,65.7636
21.544346900318832,4931216.0,-6.88694,65.7614
46.41588833612777,4514339.0,10.93231,65.742
100.0,1223354.0,154.1105,65.7704
215.44346900318823,17215.92,17.80382,65.7483
464.15888336127773,5848418.0,-55.33655,65.7674
1000.0,418424.6,-127.3238,65.7666
2154.4346900318824,308555.0,-105.3338,65.7557
4641.588833612777,145639.7,-84.97978,65.766
10000.0,73189.53,-89.05739,65.7513
