Frequency,Impedance,Phase Angle,Temperature (Dry Bath)
10.0,11724.0,-24.27586,71.0813
21.544346900318832,9767.959,-20.42363,71.0698
46.41588833612777,8370.772,-17.20011,71.0739
100.0,7230.021,-14.22631,71.0751
215.44346900318823,6657.454,-12.21648,71.0766
464.15888336127773,6080.258,-10.85523,71.0639
1000.0,5627.281,-9.76291,71.073
2154.4346900318824,5221.849,-8.787255,71.0764
4641.588833612777,4912.198,-8.828421,71.065
10000.0,4672.783,-10.23684,71.0662
