Frequency,Impedance,Phase Angle,Temperature (Dry Bath)
10.0,16383.06,-23.7949,71.4013
21.544346900318832,13336.52,-23.8694,71.4148
46.41588833612777,10873.15,-23.42466,71.4094
100.0,8918.329,-21.44471,71.4044
215.44346900318823,7487.427,-20.41314,71.4077
464.15888336127773,6407.689,-18.20518,71.4281
1000.0,5545.252,-17.30134,71.432
2154.4346900318824,4844.287,-15.67882,71.4117
4641.588833612777,4280.208,-14.5501,71.4329
10000.0,3787.916,-13.74939,71.4487
