Frequency,Impedance,Phase Angle,Temperature (Dry Bath)
10.0,100916.3,-23.65012,67.7761
21.5,85602.36,-21.34225,67.7883
46.4,74720.73,-18.73311,67.7794
100.0,66341.84,-15.08969,67.792
215.4,59710.47,-14.4111,67.811
464.2,54293.19,-12.90861,67.7849
1000.0,50449.28,-13.01345,67.7856
2154.4,46696.09,-13.9787,67.7905
4641.6,40954.95,-21.38467,67.7775
10000.0,36669.57,-33.00573,67.7891
