Frequency,Impedance,Phase Angle,Temperature (Dry Bath)
10.0,4325842.0,-20.33048,65.7788
21.544346900318832,6324333.0,15.16603,65.7873
46.41588833612777,3755822.0,-14.0467,65.788
100.0,415154.8,-92.746,65.7954
215.44346900318823,10085.21,-170.7869,65.7889
464.15888336127773,602277.7,-44.29821,65.7997
1000.0,1110901.0,-19.6854,65.799
2154.4346900318824,268030.0,-87.55865,65.7944
4641.588833612777,134702.7,-79.93539,65.7842
10000.0,75429.2,-86.35971,65.7932
