Frequency,Impedance,Phase Angle,Temperature (Dry Bath)
10.0,453689.0,-13.54809,71.3258
21.544346900318832,386962.8,-13.29069,71.3222
46.41588833612777,354814.0,-16.54532,71.3286
100.0,519116.4,-50.98975,71.3224
215.44346900318823,459862.4,-20.05988,71.3311
464.15888336127773,190054.3,-20.91118,71.3078
1000.0,148448.0,-25.74391,71.3319
2154.4346900318824,142685.7,-46.06954,71.3294
4641.588833612777,108516.5,-59.65352,71.32
10000.0,60110.59,-67.51354,71.3356
