Frequency,Impedance,Phase Angle,Temperature (Dry Bath)
10.0,18468.7,-17.55291,68.1798
21.5,16274.76,-14.34659,68.178
46.4,14811.42,-11.28377,68.1619
100.0,13718.88,-9.196304,68.193
215.4,12901.15,-7.730876,68.1849
464.2,12428.99,-6.968858,68.1898
1000.0,11959.0,-5.377691,68.189
2154.4,11346.69,-5.27447,68.1693
4641.6,11199.32,-7.960096,68.1753
10000.0,10967.61,-10.08149,68.1647
