Frequency,Impedance,Phase Angle,Temperature (Dry Bath)
10.0,20770110.0,-17.34057,68.1345
21.5,17935580.0,-32.16579,68.1157
46.4,17538670.0,-62.19812,68.12
100.0,23742100.0,-140.3413,68.1158
215.4,4953383.0,-69.9581,68.1078
464.2,2312385.0,-80.54454,68.1127
1000.0,1072276.0,-87.07025,68.119
2154.4,494884.9,-92.25669,68.1188
4641.6,231375.1,-87.46336,68.1213
10000.0,112417.6,-92.07857,68.1313
