Frequency,Impedance,Phase Angle,Temperature (Dry Bath)
10.0,23707220.0,6.737948,67.3576
21.5,24413010.0,-34.86919,67.3395
46.4,16968790.0,-67.26426,67.3597
100.0,8459215.0,-78.98808,67.3582
215.4,203455.2,-133.9734,67.3479
464.2,2376024.0,-92.04703,67.3507
1000.0,1217629.0,-84.72332,67.3531
2154.4,599215.9,-87.08746,67.3614
4641.6,278834.8,-85.84896,67.3568
10000.0,131953.9,-87.34701,67.355
