Frequency,Impedance,Phase Angle,Temperature (Dry Bath)
10.0,5007066.0,-11.80393,70.5053
21.544346900318832,6561360.0,-12.30254,70.5218
46.41588833612777,4750469.0,-21.6151,70.5084
100.0,717188.3,-132.2716,70.5088
215.44346900318823,1348532.0,-168.2838,70.496
464.15888336127773,835132.0,-9.641074,70.4879
1000.0,190018.5,-79.83959,70.5039
2154.4346900318824,343798.9,-58.56655,70.5052
4641.588833612777,92470.17,-83.62676,70.5003
10000.0,51422.0,-87.71803,70.4988
