Frequency,Impedance,Phase Angle,Temperature (Dry Bath)
10.0,2212786.0,-10.91562,67.4786
21.5,2042743.0,-12.00904,67.4852
46.4,1872700.0,-15.46657,67.4992
100.0,1819856.0,-10.62959,67.4937
215.4,104401.2,-89.49507,67.478
464.2,913345.8,-44.99449,67.488
1000.0,684335.2,-58.25232,67.4733
2154.4,367936.1,-64.802,67.4938
4641.6,197816.6,-69.28006,67.4876
10000.0,105662.0,-72.73618,67.4888
