Frequency,Impedance,Phase Angle,Temperature (Dry Bath)
10.0,26915220.0,-20.01932,68.3654
21.5,15613920.0,-28.89501,68.3486
46.4,11703070.0,-55.749,68.3387
100.0,3584575.0,-57.65532,68.33
215.4,5350015.0,-68.44142,68.3434
464.2,1586306.0,-81.77694,68.3386
1000.0,945527.9,-80.85914,68.3446
2154.4,484995.9,-82.72912,68.3578
4641.6,253660.6,-85.34706,68.3415
10000.0,129331.4,-91.896,68.3435
