Frequency,Impedance,Phase Angle,Temperature (Dry Bath)
10.0,27262600.0,-19.41466,67.3127
21.5,19461700.0,-48.59112,67.3202
46.4,13045580.0,-59.26588,67.313
100.0,5741522.0,-36.46046,67.3092
215.4,3629302.0,-70.58371,67.3074
464.2,1475980.0,-84.6462,67.3063
1000.0,768871.5,-77.93049,67.3028
2154.4,403328.1,-73.44232,67.3095
4641.6,211230.7,-76.31329,67.3233
10000.0,110163.4,-79.84411,67.3144
