Frequency,Impedance,Phase Angle,Temperature (Dry Bath)
10.0,3993520.0,-15.9337,71.3767
21.544346900318832,4551731.0,-1.942572,71.3736
46.41588833612777,5045202.0,-39.22477,71.3751
100.0,2197248.0,148.0245,71.3685
215.44346900318823,1018737.0,-74.66943,71.3681
464.15888336127773,744511.0,-76.90782,71.3584
1000.0,4510908.0,-146.5007,71.3653
2154.4346900318824,329857.2,-87.68055,71.3734
4641.588833612777,137990.6,-88.40923,71.3609
10000.0,59236.01,-87.82872,71.3558
