Frequency,Impedance,Phase Angle,Temperature (Dry Bath)
10.0,2147996.0,-0.6293459,66.6
21.544346900318832,1789909.0,-10.70742,66.6
46.41588833612777,1964043.0,-8.688039,66.6
100.0,484455.9,29.4075,66.6
215.44346900318823,1454816.0,43.94801,66.6
464.15888336127773,680236.5,10.98397,66.6
1000.0,828850.7,16.05472,66.6
2154.4346900318824,1366989.0,-98.09449,66.6
4641.588833612777,378377.3,-47.29409,66.6
10000.0,148066.0,-71.31567,66.6
