Frequency,Impedance,Phase Angle,Temperature (Dry Bath)
10.0,275087.4,-14.02304,72.2208
21.544346900318832,248282.7,-14.16046,72.2327
46.41588833612777,219053.4,-15.19949,72.2234
100.0,179277.3,18.9381,72.2494
215.44346900318823,150839.8,15.22964,72.2254
464.15888336127773,93062.51,-32.51469,72.2298
1000.0,86156.56,-17.2758,72.2188
2154.4346900318824,131282.8,-15.8952,72.2271
4641.588833612777,83161.79,-43.90426,72.2436
10000.0,66667.0,-44.69979,72.2377
