Frequency,Impedance,Phase Angle,Temperature (Dry Bath)
10.0,20397880.0,-34.44382,67.9559
21.5,21781210.0,-29.74098,67.9582
46.4,13853090.0,-54.18746,67.9583
100.0,3968307.0,-33.39447,67.9441
215.4,4736967.0,-103.2961,67.9489
464.2,1831519.0,-86.40473,67.9509
1000.0,1036350.0,-79.98181,67.9593
2154.4,593423.1,-79.48903,67.9674
4641.6,331940.4,-79.67305,67.9686
10000.0,160085.1,-87.70685,67.9589
