Frequency,Impedance,Phase Angle,Temperature (Dry Bath)
10.0,140951.2,-5.656876,67.4899
21.5,135640.5,-4.720591,67.5033
46.4,132052.7,-4.121108,67.4771
100.0,123401.5,-4.640875,67.486
215.4,161406.7,-52.039,67.4997
464.2,120203.5,-6.899305,67.4882
1000.0,113993.9,-11.80794,67.461
2154.4,105066.2,-19.14174,67.4737
4641.6,90310.97,-33.38091,67.4597
10000.0,63819.09,-50.79315,67.4611
