Frequency,Impedance,Phase Angle,Temperature (Dry Bath)
10.0,7416502.0,-32.3357,70.882
21.544346900318832,7250670.0,-27.51998,70.8856
46.41588833612777,5200676.0,-34.14092,70.8935
100.0,416769.0,-46.13791,70.8817
215.44346900318823,2122813.0,-41.38653,70.8963
464.15888336127773,1201709.0,-118.0659,70.8974
1000.0,1065946.0,-68.70863,70.9004
2154.4346900318824,231691.4,-86.92215,70.9077
4641.588833612777,174604.1,-94.1095,70.8899
10000.0,66771.95,-84.69775,70.9055
