Frequency,Impedance,Phase Angle,Temperature (Dry Bath)
10.0,25260920.0,-10.87807,68.1882
21.5,23463470.0,-35.51745,68.2078
46.4,17987090.0,-51.62566,68.1878
100.0,5058224.0,-44.75912,68.2137
215.4,5273849.0,-65.49597,68.2009
464.2,1886780.0,-80.2091,68.1896
1000.0,1063323.0,-81.07959,68.1982
2154.4,508553.3,-90.16656,68.1834
4641.6,253502.8,-86.53999,68.1831
10000.0,114036.7,-93.76683,68.1938
