Frequency,Impedance,Phase Angle,Temperature (Dry Bath)
10.0,34055300.0,-25.11715,67.433
21.5,22575290.0,-45.98719,67.4334
46.4,18999280.0,-57.56113,67.4375
100.0,6849634.0,-87.84798,67.4355
215.4,2215846.0,-108.3064,67.4336
464.2,1866831.0,-87.70397,67.4426
1000.0,885589.4,-79.01721,67.4356
2154.4,478600.3,-83.82982,67.4434
4641.6,234805.3,-80.73463,67.4294
10000.0,113742.9,-80.58021,67.4137
