Frequency,Impedance,Phase Angle,Temperature (Dry Bath)
10.0,163788.3,-8.999387,66.3686
21.544346900318832,152426.2,-8.176855,66.3658
46.41588833612777,144051.7,-7.888503,66.3545
100.0,142213.0,1.499738,66.3648
215.44346900318823,74902.92,22.94758,66.3601
464.15888336127773,114935.8,-8.63694,66.3759
1000.0,132020.0,-14.90993,66.3654
2154.4346900318824,82648.3,-28.07934,66.3732
4641.588833612777,76313.06,-43.22107,66.3507
10000.0,41422.19,-60.15447,66.3662
