Frequency,Impedance,Phase Angle,Temperature (Dry Bath)
10.0,6593006.0,-8.617179,68.2702
21.5,9911516.0,-16.89908,68.2523
46.4,8914832.0,-30.51962,68.2656
100.0,3935923.0,-21.81865,68.2716
215.4,2318530.0,-76.65717,68.2553
464.2,1789756.0,-76.60351,68.2774
1000.0,808163.6,-72.30927,68.2563
2154.4,446738.1,-77.41855,68.2702
4641.6,224551.4,-80.0443,68.2688
10000.0,111974.6,-88.55535,68.2514
