Frequency,Impedance,Phase Angle,Temperature (Dry Bath)
10.0,63297.16,-10.07628,71.0633
21.544346900318832,59147.6,-8.73839,71.0793
46.41588833612777,55563.97,-7.405017,71.0758
100.0,48991.34,-6.349871,71.068
215.44346900318823,48951.83,-9.301915,71.0725
464.15888336127773,43309.89,-6.673603,71.0853
1000.0,44766.76,-22.17986,71.0538
2154.4346900318824,45740.96,-2.463287,71.067
4641.588833612777,45197.79,-20.71382,71.0705
10000.0,35321.83,-22.99415,71.0469
