Frequency,Impedance,Phase Angle,Temperature (Dry Bath)
10.0,137978.4,-6.298538,67.2076
21.5,132248.7,-5.328726,67.2281
46.4,127626.5,-4.973358,67.2273
100.0,126058.8,-7.477504,67.2296
215.4,123135.4,-6.697704,67.2421
464.2,117736.5,-8.703708,67.2281
1000.0,115215.3,-11.85369,67.2383
2154.4,100649.3,-19.33785,67.2473
4641.6,86719.45,-32.44835,67.239
10000.0,58830.36,-50.85687,67.2395
