Frequency,Impedance,Phase Angle,Temperature (Dry Bath)
10.0,33171.4,-14.1541,71.4565
21.544346900318832,29789.71,-12.57642,71.478
46.41588833612777,27044.92,-11.38614,71.4875
100.0,25297.77,-9.361464,71.4702
215.44346900318823,22415.12,-9.40891,71.4756
464.15888336127773,21391.64,-9.855549,71.4913
1000.0,19847.27,-9.150257,71.4879
2154.4346900318824,18360.65,-10.2553,71.4915
4641.588833612777,17299.42,-12.98819,71.5
10000.0,15523.55,-15.88893,71.4899
