Frequency,Impedance,Phase Angle,Temperature (Dry Bath)
10.0,19836230.0,-18.30855,68.0905
21.5,22732690.0,-16.85641,68.0979
46.4,33877130.0,-46.17978,68.1003
100.0,2955463.0,-34.03405,68.0863
215.4,5601135.0,-69.52281,68.0825
464.2,3249439.0,-64.17146,68.0882
1000.0,1448764.0,-81.32282,68.0817
2154.4,756315.1,-84.64716,68.0871
4641.6,302768.3,-90.64536,68.0999
10000.0,153132.4,-96.5333,68.0821
