Frequency,Impedance,Phase Angle,Temperature (Dry Bath)
10.0,25783330.0,-10.23544,67.5505
21.5,26256220.0,-46.45223,67.5519
46.4,14487040.0,-43.72051,67.5363
100.0,5612144.0,-60.95505,67.5533
215.4,153537.2,1.62672,67.5433
464.2,2147583.0,-72.17328,67.55
1000.0,923801.0,-78.27018,67.5528
2154.4,471454.8,-84.90764,67.5432
4641.6,243462.8,-80.00891,67.5447
10000.0,122081.0,-79.45367,67.5354
