Frequency,Impedance,Phase Angle,Temperature (Dry Bath)
10.0,47443730.0,-9.71041,67.7587
21.5,28327070.0,-14.9676,67.7657
46.4,16286720.0,-44.69414,67.7686
100.0,6932321.0,-43.38363,67.7767
215.4,5332048.0,-81.25889,67.7614
464.2,3052184.0,-80.01451,67.7731
1000.0,1336973.0,-90.93842,67.7622
2154.4,670948.5,-90.21248,67.768
4641.6,308760.6,-91.96089,67.7765
10000.0,153560.5,-92.50241,67.7611
