Frequency,Impedance,Phase Angle,Temperature (Dry Bath)
10.0,19359690.0,5.058206,68.0829
21.5,16751460.0,-33.02886,68.0796
46.4,24438850.0,-54.99462,68.0864
100.0,3382287.0,-15.28598,68.0769
215.4,3340073.0,-70.95734,68.0728
464.2,2767873.0,-70.24274,68.0706
1000.0,1055478.0,-81.99486,68.078
2154.4,522185.5,-83.33501,68.0784
4641.6,243910.8,-92.59682,68.072
10000.0,107525.4,-92.10491,68.0944
