Frequency,Impedance,Phase Angle,Temperature (Dry Bath)
10.0,154383.4,-6.340588,68.0037
21.5,147702.4,-5.334314,68.0024
46.4,142166.0,-4.825385,67.9913
100.0,133616.6,-5.332847,67.9905
215.4,136943.3,-6.324672,67.9903
464.2,131615.7,-8.065616,67.9995
1000.0,119065.4,-12.62439,67.9801
2154.4,113300.9,-20.66476,68.0017
4641.6,95645.1,-34.56192,68.0091
10000.0,72262.03,-55.39542,67.9956
