Frequency,Impedance,Phase Angle,Temperature (Dry Bath)
10.0,53357.1,-14.7663,70.9166
21.544346900318832,47718.49,-13.43781,70.9255
46.41588833612777,43202.91,-12.45651,70.9216
100.0,37084.75,-9.753109,70.9185
215.44346900318823,34440.58,-14.89297,70.9209
464.15888336127773,31940.15,-8.873956,70.9186
1000.0,27413.76,-11.05207,70.9228
2154.4346900318824,26903.37,-14.13424,70.9009
4641.588833612777,24912.36,-19.84041,70.9342
10000.0,19546.74,-29.25047,70.9104
