Frequency,Impedance,Phase Angle,Temperature (Dry Bath)
10.0,37530150.0,-14.72782,67.3486
21.5,29154350.0,-30.74875,67.3382
46.4,18990870.0,-44.24353,67.3512
100.0,7314274.0,-52.91828,67.3626
215.4,3956718.0,-119.3123,67.361
464.2,2330082.0,-84.76698,67.3454
1000.0,1354076.0,-85.31329,67.3669
2154.4,601087.6,-88.11409,67.3661
4641.6,279201.3,-89.05707,67.348
10000.0,131889.2,-86.53149,67.3715
