Frequency,Impedance,Phase Angle,Temperature (Dry Bath)
10.0,532945.3,-13.80031,71.2453
21.544346900318832,479223.9,-16.10406,71.2607
46.41588833612777,426036.6,-14.89571,71.2403
100.0,797372.2,16.39129,71.233
215.44346900318823,15252.69,-40.62072,71.2421
464.15888336127773,274701.8,-17.28792,71.2429
1000.0,306290.2,-25.71296,71.2541
2154.4346900318824,125176.8,-59.09394,71.2409
4641.588833612777,119065.9,-64.24114,71.2418
10000.0,54862.9,-65.45398,71.2495
