Frequency,Impedance,Phase Angle,Temperature (Dry Bath)
10.0,161027.1,-6.26526,67.8614
21.5,154388.2,-5.216684,67.8586
46.4,149119.4,-4.893668,67.8673
100.0,143791.6,-4.764266,67.8555
215.4,136509.2,-7.359825,67.8516
464.2,134199.6,-7.555739,67.8626
1000.0,126281.0,-13.25522,67.862
2154.4,117140.0,-19.70946,67.8541
4641.6,101475.7,-35.88817,67.8631
10000.0,69922.77,-53.65445,67.8893
