Frequency,Impedance,Phase Angle,Temperature (Dry Bath)
10.0,1554053.0,-9.642824,68.0196
21.5,1419071.0,-10.73903,68.0196
46.4,1278682.0,-11.29936,68.0196
100.0,1099996.0,-10.04184,68.0196
215.4,991766.1,-15.63893,68.0196
464.2,894250.9,-30.04266,68.0196
1000.0,694799.7,-36.96505,68.0196
2154.4,471229.7,-56.22631,68.0196
4641.6,268317.9,-71.74687,68.0196
10000.0,137960.2,-87.68268,68.0196
