Frequency,Impedance,Phase Angle,Temperature (Dry Bath)
10.0,41014570.0,-23.75787,68.3855
21.5,20899230.0,-49.82268,68.393
46.4,11157150.0,-55.95281,68.4168
100.0,6330986.0,-53.05566,68.3727
215.4,3111063.0,-84.17301,68.3787
464.2,1933102.0,-84.8742,68.3855
1000.0,997009.4,-73.30394,68.3884
2154.4,537260.8,-77.81354,68.4023
4641.6,261866.8,-81.73094,68.4067
10000.0,131157.8,-89.52081,68.3937
