Frequency,Impedance,Phase Angle,Temperature (Dry Bath)
10.0,31073800.0,-16.33319,68.1023
21.5,30191180.0,-31.95915,68.1032
46.4,25740630.0,-58.66249,68.1122
100.0,5391998.0,-106.0625,68.1078
215.4,4627853.0,-63.1295,68.1025
464.2,2068575.0,-82.88301,68.0975
1000.0,947545.6,-79.95086,68.0918
2154.4,528030.0,-80.53127,68.1012
4641.6,239883.5,-87.60395,68.0799
10000.0,119675.6,-93.97136,68.0833
