Frequency,Impedance,Phase Angle,Temperature (Dry Bath)
10.0,138156.6,-6.178242,67.4145
21.5,131928.9,-5.405511,67.4089
46.4,128072.4,-5.022677,67.4029
100.0,122953.3,-5.119823,67.4013
215.4,116846.1,-16.69459,67.4092
464.2,115030.7,-9.164899,67.4137
1000.0,110687.0,-10.99153,67.3965
2154.4,103401.5,-19.67655,67.4029
4641.6,87204.21,-32.81846,67.4159
10000.0,62096.46,-50.36209,67.3959
