Frequency,Impedance,Phase Angle,Temperature (Dry Bath)
10.0,29127870.0,-29.03595,67.0591
21.5,33622660.0,-35.29227,67.0727
46.4,16830480.0,-53.43614,67.0679
100.0,3054878.0,-68.80007,67.0756
215.4,3163400.0,-40.15101,67.0732
464.2,2004932.0,-90.73438,67.0956
1000.0,947997.9,-82.46221,67.0854
2154.4,473230.7,-85.85745,67.0624
4641.6,234006.2,-82.57383,67.0622
10000.0,116842.9,-80.26325,67.0728
