Frequency,Impedance,Phase Angle,Temperature (Dry Bath)
10.0,134018.2,-6.579594,67.0975
21.5,128030.0,-5.538407,67.0939
46.4,123771.2,-5.295914,67.0836
100.0,115799.4,-5.191085,67.0893
215.4,118367.1,-6.712898,67.0956
464.2,111831.6,-8.5141,67.0956
1000.0,107597.5,-12.78235,67.0944
2154.4,99130.76,-18.42886,67.0945
4641.6,80974.46,-32.97746,67.0976
10000.0,58785.93,-49.73152,67.1062
