Frequency,Impedance,Phase Angle,Temperature (Dry Bath)
10.0,113781.2,-28.43987,72.0211
21.544346900318832,91076.16,-27.7352,71.9926
46.41588833612777,70972.43,-28.65315,72.013
100.0,50100.49,-38.12654,72.0071
215.44346900318823,45700.5,-33.4491,71.9989
464.15888336127773,32777.06,-38.51437,72.0045
1000.0,26351.53,-31.03112,72.009
2154.4346900318824,17608.82,-29.86208,72.0002
4641.588833612777,15502.14,-24.85793,72.0282
10000.0,12585.25,-20.12468,72.0157
