Frequency,Impedance,Phase Angle,Temperature (Dry Bath)
10.0,22114000.0,-16.61081,68.1418
21.5,42332380.0,-32.77793,68.1368
46.4,33356630.0,-43.75148,68.1483
100.0,9593370.0,-87.93921,68.1237
215.4,3669606.0,-100.6695,68.1353
464.2,3207183.0,-77.6422,68.1317
1000.0,1538093.0,-82.87078,68.1274
2154.4,733210.1,-86.52508,68.1269
4641.6,310687.5,-90.346,68.1238
10000.0,146145.3,-98.15142,68.1453
