Frequency,Impedance,Phase Angle,Temperature (Dry Bath)
10.0,20806370.0,-23.42868,67.9337
21.5,22339710.0,-32.75195,67.9128
46.4,25077300.0,-59.38595,67.9254
100.0,5546342.0,-32.11572,67.9151
215.4,3557865.0,-70.39642,67.9257
464.2,1994735.0,-70.58453,67.924
1000.0,869241.7,-75.24687,67.9164
2154.4,517602.6,-76.01102,67.913
4641.6,275166.5,-79.89015,67.9098
10000.0,135049.7,-86.33414,67.9283
