Frequency,Impedance,Phase Angle,Temperature (Dry Bath)
10.0,9019462.0,64.36955,71.3042
21.544346900318832,6686848.0,3.645994,71.2936
46.41588833612777,4075101.0,-42.42814,71.3027
100.0,437111.6,-57.25786,71.2958
215.44346900318823,756812.9,14.10323,71.2959
464.15888336127773,12667450.0,171.4398,71.2898
1000.0,276217.4,-37.55902,71.313
2154.4346900318824,253066.1,-68.03803,71.3023
4641.588833612777,145751.1,-78.38076,71.3167
10000.0,62637.34,-83.35607,71.3011
