Frequency,Impedance,Phase Angle,Temperature (Dry Bath)
10.0,30729000.0,-37.41143,67.172
21.5,32442450.0,-50.95535,67.1768
46.4,12577020.0,-63.29091,67.1837
100.0,4422846.0,-2.711759,67.1922
215.4,3172717.0,-71.94187,67.184
464.2,2294557.0,-81.01332,67.1884
1000.0,827863.9,-79.11931,67.1958
2154.4,447496.3,-79.66681,67.1672
4641.6,216799.6,-83.73485,67.2003
10000.0,107001.4,-83.34246,67.1826
