Frequency,Impedance,Phase Angle,Temperature (Dry Bath)
10.0,166264.6,-6.349465,67.7237
21.5,159727.0,-5.101973,67.7206
46.4,154236.7,-4.766836,67.7148
100.0,150052.7,-6.447718,67.7212
215.4,151264.3,-6.994728,67.7324
464.2,147331.5,-7.550606,67.7213
1000.0,134781.4,-12.49711,67.7274
2154.4,120636.5,-21.99449,67.7113
4641.6,104835.5,-34.59256,67.7127
10000.0,73625.58,-55.3734,67.7198
