Frequency,Impedance,Phase Angle,Temperature (Dry Bath)
10.0,19319.22,-19.73928,68.0287
21.5,16619.92,-16.34572,68.0306
46.4,14716.35,-12.91417,68.0391
100.0,13626.59,-10.3478,68.0192
215.4,12518.78,-7.563052,68.042
464.2,12205.8,-5.584471,68.0385
1000.0,11641.64,-4.931738,68.0484
2154.4,11069.18,-5.648978,68.028
4641.6,10756.06,-6.792657,68.0417
10000.0,10514.61,-10.21976,68.0712
