Frequency,Impedance,Phase Angle,Temperature (Dry Bath)
10.0,2651616.0,5.200982,71.2297
21.544346900318832,2231031.0,-12.60817,71.226
46.41588833612777,2123882.0,-26.16166,71.2278
100.0,350388.7,45.23068,71.2055
215.44346900318823,283491.8,109.9929,71.2294
464.15888336127773,1278961.0,84.35206,71.2148
1000.0,437040.4,-156.3253,71.2043
2154.4346900318824,471469.7,-116.7472,71.2292
4641.588833612777,229728.8,-111.8506,71.2119
10000.0,108340.8,-74.62093,71.2149
