Frequency,Impedance,Phase Angle,Temperature (Dry Bath)
10.0,1562921.0,-8.256241,67.5026
21.5,1497685.0,-9.502627,67.5088
46.4,1385947.0,-12.60257,67.5027
100.0,1186709.0,-8.683265,67.4975
215.4,1653033.0,-25.4266,67.5152
464.2,870592.1,-34.74901,67.4917
1000.0,590081.4,-46.93239,67.4924
2154.4,346031.5,-59.74471,67.512
4641.6,196975.6,-67.2436,67.506
10000.0,101766.9,-73.33625,67.5194
