Frequency,Impedance,Phase Angle,Temperature (Dry Bath)
10.0,114071.8,-9.579418,67.2439
21.5,107338.2,-8.809398,67.2408
46.4,102470.6,-9.151481,67.2299
100.0,98480.37,-10.28675,67.2477
215.4,92721.6,-12.70235,67.2323
464.2,83490.58,-12.27217,67.2409
1000.0,78270.65,-16.37463,67.245
2154.4,66784.15,-21.12549,67.2481
4641.6,55394.9,-28.44285,67.2414
10000.0,42819.8,-38.5826,67.2382
