Frequency,Impedance,Phase Angle,Temperature (Dry Bath)
10.0,154099.4,-7.907741,67.3014
21.5,146703.4,-7.311356,67.2919
46.4,140494.5,-7.651225,67.3058
100.0,133198.2,-8.612866,67.3018
215.4,71277.77,-3.224084,67.2929
464.2,117197.5,-11.56993,67.2991
1000.0,109276.8,-16.8044,67.2911
2154.4,91053.8,-23.05766,67.2826
4641.6,74815.82,-33.82708,67.2955
10000.0,54108.32,-43.98423,67.2899
