Frequency,Impedance,Phase Angle,Temperature (Dry Bath)
10.0,254771.9,-5.852076,67.0666
21.5,245744.3,-5.55094,67.0527
46.4,237669.1,-6.068927,67.0416
100.0,234179.2,-6.181182,67.0706
215.4,218945.6,-12.13192,67.0627
464.2,204567.7,-15.67015,67.059
1000.0,175720.3,-23.97676,67.0688
2154.4,150328.9,-37.7414,67.0713
4641.6,100402.0,-51.2177,67.0601
10000.0,60086.24,-60.5777,67.0609
