Frequency,Impedance,Phase Angle,Temperature (Dry Bath)
10.0,8967410.0,11.92309,65.7698
21.544346900318832,6404025.0,-11.52208,65.753
46.41588833612777,4905702.0,-29.76695,65.7636
100.0,741646.8,-80.02171,65.7476
215.44346900318823,909294.6,168.7757,65.7699
464.15888336127773,788126.5,-102.6058,65.7471
1000.0,922505.7,-74.8058,65.7562
2154.4346900318824,374704.9,-84.19535,65.7395
4641.588833612777,139311.6,-87.93646,65.7522
10000.0,64722.18,-88.39489,65.7509
