Frequency,Impedance,Phase Angle,Temperature (Dry Bath)
10.0,2214892.0,-12.26652,67.9842
21.5,2175262.0,-12.98025,68.0021
46.4,2144364.0,-16.35585,67.9879
100.0,1550242.0,-24.83318,67.9972
215.4,1545283.0,-22.09554,67.9886
464.2,1206900.0,-33.55501,67.9985
1000.0,752263.6,-58.82799,67.986
2154.4,392903.0,-72.82914,67.9933
4641.6,216818.0,-71.98092,68.0027
10000.0,110249.0,-84.36473,67.9702
