Frequency,Impedance,Phase Angle,Temperature (Dry Bath)
10.0,19626710.0,-12.57559,68.2407
21.5,19208890.0,-40.41264,68.2407
46.4,15143330.0,-58.31028,68.2407
100.0,4765482.0,-37.2597,68.2407
215.4,4744000.0,-66.3821,68.2407
464.2,2214705.0,-75.86423,68.2407
1000.0,1168572.0,-79.63371,68.2407
2154.4,582336.4,-75.91664,68.2407
4641.6,325468.9,-81.65159,68.2407
10000.0,161712.0,-97.30776,68.2407
