Frequency,Impedance,Phase Angle,Temperature (Dry Bath)
10.0,17877750.0,-11.98105,68.1366
21.5,12932120.0,-29.4121,68.1573
46.4,19157960.0,-55.60773,68.1386
100.0,5112083.0,-28.94515,68.1401
215.4,4821847.0,-70.76966,68.1463
464.2,2246320.0,-72.73942,68.1448
1000.0,1040108.0,-84.82562,68.144
2154.4,528508.8,-90.09689,68.136
4641.6,237473.5,-89.23546,68.1546
10000.0,111797.7,-96.53267,68.1403
