Frequency,Impedance,Phase Angle,Temperature (Dry Bath)
10.0,4648271.0,-6.56435,71.5053
21.544346900318832,9275933.0,-12.6427,71.5001
46.41588833612777,5763461.0,-5.322665,71.5059
100.0,923918.4,36.43887,71.5216
215.44346900318823,6933864.0,-124.0174,71.5091
464.15888336127773,417986.1,88.57536,71.5034
1000.0,2494438.0,-72.47988,71.5201
2154.4346900318824,479547.2,-62.31556,71.5129
4641.588833612777,323530.7,-91.46233,71.5118
10000.0,172488.4,-82.90297,71.5135
