Frequency,Impedance,Phase Angle,Temperature (Dry Bath)
10.0,126724.2,-24.90759,67.2333
21.5,104593.4,-21.7197,67.2214
46.4,90591.61,-18.46981,67.2293
100.0,80901.41,-15.50396,67.2345
215.4,75397.14,3.187545,67.2467
464.2,65688.3,-12.87308,67.2352
1000.0,59975.91,-13.51781,67.2439
2154.4,55611.56,-17.27029,67.2429
4641.6,49170.37,-24.32712,67.2326
10000.0,39915.25,-36.41955,67.2412
