Frequency,Impedance,Phase Angle,Temperature (Dry Bath)
10.0,104185.8,-24.06458,68.3516
21.5,88370.22,-21.42072,68.3548
46.4,77069.98,-18.84273,68.3669
100.0,68276.89,-17.68749,68.3402
215.4,60691.21,-14.70813,68.3298
464.2,56023.13,-11.65286,68.3352
1000.0,51187.93,-13.9325,68.3345
2154.4,47539.18,-15.16347,68.3393
4641.6,43092.07,-22.03074,68.3545
10000.0,37221.03,-32.18077,68.3615
