Frequency,Impedance,Phase Angle,Temperature (Dry Bath)
10.0,114331.7,-9.581445,67.1951
21.5,107196.5,-8.654502,67.1909
46.4,102604.4,-9.063095,67.1896
100.0,96072.1,-9.943445,67.2041
215.4,93658.21,-11.24401,67.1959
464.2,84556.03,-13.29194,67.2049
1000.0,77960.22,-18.22743,67.1996
2154.4,67197.51,-20.95369,67.2261
4641.6,55240.55,-28.76931,67.2034
10000.0,42766.44,-37.84242,67.2092
