Frequency,Impedance,Phase Angle,Temperature (Dry Bath)
10.0,4143653.0,-4.728874,71.4866
21.544346900318832,6665488.0,-7.08777,71.4632
46.41588833612777,7080063.0,0.4227975,71.4521
100.0,1612559.0,-48.60013,71.4618
215.44346900318823,3328903.0,18.68665,71.4612
464.15888336127773,2629914.0,-38.22756,71.4569
1000.0,589497.3,-74.39402,71.4543
2154.4346900318824,570330.4,-85.69047,71.4724
4641.588833612777,434649.2,-85.43037,71.4562
10000.0,154913.3,-88.96766,71.4507
