Frequency,Impedance,Phase Angle,Temperature (Dry Bath)
10.0,3085493.0,0.875283,65.8264
21.544346900318832,4422543.0,10.46461,65.825
46.41588833612777,4860891.0,-35.31438,65.8226
100.0,371438.5,-59.25122,65.8237
215.44346900318823,22589.75,-168.3797,65.8332
464.15888336127773,1051212.0,-29.84992,65.8315
1000.0,625664.9,-67.73118,65.8339
2154.4346900318824,334556.8,-95.21929,65.8365
4641.588833612777,174358.7,-105.8216,65.8296
10000.0,70700.3,-85.92335,65.8392
