Frequency,Impedance,Phase Angle,Temperature (Dry Bath)
10.0,576919.5,-11.50851,68.2373
21.5,537216.0,-10.89458,68.2358
46.4,489106.4,-11.63995,68.2463
100.0,436889.5,-12.59972,68.2317
215.4,397520.2,-16.46704,68.2217
464.2,351987.7,-21.05532,68.2332
1000.0,283163.8,-29.0221,68.2351
2154.4,221957.3,-36.36397,68.234
4641.6,158490.9,-49.95877,68.2498
10000.0,108721.6,-62.97811,68.2503
