Frequency,Impedance,Phase Angle,Temperature (Dry Bath)
10.0,189213.2,-20.26422,65.7674
21.544346900318832,159683.6,-18.38262,65.7726
46.41588833612777,138314.5,-16.73264,65.7648
100.0,124230.4,-0.2346671,65.7602
215.44346900318823,4222.631,-23.47041,65.7685
464.15888336127773,96723.64,-13.49693,65.7608
1000.0,85897.34,-17.7003,65.7686
2154.4346900318824,69546.24,-20.58928,65.7666
4641.588833612777,60797.26,-43.45376,65.7796
10000.0,38705.96,-48.05902,65.7774
