Frequency,Impedance,Phase Angle,Temperature (Dry Bath)
10.0,38980360.0,-26.46617,67.405
21.5,24640590.0,-36.83747,67.4221
46.4,15553760.0,-69.85798,67.4244
100.0,5142037.0,-101.2391,67.4064
215.4,317043.9,85.95395,67.4096
464.2,2061851.0,-87.20065,67.4185
1000.0,1062523.0,-75.44033,67.4167
2154.4,462769.4,-83.90555,67.4018
4641.6,233001.8,-80.66342,67.4187
10000.0,124795.0,-78.90001,67.4175
