Frequency,Impedance,Phase Angle,Temperature (Dry Bath)
10.0,29074740.0,-11.67588,67.1116
21.5,23106880.0,-58.66563,67.1199
46.4,15657640.0,-57.93456,67.1077
100.0,5036542.0,-24.00208,67.1157
215.4,1729065.0,-84.29472,67.1087
464.2,2125686.0,-72.28404,67.1229
1000.0,892175.3,-81.02846,67.1161
2154.4,437984.7,-81.33569,67.1085
4641.6,237486.3,-84.24068,67.1046
10000.0,110938.7,-83.85997,67.0973
