Frequency,Impedance,Phase Angle,Temperature (Dry Bath)
10.0,189686.6,-20.13205,65.8017
21.544346900318832,161820.3,-18.12726,65.7995
46.41588833612777,142946.4,-15.61459,65.7991
100.0,102906.2,-27.94075,65.8076
215.44346900318823,12522.37,46.14297,65.8168
464.15888336127773,109503.7,-17.5435,65.8153
1000.0,86236.69,-21.33136,65.8166
2154.4346900318824,72560.84,-31.07541,65.8145
4641.588833612777,54786.37,-40.88781,65.8033
10000.0,40122.69,-49.85879,65.8088
