Frequency,Impedance,Phase Angle,Temperature (Dry Bath)
10.0,154671.3,-9.684718,71.4505
21.544346900318832,144940.1,-8.325325,71.4484
46.41588833612777,136830.5,-8.313012,71.441
100.0,128831.1,3.930512,71.4609
215.44346900318823,23451.63,-44.18183,71.4745
464.15888336127773,108532.9,-7.456342,71.4683
1000.0,141752.6,-21.61562,71.4664
2154.4346900318824,106220.4,-24.95053,71.4568
4641.588833612777,71941.94,-38.63688,71.4627
10000.0,47083.75,-58.58322,71.4646
