Frequency,Impedance,Phase Angle,Temperature (Dry Bath)
10.0,23537350.0,-7.413425,68.0001
21.5,22981350.0,-42.23075,67.99
46.4,17642780.0,-58.75105,67.9981
100.0,4806644.0,-44.4155,68.0006
215.4,3213509.0,-86.13601,67.9892
464.2,2014557.0,-84.57779,67.9933
1000.0,878150.3,-72.94621,67.9973
2154.4,481781.7,-77.84289,67.988
4641.6,264419.8,-84.0863,67.9893
10000.0,132966.1,-90.00022,67.9727
