Frequency,Impedance,Phase Angle,Temperature (Dry Bath)
10.0,140588.7,-5.654092,67.3209
21.5,135600.5,-4.680585,67.3049
46.4,131264.3,-4.794006,67.2939
100.0,129979.2,-4.992742,67.3006
215.4,114721.8,3.690207,67.3137
464.2,120772.6,-7.708239,67.3104
1000.0,112701.2,-11.3542,67.3112
2154.4,105898.4,-19.37422,67.2937
4641.6,90020.45,-32.83076,67.3102
10000.0,63766.58,-51.37852,67.3053
