Frequency,Impedance,Phase Angle,Temperature (Dry Bath)
10.0,21742380.0,-36.96302,67.1735
21.5,21463460.0,-50.44296,67.2006
46.4,13924300.0,-67.48372,67.1931
100.0,4762987.0,-4.946688,67.1898
215.4,2704593.0,-96.34651,67.1802
464.2,1628834.0,-85.80585,67.2047
1000.0,859424.4,-80.5084,67.2056
2154.4,441736.3,-81.66784,67.215
4641.6,225088.9,-82.02782,67.1998
10000.0,107501.2,-82.76528,67.2074
