Frequency,Impedance,Phase Angle,Temperature (Dry Bath)
10.0,42239650.0,-14.27153,67.3473
21.5,24013000.0,-30.46193,67.3528
46.4,21951100.0,-49.93763,67.3449
100.0,4439322.0,-35.13392,67.3522
215.4,4204470.0,-64.06549,67.3518
464.2,3343857.0,-98.62762,67.3395
1000.0,1237446.0,-80.53755,67.357
2154.4,602418.1,-86.59434,67.3646
4641.6,283376.5,-87.87281,67.3846
10000.0,135348.6,-87.65616,67.3782
