Frequency,Impedance,Phase Angle,Temperature (Dry Bath)
10.0,564225.3,-11.74268,67.9322
21.5,510288.7,-11.28237,67.9229
46.4,468155.6,-11.54573,67.9379
100.0,421851.1,-11.78192,67.9486
215.4,375100.7,-14.03636,67.9192
464.2,350206.0,-21.32513,67.9287
1000.0,274265.3,-29.49368,67.9278
2154.4,218170.0,-36.80022,67.9327
4641.6,160331.9,-48.12621,67.9393
10000.0,107376.6,-59.53326,67.9484
