Frequency,Impedance,Phase Angle,Temperature (Dry Bath)
10.0,4942483.0,-35.31583,65.7123
21.544346900318832,4524268.0,-16.06145,65.7264
46.41588833612777,5344292.0,-92.09654,65.7246
100.0,820135.5,-84.08034,65.7353
215.44346900318823,21806.88,-109.8835,65.7318
464.15888336127773,1682675.0,-22.89732,65.7272
1000.0,543707.1,-92.34288,65.716
2154.4346900318824,344509.5,-90.00995,65.7354
4641.588833612777,156968.5,-107.7492,65.7265
10000.0,75065.3,-82.69793,65.7285
