Frequency,Impedance,Phase Angle,Temperature (Dry Bath)
10.0,26941600.0,-16.82212,68.1925
21.5,19088400.0,-50.32186,68.1872
46.4,22684440.0,-46.16368,68.1949
100.0,4572603.0,-55.4937,68.1785
215.4,6733626.0,-71.41692,68.1869
464.2,2597031.0,-81.64246,68.1681
1000.0,1026481.0,-86.50959,68.1876
2154.4,491578.6,-90.45405,68.1845
4641.6,234516.1,-91.05257,68.1848
10000.0,114892.4,-96.46216,68.1746
