Frequency,Impedance,Phase Angle,Temperature (Dry Bath)
10.0,18038360.0,-20.05589,67.9595
21.5,18008470.0,-26.43496,67.9537
46.4,19820390.0,-49.76893,67.9759
100.0,6606619.0,-22.07435,67.964
215.4,4136073.0,-82.58267,67.9682
464.2,2551718.0,-77.39735,67.9767
1000.0,1118130.0,-81.23801,67.9561
2154.4,616378.5,-82.5227,67.967
4641.6,265346.2,-78.55361,67.9727
10000.0,151945.0,-87.62082,67.962
