Frequency,Impedance,Phase Angle,Temperature (Dry Bath)
10.0,1021543.0,-10.37103,68.007
21.5,932027.3,-10.50864,68.007
46.4,854850.2,-10.76857,68.007
100.0,715942.7,-11.86042,68.007
215.4,740477.2,-13.50643,68.007
464.2,616305.5,-18.35824,68.007
1000.0,533675.5,-27.13137,68.007
2154.4,437800.2,-40.27475,68.007
4641.6,314961.0,-55.99285,68.007
10000.0,183946.2,-81.76198,68.007
