Frequency,Impedance,Phase Angle,Temperature (Dry Bath)
10.0,1819882.0,-14.74066,66.357
21.544346900318832,1803960.0,-12.22459,66.3223
46.41588833612777,1439314.0,-10.48786,66.3596
100.0,763957.7,-41.65813,66.3462
215.44346900318823,630654.0,2.751373,66.3625
464.15888336127773,341785.3,-54.96715,66.3558
1000.0,443769.2,-77.61972,66.3399
2154.4346900318824,248942.2,-94.80474,66.3307
4641.588833612777,117410.0,-75.13654,66.3413
10000.0,56051.86,-78.89069,66.3458
