Frequency,Impedance,Phase Angle,Temperature (Dry Bath)
10.0,152609.9,-6.3145,68.1392
21.5,146974.5,-5.09573,68.1333
46.4,142014.4,-4.790904,68.1486
100.0,135859.6,-6.202197,68.1414
215.4,138261.7,-5.685917,68.1347
464.2,130800.6,-8.059164,68.1404
1000.0,121860.2,-10.11558,68.1377
2154.4,111559.9,-19.84417,68.1389
4641.6,104150.1,-32.05136,68.128
10000.0,73804.98,-49.48067,68.1434
