Frequency,Impedance,Phase Angle,Temperature (Dry Bath)
10.0,167982.0,-6.073635,67.9011
21.5,161503.2,-5.304311,67.8769
46.4,155773.4,-4.818505,67.8887
100.0,150495.2,-5.677783,67.8956
215.4,149770.2,-5.904974,67.877
464.2,139681.4,-7.633572,67.8925
1000.0,131839.3,-11.95317,67.8775
2154.4,123633.2,-22.40607,67.8713
4641.6,104494.9,-34.78469,67.8872
10000.0,73998.56,-55.91662,67.8525
