Frequency,Impedance,Phase Angle,Temperature (Dry Bath)
10.0,159567.1,-8.530284,65.7406
21.544346900318832,152394.6,-7.130586,65.7681
46.41588833612777,144183.1,-7.342935,65.7602
100.0,110954.3,-9.350421,65.7521
215.44346900318823,11439.82,-10.36149,65.7594
464.15888336127773,121290.8,-11.889,65.7571
1000.0,117746.4,-11.5055,65.7722
2154.4346900318824,90166.24,-35.6531,65.749
4641.588833612777,76684.01,-35.48492,65.7527
10000.0,49922.16,-59.26647,65.759
