Frequency,Impedance,Phase Angle,Temperature (Dry Bath)
10.0,1253923.0,-10.81261,68.1421
21.5,1178346.0,-9.733423,68.1421
46.4,1086453.0,-10.30065,68.1421
100.0,868887.1,-10.14654,68.1421
215.4,969408.5,-11.75398,68.1421
464.2,828720.8,-17.77587,68.1421
1000.0,716536.6,-27.57325,68.1421
2154.4,524031.2,-43.96733,68.1421
4641.6,316877.3,-66.03401,68.1421
10000.0,171866.6,-86.17566,68.1421
