Frequency,Impedance,Phase Angle,Temperature (Dry Bath)
10.0,22031800.0,-34.22365,68.2352
21.5,20960910.0,-38.96906,68.2365
46.4,11433200.0,-56.57241,68.2414
100.0,9300913.0,-100.4939,68.2303
215.4,10306720.0,-54.13535,68.2431
464.2,1915984.0,-99.17257,68.2347
1000.0,967246.9,-72.44821,68.2372
2154.4,574507.3,-83.60884,68.2515
4641.6,297536.2,-86.35092,68.2453
10000.0,150854.1,-91.86544,68.2483
