Frequency,Impedance,Phase Angle,Temperature (Dry Bath)
10.0,138898.7,-5.850233,67.2068
21.5,133292.5,-4.978698,67.2178
46.4,128977.1,-4.788818,67.1908
100.0,124856.0,-5.762731,67.1998
215.4,122370.9,-2.790581,67.1976
464.2,117119.0,-7.700322,67.1927
1000.0,109425.9,-12.94774,67.2044
2154.4,104169.2,-20.87492,67.1935
4641.6,86379.77,-32.95311,67.1879
10000.0,61056.17,-51.15958,67.2066
