Frequency,Impedance,Phase Angle,Temperature (Dry Bath)
10.0,116967.7,-25.01095,68.1718
21.5,98099.26,-22.10637,68.1898
46.4,84398.17,-19.17848,68.1884
100.0,71573.28,-16.81758,68.1764
215.4,66710.94,-13.70783,68.2054
464.2,61944.29,-12.74581,68.1912
1000.0,54937.86,-12.89455,68.1914
2154.4,51245.0,-15.70029,68.2069
4641.6,45427.6,-21.98002,68.1877
10000.0,39701.61,-33.38679,68.1854
