Frequency,Impedance,Phase Angle,Temperature (Dry Bath)
10.0,19199990.0,-20.97574,67.4756
21.5,24171240.0,-31.55965,67.4644
46.4,19695830.0,-64.23712,67.4672
100.0,2756519.0,-55.05766,67.4758
215.4,147151.9,96.2622,67.4781
464.2,2099329.0,-77.48292,67.4834
1000.0,1041165.0,-79.29813,67.4699
2154.4,531872.5,-80.86336,67.4729
4641.6,262589.6,-81.24118,67.4739
10000.0,132151.8,-78.6631,67.4788
