Frequency,Impedance,Phase Angle,Temperature (Dry Bath)
10.0,674154.4,-11.04589,68.1895
21.5,636912.8,-10.18328,68.1696
46.4,601336.4,-11.22266,68.1596
100.0,486910.2,-13.45222,68.1737
215.4,517646.4,-17.13713,68.1735
464.2,426964.2,-22.71431,68.1879
1000.0,346943.9,-30.9259,68.187
2154.4,271439.4,-39.86819,68.1852
4641.6,175168.5,-53.54754,68.174
10000.0,111393.0,-66.09084,68.1794
