Frequency,Impedance,Phase Angle,Temperature (Dry Bath)
10.0,30573940.0,-17.88418,67.1114
21.5,23672760.0,-26.53043,67.1058
46.4,15397560.0,-53.16129,67.1265
100.0,6667420.0,-134.3312,67.1071
215.4,5536583.0,-46.23094,67.097
464.2,2242631.0,-91.37179,67.1087
1000.0,933743.2,-82.10242,67.0974
2154.4,479922.1,-84.70441,67.1076
4641.6,234718.6,-79.38141,67.1164
10000.0,115835.2,-79.10728,67.1164
