Frequency,Impedance,Phase Angle,Temperature (Dry Bath)
10.0,4225609.0,-17.7,70.9244
21.544346900318832,3877690.0,19.73895,70.924
46.41588833612777,3419374.0,-31.43059,70.9145
100.0,474344.0,-60.15854,70.9159
215.44346900318823,571650.2,-78.61794,70.9158
464.15888336127773,426545.3,-100.8973,70.9084
1000.0,1159979.0,-135.3694,70.9247
2154.4346900318824,313494.3,-94.95717,70.9081
4641.588833612777,80259.91,-77.43133,70.9242
10000.0,45834.02,-86.79997,70.9282
