Frequency,Impedance,Phase Angle,Temperature (Dry Bath)
10.0,14857910.0,-10.47686,68.0838
21.5,17880920.0,-31.19893,68.0838
46.4,17547990.0,-54.87893,68.0838
100.0,4831871.0,-70.97624,68.0838
215.4,4835248.0,-72.16487,68.0838
464.2,1953791.0,-97.14921,68.0838
1000.0,818027.4,-85.79843,68.0838
2154.4,456084.9,-85.88078,68.0838
4641.6,229740.5,-82.47078,68.0838
10000.0,105577.7,-88.94343,68.0838
