Frequency,Impedance,Phase Angle,Temperature (Dry Bath)
10.0,2448546.0,-12.03147,68.1367
21.5,2323666.0,-10.43714,68.1367
46.4,2460906.0,-15.0498,68.1367
100.0,1626697.0,-22.05133,68.1367
215.4,2381372.0,-31.66182,68.1367
464.2,1352942.0,-48.76824,68.1367
1000.0,929390.0,-57.28918,68.1367
2154.4,510060.2,-68.77971,68.1367
4641.6,270678.4,-73.53641,68.1367
10000.0,144926.8,-88.8391,68.1367
