Frequency,Impedance,Phase Angle,Temperature (Dry Bath)
10.0,273083.3,-9.11292,66.995
21.5,258073.9,-8.11076,66.9997
46.4,245736.3,-7.691792,66.9984
100.0,231617.1,-6.906314,67.0023
215.4,251140.6,0.9378071,67.0033
464.2,212166.5,-15.1147,67.0033
1000.0,187227.9,-23.16227,67.0026
2154.4,153250.6,-34.74227,66.9875
4641.6,105446.1,-49.35448,67.0056
10000.0,63277.21,-61.31581,67.0073
