Frequency,Impedance,Phase Angle,Temperature (Dry Bath)
10.0,22164510.0,-17.51492,68.1069
21.5,27007180.0,-28.55012,68.081
46.4,26859960.0,-52.58071,68.0989
100.0,3664725.0,-100.3715,68.0902
215.4,5575459.0,-111.4741,68.0845
464.2,2020300.0,-79.73826,68.0854
1000.0,1155487.0,-82.30145,68.0881
2154.4,502485.2,-82.71098,68.087
4641.6,307574.4,-83.35079,68.0883
10000.0,141213.0,-84.33399,68.0735
