Frequency,Impedance,Phase Angle,Temperature (Dry Bath)
10.0,153070.1,-9.897459,71.3597
21.544346900318832,146255.6,-8.287244,71.359
46.41588833612777,137300.1,-8.51245,71.3803
100.0,146610.5,-6.278315,71.3714
215.44346900318823,106760.0,27.71263,71.3714
464.15888336127773,114179.7,-12.22926,71.3672
1000.0,115630.8,-13.71966,71.3668
2154.4346900318824,98547.4,-38.83089,71.3754
4641.588833612777,66120.75,-34.5544,71.3684
10000.0,39205.01,-65.94129,71.3647
