Frequency,Impedance,Phase Angle,Temperature (Dry Bath)
10.0,153125.7,-6.454222,68.2796
21.5,146789.6,-5.241142,68.2796
46.4,142010.9,-4.860065,68.2796
100.0,136299.9,-5.5992,68.2796
215.4,130853.4,-6.415883,68.2796
464.2,126392.9,-7.409083,68.2796
1000.0,123632.4,-11.97807,68.2796
2154.4,113379.4,-19.94727,68.2796
4641.6,97820.56,-33.92826,68.2796
10000.0,71425.57,-54.48977,68.2796
