Frequency,Impedance,Phase Angle,Temperature (Dry Bath)
10.0,196818.0,-26.25992,66.3676
21.544346900318832,158372.6,-24.18171,66.3762
46.41588833612777,130201.7,-22.18646,66.3856
100.0,98089.31,-4.699048,66.3555
215.44346900318823,94255.43,-14.22216,66.3725
464.15888336127773,86752.02,-15.12281,66.3647
1000.0,64219.95,-18.6016,66.3704
2154.4346900318824,55671.52,-23.66958,66.3602
4641.588833612777,46606.93,-37.27845,66.3683
10000.0,35861.23,-50.51856,66.3654
