Frequency,Impedance,Phase Angle,Temperature (Dry Bath)
10.0,135038.8,-6.424744,67.0914
21.5,129544.5,-5.37788,67.1128
46.4,124823.3,-5.017048,67.1273
100.0,119438.1,-5.300685,67.1273
215.4,118283.0,-5.208422,67.1204
464.2,112815.8,-8.042987,67.1178
1000.0,106409.0,-11.60449,67.1192
2154.4,100260.5,-20.64303,67.1071
4641.6,84840.43,-33.13688,67.1042
10000.0,60142.31,-50.71892,67.1128
