Frequency,Impedance,Phase Angle,Temperature (Dry Bath)
10.0,80122.78,-11.63274,70.9592
21.544346900318832,73052.01,-9.706582,70.9533
46.41588833612777,68009.19,-8.65561,70.9399
100.0,58576.34,-0.9766951,70.9452
215.44346900318823,49790.14,-6.372565,70.9548
464.15888336127773,59257.52,-3.727744,70.9524
1000.0,51051.88,-6.507117,70.9478
2154.4346900318824,51333.93,-9.797111,70.9434
4641.588833612777,49113.68,-19.40329,70.9516
10000.0,40681.06,-24.64959,70.9507
