Frequency,Impedance,Phase Angle,Temperature (Dry Bath)
10.0,29880280.0,-22.82763,68.2448
21.5,28541200.0,-19.05066,68.2489
46.4,36944540.0,-39.53692,68.2579
100.0,4892731.0,-62.63559,68.262
215.4,5991650.0,-93.40766,68.2589
464.2,2510192.0,-82.25312,68.2601
1000.0,1447882.0,-87.46243,68.2564
2154.4,725065.6,-86.22436,68.2716
4641.6,332741.6,-88.81033,68.2583
10000.0,149434.1,-100.2836,68.2661
