Frequency,Impedance,Phase Angle,Temperature (Dry Bath)
10.0,152693.2,-6.42346,68.291
21.5,146826.8,-5.233511,68.2892
46.4,141905.8,-4.789757,68.2876
100.0,133937.7,-3.477833,68.2929
215.4,134180.9,-5.241649,68.2788
464.2,130361.9,-7.835321,68.2757
1000.0,120027.5,-12.62964,68.2807
2154.4,112355.6,-18.94553,68.2818
4641.6,101285.2,-34.69178,68.2849
10000.0,71329.34,-53.2037,68.2589
