Frequency,Impedance,Phase Angle,Temperature (Dry Bath)
10.0,771641.9,-9.656657,67.9058
21.5,709774.1,-8.881076,67.9144
46.4,657852.9,-10.29008,67.9104
100.0,579949.4,-16.009,67.9084
215.4,560418.2,-21.01689,67.9102
464.2,471477.7,-21.67475,67.8975
1000.0,385171.8,-34.82849,67.9166
2154.4,285317.5,-50.5001,67.9123
4641.6,185201.4,-59.10297,67.9201
10000.0,101655.1,-73.56442,67.9318
