Frequency,Impedance,Phase Angle,Temperature (Dry Bath)
10.0,126344.5,-24.88082,67.2134
21.5,104960.1,-21.70844,67.2249
46.4,89765.49,-18.51,67.2365
100.0,80580.03,-15.91676,67.2334
215.4,83782.97,-32.48502,67.2352
464.2,65829.93,-12.56528,67.2119
1000.0,59869.39,-13.80315,67.2087
2154.4,55435.18,-17.61079,67.2067
4641.6,48606.04,-23.63,67.2308
10000.0,40024.13,-36.03446,67.2466
