Frequency,Impedance,Phase Angle,Temperature (Dry Bath)
10.0,30417970.0,-22.65521,67.3274
21.5,23812040.0,-49.00326,67.3212
46.4,15826310.0,-53.70482,67.3245
100.0,4627849.0,-47.47494,67.3042
215.4,2493143.0,-57.09547,67.3105
464.2,2012271.0,-82.04954,67.3187
1000.0,1001781.0,-94.38946,67.302
2154.4,474405.5,-81.27507,67.2954
4641.6,235376.3,-79.93335,67.3067
10000.0,119414.5,-80.37383,67.3146
