Frequency,Impedance,Phase Angle,Temperature (Dry Bath)
10.0,484723.1,-25.60326,71.0906
21.544346900318832,409079.1,-22.23157,71.0976
46.41588833612777,333215.4,-21.13374,71.0829
100.0,280651.3,-34.23611,71.0953
215.44346900318823,322752.7,-48.46832,71.0785
464.15888336127773,209341.9,-2.603132,71.0903
1000.0,203200.8,-19.3283,71.0889
2154.4346900318824,111063.9,-37.55362,71.0811
4641.588833612777,71317.17,-49.85362,71.08
10000.0,45712.2,-76.55628,71.0691
