Frequency,Impedance,Phase Angle,Temperature (Dry Bath)
10.0,26902840.0,-19.27737,67.1545
21.5,19670970.0,-31.60873,67.1759
46.4,13216990.0,-30.93494,67.161
100.0,3046477.0,-61.37646,67.1675
215.4,702888.5,-113.2847,67.1765
464.2,1826487.0,-87.84579,67.1731
1000.0,971542.8,-83.39655,67.181
2154.4,473859.3,-79.90869,67.1565
4641.6,240810.1,-80.84315,67.1672
10000.0,117071.0,-79.98407,67.1715
