Frequency,Impedance,Phase Angle,Temperature (Dry Bath)
10.0,20525.6,-20.51521,71.0987
21.544346900318832,17163.07,-21.80938,71.1194
46.41588833612777,14104.69,-23.09359,71.1085
100.0,11726.73,-21.61482,71.1065
215.44346900318823,9376.618,-22.86254,71.1103
464.15888336127773,7332.615,-23.27169,71.1125
1000.0,6125.052,-24.41937,71.1142
2154.4346900318824,5023.952,-22.43841,71.1084
4641.588833612777,4191.155,-20.76432,71.1093
10000.0,3490.464,-18.15014,71.1033
