Frequency,Impedance,Phase Angle,Temperature (Dry Bath)
10.0,13397390.0,-14.67887,68.0521
21.5,14620480.0,-32.09574,68.0521
46.4,21011290.0,-56.44598,68.0521
100.0,6901402.0,-33.32322,68.0521
215.4,4075428.0,-72.15159,68.0521
464.2,2390426.0,-72.2697,68.0521
1000.0,1101401.0,-79.51989,68.0521
2154.4,599431.1,-80.18065,68.0521
4641.6,327350.8,-77.66602,68.0521
10000.0,162391.8,-97.54559,68.0521
