Frequency,Impedance,Phase Angle,Temperature (Dry Bath)
10.0,3924137.0,-7.324126,70.766
21.544346900318832,7758929.0,8.634134,70.7637
46.41588833612777,3975563.0,-22.16428,70.764
100.0,297419.4,-9.961614,70.77
215.44346900318823,1353925.0,-129.0221,70.7735
464.15888336127773,1133131.0,-151.8995,70.7694
1000.0,151432.4,-104.5007,70.7466
2154.4346900318824,286005.5,-85.54317,70.754
4641.588833612777,212892.2,-90.14225,70.7423
10000.0,66027.83,-81.14116,70.7462
