Frequency,Impedance,Phase Angle,Temperature (Dry Bath)
10.0,5074427.0,-43.6672,65.744
21.544346900318832,4859918.0,-11.65184,65.7289
46.41588833612777,7322319.0,-5.462175,65.7412
100.0,517711.6,22.03183,65.7427
215.44346900318823,17754.4,178.2841,65.7451
464.15888336127773,1397715.0,86.5871,65.7262
1000.0,637449.9,-80.45544,65.7398
2154.4346900318824,304277.3,-98.51681,65.7362
4641.588833612777,139517.7,-84.28483,65.7374
10000.0,71970.41,-81.93329,65.7558
