Frequency,Impedance,Phase Angle,Temperature (Dry Bath)
10.0,10660.59,-25.66517,70.8696
21.544346900318832,8727.268,-22.21222,70.8379
46.41588833612777,7348.032,-19.0565,70.8617
100.0,6318.821,-15.55685,70.861
215.44346900318823,5655.893,-13.75293,70.8463
464.15888336127773,5115.582,-11.60641,70.8623
1000.0,4715.623,-9.953375,70.8471
2154.4346900318824,4383.061,-9.493408,70.8507
4641.588833612777,4106.6,-9.887388,70.846
10000.0,3835.813,-11.15312,70.8492
