Frequency,Impedance,Phase Angle,Temperature (Dry Bath)
10.0,31444390.0,-25.94494,67.0683
21.5,32594620.0,-21.101,67.0575
46.4,18156090.0,-52.25019,67.0607
100.0,6091173.0,-60.31934,67.0637
215.4,3882351.0,-125.1958,67.0745
464.2,2449692.0,-99.09486,67.0515
1000.0,1139321.0,-89.20845,67.0894
2154.4,545293.1,-89.76142,67.0687
4641.6,263868.9,-84.23502,67.0595
10000.0,126656.1,-87.52829,67.0709
