Frequency,Impedance,Phase Angle,Temperature (Dry Bath)
10.0,5810409.0,-16.01254,67.914
21.5,5200858.0,-17.1858,67.9119
46.4,5784855.0,-23.25379,67.9224
100.0,2555146.0,-10.46445,67.9328
215.4,1967880.0,-20.48724,67.9235
464.2,2073435.0,-82.38523,67.9147
1000.0,763371.1,-74.42967,67.9199
2154.4,458889.9,-75.14809,67.9069
4641.6,215013.1,-84.16985,67.9046
10000.0,115696.7,-85.61787,67.9264
