Frequency,Impedance,Phase Angle,Temperature (Dry Bath)
10.0,388019.2,-10.94319,67.0491
21.5,307248.2,-9.389704,67.0668
46.4,324974.8,-11.56752,67.0503
100.0,304190.5,-15.26482,67.0627
215.4,290714.3,-21.32303,67.0593
464.2,265093.9,-17.7653,67.0662
1000.0,215638.7,-23.81485,67.0692
2154.4,174330.4,-32.04476,67.0744
4641.6,128203.5,-44.18111,67.07
10000.0,81557.79,-55.32554,67.0675
