Frequency,Impedance,Phase Angle,Temperature (Dry Bath)
10.0,72204.99,-14.55153,71.5006
21.544346900318832,64560.13,-13.26487,71.5065
46.41588833612777,58444.21,-12.01959,71.4991
100.0,54336.59,-15.76342,71.4871
215.44346900318823,53866.24,-14.1419,71.5044
464.15888336127773,45255.13,-12.35785,71.517
1000.0,44063.15,-12.36702,71.4933
2154.4346900318824,39403.8,-16.01024,71.5062
4641.588833612777,37630.79,-16.09187,71.505
10000.0,32437.5,-24.32375,71.5058
