Frequency,Impedance,Phase Angle,Temperature (Dry Bath)
10.0,31829880.0,-16.54811,67.033
21.5,22746180.0,-50.67099,67.0224
46.4,17369160.0,-66.32671,67.0323
100.0,12715410.0,-52.69213,67.0361
215.4,3269407.0,-104.1129,67.0312
464.2,1981184.0,-87.28088,67.0185
1000.0,939009.5,-71.07372,67.026
2154.4,463788.3,-82.88477,67.0298
4641.6,218924.9,-80.70124,67.0337
10000.0,109927.2,-83.21902,67.0293
