Frequency,Impedance,Phase Angle,Temperature (Dry Bath)
10.0,24464210.0,-29.00743,66.9911
21.5,28237310.0,-50.39347,67.012
46.4,14627280.0,-61.58097,66.9906
100.0,4186918.0,-66.93116,66.9861
215.4,6001990.0,-54.12738,66.9861
464.2,1683208.0,-91.2451,67.0082
1000.0,929225.1,-77.31366,66.987
2154.4,473657.6,-82.24987,66.9894
4641.6,217951.7,-81.33787,66.9835
10000.0,108064.1,-84.28492,67.0183
