Frequency,Impedance,Phase Angle,Temperature (Dry Bath)
10.0,158463.1,-8.881187,71.267
21.544346900318832,148159.3,-9.484662,71.2637
46.41588833612777,140568.8,-7.943579,71.2694
100.0,159545.9,-0.3724587,71.2736
215.44346900318823,14576.84,-52.55842,71.2624
464.15888336127773,114872.5,-11.33366,71.2641
1000.0,83968.98,-9.929344,71.2571
2154.4346900318824,86537.82,-33.03633,71.2649
4641.588833612777,72447.8,-48.22698,71.2569
10000.0,42292.29,-59.67904,71.2719
