Frequency,Impedance,Phase Angle,Temperature (Dry Bath)
10.0,28779830.0,-16.25106,67.1689
21.5,30171490.0,-22.63128,67.1663
46.4,14709840.0,-74.6239,67.1626
100.0,5480028.0,-103.9969,67.1618
215.4,1092221.0,156.4532,67.1694
464.2,2701861.0,-59.35807,67.1692
1000.0,1198277.0,-84.82755,67.161
2154.4,582510.3,-91.33898,67.1675
4641.6,270346.7,-86.03532,67.1776
10000.0,129577.8,-85.6266,67.1865
