Frequency,Impedance,Phase Angle,Temperature (Dry Bath)
10.0,35815760.0,-11.07175,67.4267
21.5,34286220.0,-14.01965,67.4337
46.4,21277600.0,-63.96021,67.4267
100.0,3482772.0,-27.35857,67.4304
215.4,231693.8,59.61322,67.4408
464.2,2236405.0,-81.35407,67.4389
1000.0,1166083.0,-87.41653,67.4249
2154.4,567353.9,-89.05825,67.4263
4641.6,276405.1,-88.95848,67.4274
10000.0,129607.4,-86.27071,67.4389
