Frequency,Impedance,Phase Angle,Temperature (Dry Bath)
10.0,33149390.0,-34.43004,68.0875
21.5,32292540.0,-36.8963,68.0697
46.4,31546120.0,-50.13979,68.0612
100.0,6580784.0,2.358354,68.0661
215.4,4319858.0,-70.41954,68.0689
464.2,1925447.0,-78.11208,68.0534
1000.0,1000861.0,-81.25641,68.0559
2154.4,523320.6,-86.43886,68.0571
4641.6,276145.1,-87.65122,68.0768
10000.0,147420.9,-88.30729,68.0597
