Frequency,Impedance,Phase Angle,Temperature (Dry Bath)
10.0,31883850.0,-26.69802,67.2711
21.5,28100740.0,-32.23218,67.2734
46.4,18250070.0,-54.93614,67.2571
100.0,2853038.0,-66.39651,67.266
215.4,2741344.0,-82.27468,67.2661
464.2,2095766.0,-94.29997,67.2543
1000.0,1237148.0,-78.25541,67.2485
2154.4,474152.0,-86.59932,67.2468
4641.6,225098.7,-85.24491,67.2529
10000.0,111751.2,-83.33392,67.2572
