Frequency,Impedance,Phase Angle,Temperature (Dry Bath)
10.0,1639001.0,-10.10479,67.1474
21.5,1508308.0,-11.47266,67.1843
46.4,1470137.0,-9.407599,67.1625
100.0,943923.7,-4.977541,67.1706
215.4,2316952.0,84.17024,67.162
464.2,1003320.0,-41.31048,67.1761
1000.0,569324.8,-52.85011,67.1587
2154.4,334506.9,-64.32538,67.1706
4641.6,189960.5,-68.66993,67.1563
10000.0,99295.79,-71.90856,67.1512
