Frequency,Impedance,Phase Angle,Temperature (Dry Bath)
10.0,409266.7,-26.37308,70.9921
21.544346900318832,338087.4,-21.27971,70.9675
46.41588833612777,283869.8,-21.03623,71.0007
100.0,162410.8,-23.09816,70.9973
215.44346900318823,261838.8,-2.39553,70.9838
464.15888336127773,154787.1,-28.70967,70.9645
1000.0,125776.5,-21.05528,71.0018
2154.4346900318824,119659.0,-28.42402,70.994
4641.588833612777,77111.85,-49.59851,70.9727
10000.0,45760.87,-64.2926,70.9743
