Frequency,Impedance,Phase Angle,Temperature (Dry Bath)
10.0,161098.7,-6.344542,67.9534
21.5,154846.5,-5.284589,67.9418
46.4,149674.3,-4.857557,67.9548
100.0,144786.6,-3.071915,67.9516
215.4,143135.4,-4.318612,67.961
464.2,137300.9,-8.801181,67.9474
1000.0,130749.6,-11.7099,67.9449
2154.4,120328.3,-19.3572,67.96
4641.6,96841.98,-34.6527,67.9546
10000.0,78239.01,-55.35384,67.9678
