Frequency,Impedance,Phase Angle,Temperature (Dry Bath)
10.0,15212910.0,-18.97492,68.0838
21.5,22067000.0,-45.08878,68.0838
46.4,17880410.0,-62.0314,68.0838
100.0,5129138.0,-57.67169,68.0838
215.4,5862321.0,-62.33353,68.0838
464.2,1743722.0,-79.35462,68.0838
1000.0,1015540.0,-82.39196,68.0838
2154.4,527803.8,-82.20606,68.0838
4641.6,281219.3,-83.71486,68.0838
10000.0,136414.3,-92.9267,68.0838
