Frequency,Impedance,Phase Angle,Temperature (Dry Bath)
10.0,12283.84,-4.686098,67.0143
21.5,11972.27,-3.976349,67.0516
46.4,11749.2,-3.783134,67.0472
100.0,11537.48,-3.215945,67.0473
215.4,11384.84,-3.915773,67.0516
464.2,11209.15,-3.771654,67.0617
1000.0,10917.9,-4.044282,67.0478
2154.4,10718.73,-4.495083,67.0381
4641.6,10467.22,-6.22538,67.0392
10000.0,10160.27,-9.67063,67.0442
