Frequency,Impedance,Phase Angle,Temperature (Dry Bath)
10.0,2068426.0,-10.93414,67.3788
21.5,1889013.0,-11.92941,67.3934
46.4,1755270.0,-14.86449,67.3851
100.0,1392701.0,2.229394,67.3934
215.4,1180802.0,-28.38046,67.3825
464.2,1120201.0,-35.17071,67.4054
1000.0,653476.5,-60.45148,67.389
2154.4,364744.9,-66.83827,67.3789
4641.6,201814.0,-70.76318,67.3868
10000.0,108643.6,-73.4161,67.3854
