Frequency,Impedance,Phase Angle,Temperature (Dry Bath)
10.0,194095.9,-27.54448,65.8004
21.544346900318832,155384.6,-24.68064,65.8019
46.41588833612777,128121.2,-22.44194,65.8045
100.0,91699.6,-9.866757,65.7943
215.44346900318823,5163.848,38.44144,65.8016
464.15888336127773,79164.06,-15.25038,65.7936
1000.0,65352.98,-24.94999,65.7921
2154.4346900318824,65059.95,-26.68191,65.7828
4641.588833612777,54199.52,-34.10787,65.7945
10000.0,42041.12,-50.23375,65.7952
