Frequency,Impedance,Phase Angle,Temperature (Dry Bath)
10.0,21745550.0,-9.081968,67.9888
21.5,25185630.0,-38.89727,67.9996
46.4,24196320.0,-51.02262,68.0042
100.0,6571039.0,-56.4302,67.9963
215.4,5267655.0,-87.51151,67.9847
464.2,2027273.0,-87.0378,68.0142
1000.0,1005073.0,-82.96528,67.9987
2154.4,527714.7,-89.86606,68.0103
4641.6,223155.7,-93.12173,68.0061
10000.0,116245.8,-94.16602,68.0218
