Frequency,Impedance,Phase Angle,Temperature (Dry Bath)
10.0,3633389.0,2.856786,71.4107
21.544346900318832,5519988.0,-9.086058,71.3988
46.41588833612777,4418384.0,-12.06559,71.3985
100.0,839603.4,150.5979,71.403
215.44346900318823,915630.7,84.69544,71.4067
464.15888336127773,625984.1,-106.0509,71.3948
1000.0,837144.7,-173.1189,71.4069
2154.4346900318824,280006.4,-69.86295,71.4075
4641.588833612777,140323.1,-96.32346,71.4075
10000.0,57328.47,-86.87761,71.406
