Frequency,Impedance,Phase Angle,Temperature (Dry Bath)
10.0,5423547.0,-46.83415,71.4058
21.544346900318832,4865155.0,-2.05465,71.4133
46.41588833612777,3597151.0,-11.81968,71.394
100.0,679534.7,-75.20298,71.3848
215.44346900318823,938805.7,-20.1717,71.3897
464.15888336127773,2177572.0,-168.1302,71.3922
1000.0,804477.9,-85.68527,71.3862
2154.4346900318824,460314.7,-53.03138,71.3948
4641.588833612777,276468.6,-89.23541,71.3985
10000.0,157617.6,-79.04287,71.3743
