Frequency,Impedance,Phase Angle,Temperature (Dry Bath)
10.0,680891.6,-9.435934,66.9892
21.5,631294.1,-9.587756,67.0151
46.4,593712.1,-10.92925,66.9898
100.0,555011.8,-4.486091,66.9704
215.4,494051.6,-11.55395,66.9896
464.2,469157.7,-20.39381,66.9744
1000.0,357755.5,-34.4854,66.9909
2154.4,257983.8,-46.45599,66.9836
4641.6,163533.5,-58.64054,66.9781
10000.0,94279.0,-66.94227,66.9805
