Frequency,Impedance,Phase Angle,Temperature (Dry Bath)
10.0,1230187.0,-11.61344,65.7881
21.544346900318832,1040275.0,-11.95339,65.7754
46.41588833612777,962245.3,-16.38657,65.7677
100.0,3498457.0,-179.856,65.7859
215.44346900318823,18401.54,-118.1829,65.7711
464.15888336127773,537139.9,-44.7707,65.776
1000.0,302272.9,-27.21861,65.7634
2154.4346900318824,260614.8,-69.0274,65.7691
4641.588833612777,157353.8,-79.99196,65.7729
10000.0,62022.6,-84.02401,65.7842
