Frequency,Impedance,Phase Angle,Temperature (Dry Bath)
10.0,193007.2,-24.98459,65.7449
21.544346900318832,150615.1,-24.93553,65.7358
46.41588833612777,122771.8,-21.9258,65.7279
100.0,75159.35,-35.0335,65.7305
215.44346900318823,92385.88,13.22806,65.7429
464.15888336127773,74737.66,-15.42488,65.7328
1000.0,71998.5,-19.51204,65.7312
2154.4346900318824,61532.26,-23.87431,65.7426
4641.588833612777,49575.57,-39.94733,65.7399
10000.0,35088.23,-48.68556,65.7202
