Frequency,Impedance,Phase Angle,Temperature (Dry Bath)
10.0,37682170.0,-45.15097,67.6606
21.5,33514050.0,-32.45047,67.6881
46.4,17158530.0,-51.32689,67.6997
100.0,5881635.0,-31.79083,67.6905
215.4,3056633.0,-67.51104,67.6777
464.2,1987995.0,-80.2083,67.6901
1000.0,911748.1,-74.13736,67.6991
2154.4,532998.4,-73.63502,67.6838
4641.6,272489.7,-83.4199,67.6888
10000.0,136354.6,-86.94203,67.6874
