Frequency,Impedance,Phase Angle,Temperature (Dry Bath)
10.0,161337.8,-6.402143,67.964
21.5,154819.2,-5.228235,67.9546
46.4,149001.5,-4.897117,67.9966
100.0,138956.1,-5.602071,67.9908
215.4,139648.5,-5.528595,67.9672
464.2,131456.0,-9.017214,67.9804
1000.0,127262.9,-12.92477,67.9726
2154.4,121771.3,-19.38917,67.9763
4641.6,98251.38,-33.94493,67.9836
10000.0,72680.68,-55.41167,67.9847
