Frequency,Impedance,Phase Angle,Temperature (Dry Bath)
10.0,23040700.0,-28.0349,68.159
21.5,23812860.0,-46.7027,68.1603
46.4,24362450.0,-53.28819,68.1603
100.0,3279406.0,-19.20092,68.1654
215.4,2793211.0,-84.60323,68.1593
464.2,2001729.0,-66.74884,68.1544
1000.0,1039201.0,-84.35083,68.1613
2154.4,513215.7,-86.83981,68.1581
4641.6,251018.9,-92.04899,68.1518
10000.0,120741.5,-94.86186,68.1574
