Frequency,Impedance,Phase Angle,Temperature (Dry Bath)
10.0,136573.0,-17.84724,66.1454
21.544346900318832,115353.4,-17.9807,66.1518
46.41588833612777,101081.9,-16.45481,66.1714
100.0,107486.2,-8.076902,66.1558
215.44346900318823,71181.24,-28.23391,66.161
464.15888336127773,74462.53,-17.1909,66.1549
1000.0,69971.9,-17.05746,66.153
2154.4346900318824,51659.39,-24.43047,66.1609
4641.588833612777,42235.82,-35.52302,66.159
10000.0,28179.45,-46.41168,66.1658
