Frequency,Impedance,Phase Angle,Temperature (Dry Bath)
10.0,12137.83,-4.327483,67.3076
21.5,11847.46,-3.688057,67.3213
46.4,11645.54,-3.429244,67.3189
100.0,11457.86,-3.484069,67.312
215.4,11255.44,2.643849,67.3147
464.2,11128.04,-3.439708,67.3232
1000.0,10860.59,-3.599536,67.2986
2154.4,10662.6,-4.172685,67.309
4641.6,10453.11,-5.844413,67.3201
10000.0,10154.29,-9.322346,67.3109
