Frequency,Impedance,Phase Angle,Temperature (Dry Bath)
10.0,154668.2,-6.415852,68.0637
21.5,148883.3,-5.112713,68.0757
46.4,143918.3,-4.733006,68.0745
100.0,133693.1,-4.923618,68.0769
215.4,134855.5,-6.527743,68.0695
464.2,127305.4,-9.553826,68.0787
1000.0,125908.0,-11.7084,68.0866
2154.4,116519.3,-19.90263,68.0697
4641.6,98970.87,-32.92228,68.0587
10000.0,71315.01,-51.61373,68.0695
