Frequency,Impedance,Phase Angle,Temperature (Dry Bath)
10.0,254715.0,-5.491633,66.9981
21.5,246062.8,-5.434309,66.9911
46.4,238641.1,-5.821376,67.0051
100.0,241153.8,-5.388488,67.0089
215.4,226748.5,-5.295071,67.0099
464.2,210459.4,-14.49448,67.0048
1000.0,186340.7,-21.37968,66.9926
2154.4,152037.6,-37.79473,67.033
4641.6,101232.9,-52.16878,67.0127
10000.0,59657.96,-61.29331,67.0165
