Frequency,Impedance,Phase Angle,Temperature (Dry Bath)
10.0,28791800.0,-21.19847,67.2774
21.5,24423320.0,-38.48742,67.2889
46.4,16061820.0,-59.11942,67.2873
100.0,9974387.0,-56.95344,67.2881
215.4,1522074.0,-75.05613,67.2859
464.2,1445863.0,-86.52971,67.2988
1000.0,832287.2,-83.10621,67.288
2154.4,445511.2,-83.11329,67.284
4641.6,223210.2,-83.85983,67.2778
10000.0,108135.5,-83.51193,67.2928
