Frequency,Impedance,Phase Angle,Temperature (Dry Bath)
10.0,25267880.0,-17.36764,68.2796
21.5,17060320.0,-43.89216,68.2796
46.4,10758500.0,-44.01136,68.2796
100.0,5649274.0,-66.6045,68.2796
215.4,4760080.0,-74.11505,68.2796
464.2,1964144.0,-84.18547,68.2796
1000.0,938848.3,-87.9285,68.2796
2154.4,460113.0,-80.63709,68.2796
4641.6,217220.8,-82.01721,68.2796
10000.0,117792.6,-90.14063,68.2796
