Frequency,Impedance,Phase Angle,Temperature (Dry Bath)
10.0,44696860.0,-25.70982,67.9831
21.5,26099420.0,-41.25145,67.9885
46.4,14296020.0,-43.78363,67.9874
100.0,7241990.0,-28.95429,67.9937
215.4,4846277.0,-67.1866,67.9849
464.2,3017913.0,-84.65721,68.001
1000.0,1305846.0,-88.43114,67.9939
2154.4,644654.2,-85.36045,67.9879
4641.6,320766.5,-98.72892,67.9906
10000.0,152457.6,-96.18463,67.9903
