Frequency,Impedance,Phase Angle,Temperature (Dry Bath)
10.0,198528.8,-26.36042,66.3675
21.544346900318832,159676.3,-24.28989,66.3623
46.41588833612777,130269.1,-22.67336,66.3542
100.0,72203.36,-39.93394,66.3643
215.44346900318823,65290.48,-22.5794,66.3811
464.15888336127773,77113.85,-22.84912,66.3809
1000.0,65495.31,-20.41655,66.3729
2154.4346900318824,57875.31,-24.19628,66.3848
4641.588833612777,51348.9,-37.72816,66.3734
10000.0,33050.98,-49.57988,66.3731
