Frequency,Impedance,Phase Angle,Temperature (Dry Bath)
10.0,164566.5,-6.311185,67.6822
21.5,158825.2,-5.188985,67.6978
46.4,153754.8,-4.892015,67.6973
100.0,147330.6,-5.345128,67.6894
215.4,145029.2,-6.64514,67.6951
464.2,139749.5,-9.171422,67.6951
1000.0,131505.1,-12.01129,67.6956
2154.4,122089.3,-21.94033,67.6823
4641.6,102152.2,-35.28719,67.6796
10000.0,73847.14,-56.09247,67.6826
