Frequency,Impedance,Phase Angle,Temperature (Dry Bath)
10.0,11688.92,-4.429724,67.1218
21.5,11527.53,-3.821114,67.1136
46.4,11247.43,-3.717406,67.0882
100.0,11157.83,-3.751151,67.1103
215.4,10953.33,-4.16905,67.0974
464.2,10797.63,-3.969596,67.1186
1000.0,10514.05,-3.958612,67.1071
2154.4,10286.91,-4.325382,67.1206
4641.6,10062.74,-5.675598,67.105
10000.0,9817.438,-9.109093,67.1209
