Frequency,Impedance,Phase Angle,Temperature (Dry Bath)
10.0,12300.64,-4.776664,67.1037
21.5,11995.5,-4.047137,67.0896
46.4,11771.16,-3.908284,67.0633
100.0,11567.84,-3.579693,67.0665
215.4,11474.54,-3.746554,67.0718
464.2,11247.71,-4.019028,67.0569
1000.0,10950.64,-4.074061,67.0929
2154.4,10762.07,-4.599284,67.0744
4641.6,10468.79,-6.156134,67.0686
10000.0,10159.52,-9.5136,67.0873
