Frequency,Impedance,Phase Angle,Temperature (Dry Bath)
10.0,30904210.0,-15.31607,67.1117
21.5,30298580.0,-25.28158,67.1103
46.4,10946700.0,-55.34574,67.1192
100.0,7606121.0,18.54515,67.0984
215.4,221186.3,-139.9021,67.1069
464.2,2607605.0,-91.97,67.0876
1000.0,1192020.0,-93.18289,67.0936
2154.4,594879.0,-88.22549,67.0894
4641.6,275049.2,-90.80668,67.0987
10000.0,127816.1,-86.21699,67.0842
