Frequency,Impedance,Phase Angle,Temperature (Dry Bath)
10.0,15178830.0,-12.64507,68.2755
21.5,22447290.0,-48.20757,68.2657
46.4,19228600.0,-53.48515,68.278
100.0,5787231.0,-22.97529,68.2743
215.4,6082242.0,-101.7479,68.2674
464.2,2748721.0,-87.29088,68.2837
1000.0,1299131.0,-79.15129,68.2889
2154.4,644161.4,-90.40469,68.2722
4641.6,350157.4,-90.61953,68.2702
10000.0,149851.3,-99.42139,68.2567
