Frequency,Impedance,Phase Angle,Temperature (Dry Bath)
10.0,140163.2,-5.798354,67.4326
21.5,135135.6,-4.657674,67.4265
46.4,130639.0,-4.377335,67.4289
100.0,130330.1,-5.13471,67.4323
215.4,95120.04,28.52185,67.4232
464.2,116695.3,-7.498356,67.4321
1000.0,113233.8,-11.65829,67.4375
2154.4,106127.6,-19.40389,67.4369
4641.6,87500.83,-33.399,67.4226
10000.0,63070.15,-51.59832,67.4272
