Frequency,Impedance,Phase Angle,Temperature (Dry Bath)
10.0,13842730.0,-12.65738,68.1417
21.5,17176480.0,-21.55834,68.142
46.4,14073170.0,-50.45932,68.1402
100.0,8691174.0,-60.58668,68.1315
215.4,5461110.0,-51.22817,68.1343
464.2,1947059.0,-74.94006,68.1325
1000.0,1073791.0,-82.50161,68.1308
2154.4,543823.5,-81.60318,68.1143
4641.6,267242.1,-79.12428,68.1219
10000.0,153667.4,-87.38376,68.1578
