Frequency,Impedance,Phase Angle,Temperature (Dry Bath)
10.0,38424950.0,-32.53133,68.0179
21.5,41201400.0,-53.48667,68.0211
46.4,25582380.0,-56.25385,68.0254
100.0,6069965.0,-53.96658,68.0296
215.4,4558574.0,-58.41295,68.0206
464.2,1803899.0,-66.80565,68.0293
1000.0,989385.8,-83.11367,68.0199
2154.4,527955.2,-81.99895,68.0413
4641.6,263368.4,-83.18016,68.0294
10000.0,127847.7,-88.50303,68.0432
