Frequency,Impedance,Phase Angle,Temperature (Dry Bath)
10.0,296505.7,-9.144121,67.1612
21.5,278087.2,-8.50546,67.1615
46.4,262360.4,-8.283313,67.1607
100.0,250029.4,-9.153821,67.1723
215.4,138750.8,-35.29989,67.1579
464.2,219479.1,-14.8946,67.1458
1000.0,204358.3,-19.95592,67.1605
2154.4,168822.4,-31.54024,67.154
4641.6,120006.1,-44.98814,67.1463
10000.0,76318.65,-56.78498,67.1421
