Frequency,Impedance,Phase Angle,Temperature (Dry Bath)
10.0,133326.8,-24.27419,67.3203
21.5,111028.4,-22.09123,67.3167
46.4,97001.78,-19.53723,67.3153
100.0,84122.73,-17.15066,67.3209
215.4,73229.4,-17.25473,67.3064
464.2,69305.75,-14.7833,67.309
1000.0,62576.18,-14.74876,67.3236
2154.4,56564.93,-17.75263,67.3217
4641.6,48799.66,-24.67641,67.3114
10000.0,40619.43,-35.87101,67.314
