Frequency,Impedance,Phase Angle,Temperature (Dry Bath)
10.0,21649980.0,-25.16329,68.1021
21.5,24780710.0,-29.23505,68.0889
46.4,20903620.0,-52.57392,68.087
100.0,4650900.0,-40.49129,68.0891
215.4,3371717.0,-53.34422,68.0878
464.2,2002693.0,-74.7402,68.082
1000.0,1016631.0,-88.7676,68.0837
2154.4,487525.8,-85.61928,68.1033
4641.6,232612.4,-92.82454,68.1054
10000.0,113884.2,-92.66485,68.0977
