Frequency,Impedance,Phase Angle,Temperature (Dry Bath)
10.0,138625.1,-5.894446,67.1291
21.5,133221.7,-5.047203,67.1537
46.4,129053.5,-4.826544,67.1368
100.0,122074.4,-5.672339,67.1272
215.4,238659.1,-10.22192,67.1381
464.2,116830.1,-8.688468,67.1467
1000.0,110814.3,-12.72145,67.134
2154.4,105002.5,-20.42442,67.14
4641.6,83482.26,-34.83491,67.1407
10000.0,60742.9,-52.00557,67.1383
