Frequency,Impedance,Phase Angle,Temperature (Dry Bath)
10.0,5760269.0,-15.85548,71.4052
21.544346900318832,2931852.0,-15.34323,71.4075
46.41588833612777,3304529.0,-29.81383,71.3973
100.0,375732.9,-83.61042,71.3936
215.44346900318823,1822280.0,-100.6488,71.3897
464.15888336127773,1363168.0,-30.84967,71.414
1000.0,853476.2,-99.74398,71.4096
2154.4346900318824,158968.9,-78.56212,71.3946
4641.588833612777,177750.8,-98.91896,71.3922
10000.0,54563.11,-92.66277,71.4003
