Frequency,Impedance,Phase Angle,Temperature (Dry Bath)
10.0,28398390.0,-7.01178,66.9794
21.5,22289210.0,-22.7191,66.9845
46.4,21236880.0,-61.50827,66.9925
100.0,11223210.0,-57.55649,66.9854
215.4,350353.7,152.9823,67.0096
464.2,1797340.0,-84.3911,66.9998
1000.0,1130020.0,-83.50219,66.9734
2154.4,556227.2,-86.05662,66.9668
4641.6,284593.8,-89.9951,66.9911
10000.0,125753.3,-85.91485,66.9899
