Frequency,Impedance,Phase Angle,Temperature (Dry Bath)
10.0,347577.0,-24.74275,71.126
21.544346900318832,294003.0,-23.58076,71.1163
46.41588833612777,247341.2,-21.85673,71.1185
100.0,266340.1,-31.19802,71.1108
215.44346900318823,239661.7,-21.05953,71.1222
464.15888336127773,119737.8,-27.19691,71.1207
1000.0,109680.6,-24.12716,71.1248
2154.4346900318824,93093.33,-35.28925,71.1337
4641.588833612777,77130.52,-51.28291,71.1345
10000.0,40437.02,-65.569,71.13
