Frequency,Impedance,Phase Angle,Temperature (Dry Bath)
10.0,137090.3,-6.386314,67.3029
21.5,131516.8,-5.362339,67.3098
46.4,126888.9,-5.036374,67.3076
100.0,116158.4,-5.835145,67.3119
215.4,117264.2,-5.384402,67.3003
464.2,115330.5,-7.023583,67.3203
1000.0,106306.3,-12.59413,67.3099
2154.4,103635.0,-19.01954,67.3079
4641.6,88268.32,-32.63531,67.3039
10000.0,61250.41,-50.26207,67.3053
