Frequency,Impedance,Phase Angle,Temperature (Dry Bath)
10.0,21136470.0,-41.39321,67.2023
21.5,21751460.0,-38.03445,67.2161
46.4,38596430.0,-34.05502,67.2168
100.0,4026526.0,-62.08502,67.2043
215.4,241226.4,-103.1938,67.2124
464.2,1507734.0,-68.67825,67.205
1000.0,805214.5,-74.4418,67.1999
2154.4,440852.9,-77.16322,67.1986
4641.6,223455.5,-75.16387,67.2285
10000.0,114808.6,-80.71641,67.2058
