Frequency,Impedance,Phase Angle,Temperature (Dry Bath)
10.0,135713.1,-25.7482,67.0988
21.5,111399.9,-22.58177,67.073
46.4,95973.05,-19.53447,67.0758
100.0,83155.51,-18.16592,67.092
215.4,75631.04,-15.22486,67.0832
464.2,68050.81,-14.47992,67.0659
1000.0,62224.19,-15.42114,67.0898
2154.4,55827.45,-18.89544,67.0977
4641.6,48799.2,-25.74106,67.0875
10000.0,39533.75,-37.50724,67.0955
