Frequency,Impedance,Phase Angle,Temperature (Dry Bath)
10.0,3699705.0,-0.3013594,65.7042
21.544346900318832,4583232.0,-7.99734,65.6966
46.41588833612777,2798130.0,-26.90253,65.708
100.0,462000.4,-79.07601,65.6956
215.44346900318823,25171.24,-36.55709,65.7019
464.15888336127773,1797753.0,-41.97815,65.6998
1000.0,789945.0,33.44217,65.7146
2154.4346900318824,298777.6,-80.84352,65.7119
4641.588833612777,118837.0,-83.07414,65.7167
10000.0,55805.99,-82.35009,65.6968
