Frequency,Impedance,Phase Angle,Temperature (Dry Bath)
10.0,23857.77,-21.60054,71.2104
21.544346900318832,19641.55,-23.60086,71.2062
46.41588833612777,15903.47,-24.9341,71.2191
100.0,13359.36,-26.35617,71.2178
215.44346900318823,10246.21,-25.7884,71.2304
464.15888336127773,8102.437,-26.13145,71.2179
1000.0,6364.418,-25.55154,71.2237
2154.4346900318824,5192.704,-24.18448,71.2171
4641.588833612777,4316.199,-21.07096,71.2271
10000.0,3602.27,-20.35273,71.2162
