Frequency,Impedance,Phase Angle,Temperature (Dry Bath)
10.0,27451740.0,-24.83841,67.3298
21.5,27610430.0,-23.82465,67.3173
46.4,19546690.0,-50.01409,67.3333
100.0,21600630.0,-138.2288,67.3214
215.4,3422434.0,-115.7781,67.3257
464.2,2707117.0,-77.77997,67.32
1000.0,1259920.0,-87.30351,67.3215
2154.4,583373.5,-89.27048,67.3075
4641.6,272169.9,-86.14975,67.314
10000.0,131890.4,-86.3996,67.3052
