Frequency,Impedance,Phase Angle,Temperature (Dry Bath)
10.0,196710.9,-26.97048,65.7155
21.544346900318832,155453.2,-24.90057,65.7141
46.41588833612777,128423.1,-21.9249,65.7341
100.0,105383.0,-21.09289,65.738
215.44346900318823,7925.957,-95.0735,65.7282
464.15888336127773,82171.44,-18.88311,65.7259
1000.0,71399.66,-27.03227,65.7149
2154.4346900318824,61810.69,-25.93009,65.7306
4641.588833612777,52468.72,-33.60934,65.7199
10000.0,35204.41,-48.80527,65.7192
