Frequency,Impedance,Phase Angle,Temperature (Dry Bath)
10.0,305355.1,-25.50168,71.1939
21.544346900318832,253264.4,-22.31511,71.1928
46.41588833612777,211792.9,-20.39996,71.1994
100.0,149861.9,-15.57543,71.1914
215.44346900318823,154787.2,-15.7006,71.1995
464.15888336127773,140810.1,-18.2511,71.203
1000.0,126453.6,-37.00332,71.2054
2154.4346900318824,98538.87,-39.81468,71.188
4641.588833612777,66515.38,-47.87399,71.1836
10000.0,42980.38,-63.67986,71.1998
