Frequency,Impedance,Phase Angle,Temperature (Dry Bath)
10.0,17445930.0,-3.810287,68.2716
21.5,21477130.0,-42.14896,68.289
46.4,29098920.0,-59.64282,68.2951
100.0,4055752.0,-67.95756,68.3031
215.4,5239504.0,-105.9583,68.3024
464.2,1761307.0,-80.8398,68.2924
1000.0,1090089.0,-83.05372,68.2988
2154.4,527688.9,-74.96398,68.2951
4641.6,260898.0,-82.74296,68.3018
10000.0,150559.4,-86.59796,68.2907
