Frequency,Impedance,Phase Angle,Temperature (Dry Bath)
10.0,1242088.0,-8.713178,67.7197
21.5,1089274.0,-12.21536,67.739
46.4,1023455.0,-12.7256,67.7255
100.0,894220.1,-10.49749,67.7329
215.4,813962.5,-20.57946,67.7402
464.2,744206.7,-27.25525,67.7195
1000.0,519503.7,-40.57986,67.73
2154.4,355039.4,-48.31671,67.7272
4641.6,226428.5,-61.20708,67.7229
10000.0,133391.6,-74.62634,67.7241
