Frequency,Impedance,Phase Angle,Temperature (Dry Bath)
10.0,22344600.0,3.832537,67.7835
21.5,20291040.0,-30.13776,67.7809
46.4,12113660.0,-52.76058,67.7809
100.0,5856013.0,-27.20787,67.7766
215.4,4550397.0,-71.85249,67.7767
464.2,2131736.0,-87.13722,67.7765
1000.0,1013562.0,-80.38904,67.7831
2154.4,508533.4,-83.26174,67.7839
4641.6,283017.7,-79.56247,67.7861
10000.0,153775.7,-88.84107,67.771
