Frequency,Impedance,Phase Angle,Temperature (Dry Bath)
10.0,186210.1,-14.81649,29.0427
21.544346900318832,167078.5,-13.88767,29.191
46.41588833612777,150267.0,-13.49326,29.2783
100.0,123852.3,-17.05566,29.2081
215.44346900318823,115983.7,-13.80174,29.2213
464.15888336127773,108713.8,-8.055593,29.3283
1000.0,93732.56,-16.85181,29.1813
2154.4346900318824,92639.44,-24.31974,28.4473
4641.588833612777,69801.51,-29.47604,28.9205
10000.0,60907.2,-43.27372,28.5888
