Frequency,Impedance,Phase Angle,Temperature (Dry Bath)
10.0,11745.42,-4.608563,67.0916
21.5,11422.71,-3.410237,67.089
46.4,11227.9,-3.125459,67.0852
100.0,11026.59,-3.47382,67.0966
215.4,11007.43,-3.653407,67.102
464.2,10797.1,-3.672357,67.1048
1000.0,10558.41,-3.797219,67.1141
2154.4,10380.09,-4.249983,67.1102
4641.6,10122.41,-5.654795,67.1152
10000.0,9858.359,-9.185615,67.0994
