Frequency,Impedance,Phase Angle,Temperature (Dry Bath)
10.0,29957210.0,-6.806965,67.8298
21.5,28109290.0,-28.34236,67.835
46.4,25793410.0,-53.90921,67.8356
100.0,4144415.0,-43.28108,67.8307
215.4,5588730.0,-65.0011,67.8259
464.2,2030018.0,-79.9411,67.8347
1000.0,1020954.0,-87.45421,67.8273
2154.4,523081.7,-85.92013,67.8247
4641.6,243619.0,-89.8911,67.829
10000.0,114736.6,-97.72576,67.8281
