Frequency,Impedance,Phase Angle,Temperature (Dry Bath)
10.0,6498155.0,17.19571,71.3974
21.544346900318832,6382587.0,-17.77,71.393
46.41588833612777,6536462.0,-6.382672,71.3948
100.0,1118015.0,-9.890841,71.3896
215.44346900318823,7571988.0,-34.54242,71.4057
464.15888336127773,647281.6,-129.0825,71.3893
1000.0,1087709.0,-28.88384,71.391
2154.4346900318824,860931.8,-98.33773,71.389
4641.588833612777,251101.8,-77.43701,71.4001
10000.0,117906.4,-84.70733,71.4139
