Frequency,Impedance,Phase Angle,Temperature (Dry Bath)
10.0,27994950.0,-16.61664,67.2554
21.5,28474210.0,-28.46787,67.2268
46.4,19831060.0,-42.97225,67.2658
100.0,2053041.0,-43.92262,67.258
215.4,1810435.0,-90.24122,67.257
464.2,1823971.0,-83.21253,67.2403
1000.0,1256857.0,-92.50709,67.2655
2154.4,589514.6,-87.20791,67.252
4641.6,282765.1,-87.05077,67.2711
10000.0,148222.2,-83.77106,67.2587
