Frequency,Impedance,Phase Angle,Temperature (Dry Bath)
10.0,16123050.0,-13.0819,68.007
21.5,16735780.0,-27.53266,68.007
46.4,13718120.0,-55.21499,68.007
100.0,4775974.0,-66.05843,68.007
215.4,4167864.0,-67.42936,68.007
464.2,2180396.0,-81.41593,68.007
1000.0,837896.3,-81.13817,68.007
2154.4,479186.1,-81.89344,68.007
4641.6,230771.5,-86.14308,68.007
10000.0,123736.0,-89.02227,68.007
