Frequency,Impedance,Phase Angle,Temperature (Dry Bath)
10.0,28358870.0,1.224074,67.1812
21.5,23749520.0,-41.47644,67.1689
46.4,21046800.0,-48.34923,67.1863
100.0,7190976.0,-27.07288,67.1589
215.4,2317886.0,36.55192,67.1824
464.2,2998269.0,-90.08076,67.1945
1000.0,1040031.0,-82.87392,67.203
2154.4,604885.3,-89.94514,67.1963
4641.6,288334.4,-85.61619,67.1969
10000.0,137882.0,-84.57162,67.1607
