Frequency,Impedance,Phase Angle,Temperature (Dry Bath)
10.0,22168890.0,-22.7385,67.9961
21.5,24115550.0,-38.68607,68.0079
46.4,25562480.0,-54.91896,67.9824
100.0,7185052.0,-71.85621,67.9829
215.4,3713810.0,-69.56257,67.9833
464.2,2008454.0,-71.27706,67.9841
1000.0,1070092.0,-81.8786,67.9723
2154.4,478965.4,-88.97844,67.9734
4641.6,251963.4,-88.51822,68.0045
10000.0,109865.2,-93.08697,67.9866
