Frequency,Impedance,Phase Angle,Temperature (Dry Bath)
10.0,3450117.0,-13.27576,71.0928
21.544346900318832,4352514.0,6.692708,71.07
46.41588833612777,5464384.0,-25.00992,71.0731
100.0,15677790.0,159.3122,71.0638
215.44346900318823,1004689.0,117.1541,71.0656
464.15888336127773,398116.8,-51.68383,71.0728
1000.0,855284.7,-61.212,71.0838
2154.4346900318824,351953.6,-97.34412,71.0814
4641.588833612777,135020.8,-96.87115,71.0723
10000.0,54681.2,-85.3154,71.0591
