Frequency,Impedance,Phase Angle,Temperature (Dry Bath)
10.0,29092280.0,-20.97637,67.7398
21.5,30267140.0,-33.70891,67.7307
46.4,30678200.0,-56.13968,67.7108
100.0,4801162.0,-79.60124,67.7405
215.4,4811601.0,-96.13233,67.7568
464.2,1749145.0,-88.40736,67.7551
1000.0,1133130.0,-82.45993,67.7662
2154.4,547854.2,-81.4773,67.7517
4641.6,292677.8,-77.68173,67.7532
10000.0,155114.0,-88.42938,67.7388
