Frequency,Impedance,Phase Angle,Temperature (Dry Bath)
10.0,1971404.0,-18.88849,71.0211
21.544346900318832,2503670.0,-4.930121,71.0195
46.41588833612777,2371535.0,-7.034666,71.0328
100.0,1389818.0,-159.6531,71.0214
215.44346900318823,654878.7,-51.01154,71.019
464.15888336127773,722235.2,59.13718,71.0222
1000.0,1255210.0,115.5339,71.0197
2154.4346900318824,325157.5,29.02603,71.0134
4641.588833612777,152937.4,-73.76833,71.013
10000.0,98769.49,-62.78868,71.0241
