Frequency,Impedance,Phase Angle,Temperature (Dry Bath)
10.0,1463748.0,-8.657607,67.3145
21.5,1375936.0,-9.485585,67.3022
46.4,1273129.0,-12.17077,67.3128
100.0,1061493.0,-13.32168,67.3017
215.4,1749410.0,-27.7641,67.2983
464.2,921869.8,-29.76104,67.3032
1000.0,616446.9,-49.79974,67.3063
2154.4,370143.2,-61.55356,67.3149
4641.6,191703.9,-69.69184,67.3071
10000.0,101922.2,-74.53139,67.2978
