Frequency,Impedance,Phase Angle,Temperature (Dry Bath)
10.0,3956672.0,7.050075,65.883
21.544346900318832,11308080.0,-15.40693,65.8932
46.41588833612777,4389980.0,-13.41402,65.8791
100.0,899731.3,-85.37225,65.8854
215.44346900318823,7305.857,-23.71298,65.8742
464.15888336127773,1627388.0,-160.1868,65.8872
1000.0,464749.6,-152.0096,65.8787
2154.4346900318824,499146.2,-77.46645,65.8787
4641.588833612777,151243.2,-89.29209,65.8746
10000.0,66186.98,-86.38102,65.8657
