Frequency,Impedance,Phase Angle,Temperature (Dry Bath)
10.0,5759144.0,-13.71742,71.4982
21.544346900318832,5969307.0,-3.067823,71.4986
46.41588833612777,4505958.0,-1.392312,71.491
100.0,1030331.0,93.97461,71.4852
215.44346900318823,952335.0,-160.9397,71.493
464.15888336127773,629619.1,166.1704,71.4946
1000.0,739480.2,-70.14695,71.5001
2154.4346900318824,339212.9,-87.6109,71.4948
4641.588833612777,323171.7,-73.55557,71.4836
10000.0,131778.5,-80.1478,71.4871
