Frequency,Impedance,Phase Angle,Temperature (Dry Bath)
10.0,12058.67,-4.837729,66.9791
21.5,11805.05,-4.266089,66.9757
46.4,11593.62,-4.226725,66.9802
100.0,11460.8,-4.334755,66.9767
215.4,11378.79,-4.4229,66.9874
464.2,11193.08,-4.531247,66.9816
1000.0,10853.05,-4.677534,66.9734
2154.4,10618.72,-5.154304,66.9662
4641.6,10322.78,-6.483964,66.9801
10000.0,9996.31,-9.880299,66.9921
