Frequency,Impedance,Phase Angle,Temperature (Dry Bath)
10.0,6993255.0,1.353622,70.9994
21.544346900318832,6624616.0,25.20941,70.9768
46.41588833612777,7128506.0,-30.76323,70.9851
100.0,422001.6,14.72184,70.9805
215.44346900318823,1576785.0,111.2848,70.9684
464.15888336127773,710398.6,-35.08064,70.9729
1000.0,974765.0,27.50233,70.9815
2154.4346900318824,303870.6,-114.014,70.9731
4641.588833612777,114460.5,-75.66489,70.9685
10000.0,67333.98,-90.53135,70.969
