Frequency,Impedance,Phase Angle,Temperature (Dry Bath)
10.0,28316830.0,-28.58963,67.1249
21.5,22183250.0,-40.17549,67.1183
46.4,19014070.0,-64.01791,67.1253
100.0,4720035.0,-101.5966,67.1358
215.4,112641.1,-83.64518,67.1373
464.2,1572804.0,-76.80883,67.1282
1000.0,873768.1,-78.64243,67.1152
2154.4,460877.9,-81.24461,67.119
4641.6,221007.8,-81.78895,67.1338
10000.0,108570.7,-84.47717,67.1236
