Frequency,Impedance,Phase Angle,Temperature (Dry Bath)
10.0,22147880.0,-23.49293,68.0174
21.5,29730640.0,-27.85211,68.017
46.4,27218780.0,-58.31915,68.0157
100.0,4552034.0,-62.34452,68.0276
215.4,5553002.0,-86.94404,68.0187
464.2,2434530.0,-75.21427,68.0159
1000.0,1143440.0,-75.35074,68.0213
2154.4,506499.4,-79.99425,68.0302
4641.6,303964.4,-82.98454,68.0239
10000.0,139421.8,-86.68747,68.0193
