Frequency,Impedance,Phase Angle,Temperature (Dry Bath)
10.0,30546700.0,-43.28474,67.2613
21.5,21503080.0,-46.99358,67.2494
46.4,11599930.0,-70.68693,67.2616
100.0,3151742.0,-63.93339,67.2592
215.4,313553.5,-158.7026,67.2531
464.2,1469913.0,-79.15623,67.2578
1000.0,768740.5,-73.68198,67.2509
2154.4,453600.3,-75.12179,67.2731
4641.6,238515.7,-78.01866,67.2645
10000.0,118520.9,-80.74212,67.2567
