Frequency,Impedance,Phase Angle,Temperature (Dry Bath)
10.0,137813.7,-6.16096,67.3627
21.5,132007.9,-5.313641,67.3581
46.4,127926.8,-4.999845,67.3636
100.0,122967.8,-3.966918,67.3672
215.4,123984.1,-8.128521,67.3533
464.2,117633.1,-8.276713,67.366
1000.0,109481.0,-12.30547,67.3702
2154.4,103074.5,-19.21153,67.3722
4641.6,85065.93,-33.38342,67.3609
10000.0,62231.46,-50.02549,67.3529
