Frequency,Impedance,Phase Angle,Temperature (Dry Bath)
10.0,28049360.0,-9.145453,68.0592
21.5,31160640.0,-36.69437,68.0709
46.4,18670430.0,-59.58475,68.0561
100.0,4947797.0,-30.6679,68.0754
215.4,4196521.0,-73.27639,68.0647
464.2,1873752.0,-82.94305,68.057
1000.0,1048039.0,-74.85859,68.0611
2154.4,478535.9,-80.11238,68.0473
4641.6,275132.1,-83.41797,68.0509
10000.0,143925.5,-93.58179,68.0458
