Frequency,Impedance,Phase Angle,Temperature (Dry Bath)
10.0,138382.8,-5.931937,67.3068
21.5,133167.5,-5.0143,67.3198
46.4,128921.3,-4.879123,67.3113
100.0,121943.2,-4.488151,67.3115
215.4,139343.0,7.660527,67.3031
464.2,117580.0,-8.207883,67.3171
1000.0,111392.3,-12.46362,67.3218
2154.4,104796.3,-19.71374,67.3271
4641.6,87548.48,-34.27156,67.332
10000.0,60226.74,-51.14212,67.3306
