Frequency,Impedance,Phase Angle,Temperature (Dry Bath)
10.0,30568370.0,-16.45815,67.1169
21.5,37929690.0,-32.01571,67.1156
46.4,11021060.0,-50.92022,67.1035
100.0,9157325.0,-62.35,67.1156
215.4,223753.3,-16.88363,67.1139
464.2,2169275.0,-73.77102,67.1286
1000.0,855978.9,-82.44398,67.1338
2154.4,462384.5,-81.15053,67.1397
4641.6,234711.5,-84.18224,67.1412
10000.0,118788.2,-79.76005,67.1216
