Frequency,Impedance,Phase Angle,Temperature (Dry Bath)
10.0,1185900.0,-13.34822,67.768
21.5,1108318.0,-10.71457,67.7666
46.4,1036717.0,-12.56547,67.768
100.0,791922.7,-14.58414,67.768
215.4,721745.2,-19.96081,67.7693
464.2,611578.2,-27.25852,67.7625
1000.0,486606.3,-41.07412,67.7606
2154.4,338776.9,-49.68565,67.7919
4641.6,203078.9,-60.70831,67.7486
10000.0,122199.9,-74.43113,67.7794
