Frequency,Impedance,Phase Angle,Temperature (Dry Bath)
10.0,161531.5,-6.193364,67.8977
21.5,155622.2,-5.281611,67.8888
46.4,149816.4,-4.70126,67.9091
100.0,140872.3,-4.76251,67.8976
215.4,140714.3,-4.698597,67.9
464.2,134363.1,-9.379486,67.8873
1000.0,131369.4,-12.40675,67.9116
2154.4,118944.0,-20.33551,67.908
4641.6,100767.7,-36.44433,67.9005
10000.0,77837.93,-52.26165,67.8955
