Frequency,Impedance,Phase Angle,Temperature (Dry Bath)
10.0,30068540.0,-17.40008,67.1509
21.5,18216270.0,-39.23555,67.1469
46.4,15629470.0,-60.23835,67.1695
100.0,3765456.0,-12.83052,67.162
215.4,89750.82,105.8946,67.1547
464.2,2138998.0,-88.75352,67.1396
1000.0,921884.3,-86.26897,67.1362
2154.4,479201.1,-82.77772,67.1622
4641.6,234124.8,-79.78423,67.1341
10000.0,116951.3,-78.95513,67.1385
