Frequency,Impedance,Phase Angle,Temperature (Dry Bath)
10.0,6690753.0,-3.094074,71.3659
21.544346900318832,3614118.0,-24.13969,71.3607
46.41588833612777,4273941.0,40.81996,71.3633
100.0,794420.0,-59.8936,71.3579
215.44346900318823,52675.32,39.6823,71.3665
464.15888336127773,925992.0,-50.2436,71.3677
1000.0,343245.9,-96.28649,71.3709
2154.4346900318824,294400.4,-76.29644,71.3675
4641.588833612777,146552.1,-83.94954,71.3612
10000.0,61849.85,-86.97729,71.3881
