Frequency,Impedance,Phase Angle,Temperature (Dry Bath)
10.0,29783320.0,-24.60188,67.2644
21.5,22588160.0,-53.69546,67.2887
46.4,24382810.0,-42.11262,67.2748
100.0,5275172.0,-35.77853,67.3023
215.4,235898.3,-159.0529,67.2935
464.2,1444807.0,-87.98326,67.2989
1000.0,930026.3,-76.05706,67.3029
2154.4,458617.2,-82.49565,67.3007
4641.6,227957.8,-82.76005,67.3076
10000.0,110103.1,-83.56736,67.3219
