Frequency,Impedance,Phase Angle,Temperature (Dry Bath)
10.0,31298870.0,-33.23728,67.0631
21.5,26728850.0,-33.11505,67.0617
46.4,16557110.0,-55.90209,67.0681
100.0,8401544.0,44.50905,67.0765
215.4,1690741.0,-122.6776,67.0746
464.2,2812399.0,-73.07042,67.0651
1000.0,1364022.0,-87.26766,67.0715
2154.4,595589.0,-90.80577,67.0743
4641.6,278936.2,-88.65214,67.0609
10000.0,132773.4,-87.0961,67.0673
