Frequency,Impedance,Phase Angle,Temperature (Dry Bath)
10.0,24642720.0,-10.84937,68.0317
21.5,21855120.0,-39.91024,68.0575
46.4,20583370.0,-55.43732,68.0492
100.0,4098284.0,-62.9838,68.0528
215.4,5074718.0,-74.59993,68.0507
464.2,1786324.0,-88.46199,68.0602
1000.0,890578.7,-82.43807,68.069
2154.4,433099.7,-80.01543,68.0543
4641.6,221158.2,-81.11018,68.0639
10000.0,113434.9,-91.34906,68.0632
