Frequency,Impedance,Phase Angle,Temperature (Dry Bath)
10.0,252618.3,-5.496236,67.032
21.5,243962.9,-5.470428,67.01
46.4,236223.9,-6.021563,67.0109
100.0,220206.3,-7.549645,67.0258
215.4,213490.9,-12.67538,67.0026
464.2,210221.7,-12.99242,67.028
1000.0,181531.3,-22.91129,67.0215
2154.4,150121.4,-33.54398,67.0119
4641.6,100217.6,-50.00918,67.0178
10000.0,58484.17,-62.67838,67.0215
