Frequency,Impedance,Phase Angle,Temperature (Dry Bath)
10.0,49955610.0,9.610461,67.403
21.5,24329100.0,-42.83137,67.3936
46.4,16562200.0,-53.29599,67.3913
100.0,2418629.0,-52.6863,67.3802
215.4,597730.3,171.0771,67.3794
464.2,2157825.0,-93.53282,67.383
1000.0,1142536.0,-86.70791,67.388
2154.4,590070.2,-87.2652,67.3808
4641.6,272292.3,-85.17219,67.3905
10000.0,131275.7,-86.84929,67.3935
