Frequency,Impedance,Phase Angle,Temperature (Dry Bath)
10.0,26683760.0,-18.82274,68.0521
21.5,22182070.0,-38.35402,68.0521
46.4,26611160.0,-57.95156,68.0521
100.0,5528633.0,-67.90509,68.0521
215.4,5581541.0,-73.65125,68.0521
464.2,2167744.0,-76.59784,68.0521
1000.0,977165.6,-81.14988,68.0521
2154.4,506154.3,-86.53934,68.0521
4641.6,250628.1,-89.00981,68.0521
10000.0,112949.9,-96.989,68.0521
