Frequency,Impedance,Phase Angle,Temperature (Dry Bath)
10.0,8093.781,-28.35315,70.7535
21.544346900318832,6372.646,-27.01134,70.7584
46.41588833612777,5082.657,-25.12302,70.7561
100.0,4119.238,-22.47571,70.766
215.44346900318823,3446.196,-20.16501,70.752
464.15888336127773,2961.198,-16.84241,70.7668
1000.0,2588.93,-14.29656,70.7525
2154.4346900318824,2325.545,-12.46615,70.7421
4641.588833612777,2124.328,-11.44454,70.745
10000.0,1969.267,-11.0221,70.749
