Frequency,Impedance,Phase Angle,Temperature (Dry Bath)
10.0,128124.1,-24.98108,67.1198
21.5,106427.8,-21.91729,67.1318
46.4,91181.54,-18.42273,67.1224
100.0,80788.67,-15.7744,67.1469
215.4,76323.56,9.340494,67.1224
464.2,65870.24,-13.41588,67.1391
1000.0,61082.04,-13.78959,67.1192
2154.4,55485.54,-17.47834,67.1178
4641.6,49211.73,-24.92113,67.0972
10000.0,39967.61,-36.92485,67.0996
