Frequency,Impedance,Phase Angle,Temperature (Dry Bath)
10.0,26166870.0,-12.76433,67.1097
21.5,27950180.0,-42.67667,67.0987
46.4,17616430.0,-62.03225,67.1112
100.0,4537472.0,-53.07449,67.1041
215.4,4685687.0,-24.62885,67.1017
464.2,2446463.0,-82.83672,67.1105
1000.0,997617.7,-76.9642,67.1092
2154.4,498546.8,-80.85828,67.0959
4641.6,251207.9,-78.46579,67.0914
10000.0,132306.9,-80.80977,67.1037
