Frequency,Impedance,Phase Angle,Temperature (Dry Bath)
10.0,161072.6,-6.409647,68.0328
21.5,154792.8,-5.04373,68.0228
46.4,150263.1,-4.837482,68.0154
100.0,145038.0,-6.95522,68.0259
215.4,136622.8,-6.607895,68.0235
464.2,135673.4,-6.142628,68.039
1000.0,129928.6,-12.20057,68.0344
2154.4,120419.8,-23.14416,68.0395
4641.6,98524.21,-35.57805,68.0327
10000.0,74547.98,-56.54383,68.0203
