Frequency,Impedance,Phase Angle,Temperature (Dry Bath)
10.0,1463943.0,-7.261584,67.4151
21.5,1386208.0,-10.05843,67.4051
46.4,1289742.0,-11.69927,67.4245
100.0,942952.7,-4.941868,67.4172
215.4,1110689.0,-33.87041,67.4184
464.2,826294.9,-34.63748,67.4234
1000.0,598910.7,-43.11162,67.4253
2154.4,327395.1,-64.27257,67.4376
4641.6,195726.2,-68.91954,67.427
10000.0,102292.7,-75.3543,67.4379
