Frequency,Impedance,Phase Angle,Temperature (Dry Bath)
10.0,21605210.0,-43.06031,67.2532
21.5,16912410.0,-32.15919,67.2485
46.4,12484930.0,-60.77546,67.2425
100.0,4930528.0,-82.84272,67.2363
215.4,200117.0,-21.93013,67.2378
464.2,1346712.0,-80.77104,67.2302
1000.0,713541.3,-79.25753,67.2157
2154.4,423976.7,-72.93395,67.2283
4641.6,228415.6,-75.82999,67.2244
10000.0,118172.3,-79.8002,67.2338
