Frequency,Impedance,Phase Angle,Temperature (Dry Bath)
10.0,30638160.0,-9.321772,67.2965
21.5,19619570.0,-32.05071,67.311
46.4,21698970.0,19.95373,67.3154
100.0,3537550.0,-39.67918,67.308
215.4,627796.9,-109.8165,67.3108
464.2,2251879.0,-95.43811,67.3092
1000.0,1145239.0,-94.16959,67.3188
2154.4,604574.7,-86.28535,67.2984
4641.6,276797.6,-88.35676,67.3062
10000.0,127883.9,-86.63881,67.3014
