Frequency,Impedance,Phase Angle,Temperature (Dry Bath)
10.0,158829.8,-9.151575,65.8565
21.544346900318832,150141.5,-7.180598,65.8633
46.41588833612777,142971.3,-7.15268,65.8673
100.0,145691.3,28.05201,65.8661
215.44346900318823,16841.9,-2.158453,65.865
464.15888336127773,119599.8,-14.07606,65.8738
1000.0,131426.4,-22.15774,65.8583
2154.4346900318824,99918.42,-30.63768,65.8615
4641.588833612777,83162.54,-45.6026,65.8507
10000.0,46259.6,-58.35537,65.8656
