Frequency,Impedance,Phase Angle,Temperature (Dry Bath)
10.0,36554160.0,-23.79833,68.3794
21.5,20552090.0,-25.71796,68.3851
46.4,15396650.0,-50.74998,68.3966
100.0,6550374.0,-63.59984,68.3979
215.4,10499880.0,-105.6595,68.3805
464.2,2876735.0,-84.55739,68.3528
1000.0,1377690.0,-91.34048,68.3707
2154.4,691023.1,-85.61772,68.3609
4641.6,308708.1,-89.56465,68.3759
10000.0,153528.5,-98.07896,68.3556
