Frequency,Impedance,Phase Angle,Temperature (Dry Bath)
10.0,1871698.0,-11.71411,68.0357
21.5,1704641.0,-9.984723,68.0447
46.4,1539079.0,-14.90401,68.0305
100.0,1454656.0,-20.08937,68.0339
215.4,1113880.0,-19.81964,68.0309
464.2,990614.4,-38.38584,68.0192
1000.0,605418.4,-51.10154,68.0407
2154.4,368915.3,-59.55214,68.0284
4641.6,211589.1,-74.47538,68.0382
10000.0,111072.6,-82.44358,68.0527
