Frequency,Impedance,Phase Angle,Temperature (Dry Bath)
10.0,37131090.0,2.298661,67.0804
21.5,55940370.0,-28.8443,67.0702
46.4,20293540.0,-52.44109,67.0741
100.0,16627940.0,-0.5068589,67.0739
215.4,3054563.0,-68.69661,67.0915
464.2,3655861.0,-71.9623,67.0917
1000.0,1183010.0,-88.65426,67.0852
2154.4,612796.0,-88.9723,67.1021
4641.6,268887.1,-86.16754,67.1013
10000.0,130446.7,-87.19931,67.0996
