Frequency,Impedance,Phase Angle,Temperature (Dry Bath)
10.0,35087820.0,-24.47699,67.9928
21.5,41736450.0,-21.4715,67.9885
46.4,32469510.0,-49.4364,67.9902
100.0,10262780.0,-65.55689,68.0151
215.4,5763270.0,-98.80944,67.9911
464.2,2310143.0,-76.40499,67.9967
1000.0,1055646.0,-80.6042,68.0014
2154.4,515012.5,-81.53477,67.9865
4641.6,263620.3,-81.36852,67.9774
10000.0,145132.0,-89.72992,67.995
