Frequency,Impedance,Phase Angle,Temperature (Dry Bath)
10.0,117781.9,-14.14926,71.3671
21.544346900318832,106301.5,-13.32567,71.3696
46.41588833612777,96041.84,-11.73728,71.3867
100.0,87181.44,-5.412955,71.3856
215.44346900318823,87439.72,-10.00167,71.3991
464.15888336127773,74682.08,-5.669066,71.374
1000.0,70861.97,-12.16035,71.3721
2154.4346900318824,62276.16,-12.64267,71.3871
4641.588833612777,57954.33,-24.83858,71.374
10000.0,48700.28,-35.11723,71.3741
