Frequency,Impedance,Phase Angle,Temperature (Dry Bath)
10.0,289333.5,-14.76854,71.7583
21.544346900318832,262493.3,-14.7012,71.7522
46.41588833612777,234831.2,-14.19371,71.7626
100.0,111424.9,-32.7554,71.7651
215.44346900318823,203856.2,-28.98956,71.7678
464.15888336127773,136688.5,-19.89161,71.7609
1000.0,156838.4,9.938367,71.7649
2154.4346900318824,162596.2,-26.27035,71.7574
4641.588833612777,72886.53,-14.39759,71.7527
10000.0,64780.8,-55.93948,71.7578
