Frequency,Impedance,Phase Angle,Temperature (Dry Bath)
10.0,38356870.0,-24.36247,66.9708
21.5,24240620.0,-40.71473,66.9753
46.4,16670540.0,-56.538,66.9815
100.0,10333990.0,-23.75319,66.9822
215.4,2772333.0,-79.13729,66.9782
464.2,2068792.0,-90.84259,66.979
1000.0,880335.5,-85.82223,66.9775
2154.4,441258.2,-85.54231,66.9834
4641.6,232604.9,-80.4884,66.9984
10000.0,117401.9,-79.14764,66.9937
