Frequency,Impedance,Phase Angle,Temperature (Dry Bath)
10.0,578613.2,-11.96518,68.1106
21.5,530836.0,-10.92092,68.1085
46.4,486697.2,-11.77875,68.1118
100.0,433372.2,-13.52729,68.1164
215.4,415766.7,-16.22151,68.1013
464.2,350273.9,-21.2027,68.1145
1000.0,287062.1,-29.00491,68.1238
2154.4,228248.4,-36.6283,68.1039
4641.6,173288.0,-48.83676,68.1143
10000.0,108984.5,-62.02857,68.1205
