Frequency,Impedance,Phase Angle,Temperature (Dry Bath)
10.0,369627.5,-5.122072,67.2979
21.5,355510.0,-5.140936,67.2887
46.4,340270.6,-5.409449,67.2875
100.0,334071.7,-6.982809,67.3044
215.4,402429.7,-155.4751,67.2891
464.2,281448.7,-12.4706,67.2939
1000.0,282114.7,-20.56212,67.28
2154.4,239734.3,-33.41256,67.2931
4641.6,168710.1,-50.12112,67.3206
10000.0,98103.21,-65.81917,67.3005
