Frequency,Impedance,Phase Angle,Temperature (Dry Bath)
10.0,125994.7,-25.1808,67.3088
21.5,104329.8,-22.20029,67.2994
46.4,90304.4,-19.16031,67.3099
100.0,79006.58,-16.38081,67.3202
215.4,70754.53,-13.55938,67.3069
464.2,65587.2,-14.20204,67.3279
1000.0,59480.94,-13.8793,67.2996
2154.4,54449.88,-17.07848,67.3111
4641.6,47593.09,-23.8343,67.3111
10000.0,39430.63,-34.17007,67.2905
