Frequency,Impedance,Phase Angle,Temperature (Dry Bath)
10.0,32759060.0,-16.34443,67.0446
21.5,32016410.0,-44.46705,67.044
46.4,13136820.0,-58.30931,67.0441
100.0,4141193.0,-101.4291,67.0479
215.4,4060474.0,-69.23528,67.0546
464.2,1882073.0,-79.69406,67.0339
1000.0,901967.8,-82.96227,67.0575
2154.4,455677.2,-81.40193,67.0589
4641.6,217081.6,-82.66736,67.0286
10000.0,107415.5,-84.4357,67.0487
