Frequency,Impedance,Phase Angle,Temperature (Dry Bath)
10.0,24223930.0,-19.38445,68.2499
21.5,17963770.0,-31.5911,68.2499
46.4,12832340.0,-55.92866,68.2499
100.0,3004451.0,-52.82631,68.2499
215.4,3553013.0,-62.10854,68.2499
464.2,1795110.0,-76.39071,68.2499
1000.0,1068880.0,-78.08223,68.2499
2154.4,550545.2,-77.58296,68.2499
4641.6,274856.9,-86.00587,68.2499
10000.0,137575.6,-95.07963,68.2499
