Frequency,Impedance,Phase Angle,Temperature (Dry Bath)
10.0,18467.78,-20.27033,71.0021
21.544346900318832,15849.73,-17.44251,71.0053
46.41588833612777,13861.44,-15.33121,71.0029
100.0,12481.31,-13.34896,71.0019
215.44346900318823,11296.42,-11.6726,71.0106
464.15888336127773,10074.59,-11.57236,71.0144
1000.0,9180.676,-9.533411,71.0146
2154.4346900318824,8573.816,-10.24179,71.0058
4641.588833612777,8094.328,-10.3321,71.01
10000.0,7700.579,-14.54001,71.0143
