Frequency,Impedance,Phase Angle,Temperature (Dry Bath)
10.0,523638.3,-27.90779,65.7269
21.544346900318832,380332.2,-27.10591,65.7376
46.41588833612777,308748.0,-25.3657,65.7266
100.0,240638.9,-10.42044,65.7335
215.44346900318823,21999.81,119.2591,65.7162
464.15888336127773,233707.6,-18.83667,65.7241
1000.0,116526.7,-31.65187,65.7439
2154.4346900318824,116889.1,-44.14957,65.7282
4641.588833612777,76366.16,-58.46961,65.7071
10000.0,49021.41,-54.04205,65.7397
