Frequency,Impedance,Phase Angle,Temperature (Dry Bath)
10.0,3837554.0,0.9708087,71.3056
21.544346900318832,5582280.0,9.316457,71.3052
46.41588833612777,3878241.0,-6.834191,71.3182
100.0,650845.4,82.13913,71.3194
215.44346900318823,17887.22,43.42665,71.3283
464.15888336127773,2055413.0,-118.9027,71.3169
1000.0,191126.5,-6.54508,71.3091
2154.4346900318824,213941.8,-83.83921,71.3079
4641.588833612777,122368.9,-89.161,71.3148
10000.0,65129.53,-92.84345,71.3134
