Frequency,Impedance,Phase Angle,Temperature (Dry Bath)
10.0,30052940.0,-14.47146,68.1969
21.5,18740680.0,-52.99369,68.1992
46.4,19911960.0,-55.3586,68.1882
100.0,6873951.0,-48.78563,68.1964
215.4,4281474.0,-92.16285,68.1937
464.2,1945245.0,-82.07577,68.1962
1000.0,1147171.0,-82.70193,68.198
2154.4,490127.7,-91.34195,68.1905
4641.6,238282.4,-93.81467,68.1786
10000.0,114829.5,-92.83663,68.1986
