Frequency,Impedance,Phase Angle,Temperature (Dry Bath)
10.0,20682490.0,-23.10642,68.1409
21.5,16093950.0,-42.24263,68.1817
46.4,14892310.0,-65.83131,68.1603
100.0,5417113.0,-66.60179,68.1593
215.4,2857315.0,-96.19378,68.1524
464.2,1667148.0,-82.29269,68.1716
1000.0,906031.0,-74.33376,68.1631
2154.4,517016.2,-77.96142,68.1728
4641.6,264114.1,-80.58008,68.1479
10000.0,129243.8,-89.25374,68.1627
