Frequency,Impedance,Phase Angle,Temperature (Dry Bath)
10.0,13936.22,-29.44459,70.8604
21.544346900318832,11099.11,-26.79753,70.8725
46.41588833612777,9015.965,-24.26602,70.8628
100.0,7530.089,-21.3096,70.8471
215.44346900318823,6367.52,-18.65788,70.862
464.15888336127773,5443.827,-16.07756,70.8635
1000.0,4827.064,-12.93439,70.8623
2154.4346900318824,4385.658,-11.19243,70.8609
4641.588833612777,4133.85,-10.02618,70.8583
10000.0,3899.259,-10.39736,70.8732
