Frequency,Impedance,Phase Angle,Temperature (Dry Bath)
10.0,40041380.0,-12.68229,68.2426
21.5,21996580.0,-30.46649,68.2233
46.4,33422490.0,-45.61983,68.2446
100.0,4458799.0,-50.03818,68.2422
215.4,6364906.0,-60.34511,68.2304
464.2,3122515.0,-72.78683,68.2497
1000.0,1391729.0,-83.29773,68.2393
2154.4,660949.0,-87.4574,68.2429
4641.6,319602.3,-90.48481,68.2341
10000.0,156590.4,-97.40988,68.2387
