Frequency,Impedance,Phase Angle,Temperature (Dry Bath)
10.0,3912721.0,-0.006874944,71.4134
21.544346900318832,5457319.0,-29.17795,71.4085
46.41588833612777,5460849.0,-24.86202,71.4227
100.0,1395804.0,-77.2285,71.4135
215.44346900318823,684557.9,-96.28609,71.4088
464.15888336127773,939955.7,-73.3293,71.4064
1000.0,640347.7,-58.67555,71.418
2154.4346900318824,414929.4,-92.32462,71.4143
4641.588833612777,167952.8,-92.43482,71.4186
10000.0,71933.91,-96.58983,71.4176
