Frequency,Impedance,Phase Angle,Temperature (Dry Bath)
10.0,27010100.0,-25.59804,67.3731
21.5,29780200.0,-45.78068,67.3727
46.4,11430700.0,-54.44758,67.3905
100.0,7458475.0,-51.14699,67.3818
215.4,314698.0,-105.2678,67.3821
464.2,1415443.0,-83.0246,67.3927
1000.0,779621.5,-78.13086,67.382
2154.4,422862.5,-74.9604,67.3903
4641.6,236998.8,-77.64553,67.3787
10000.0,120465.6,-80.28392,67.3975
