Frequency,Impedance,Phase Angle,Temperature (Dry Bath)
10.0,6617408.0,22.8142,66.5
21.544346900318832,6182906.0,15.1618,66.5
46.41588833612777,4312913.0,6.714651,66.5
100.0,920131.8,-85.87357,66.5
215.44346900318823,1295355.0,-110.6447,66.5
464.15888336127773,4657636.0,113.9744,66.5
1000.0,1802692.0,33.99909,66.5
2154.4346900318824,1460247.0,113.9501,66.5
4641.588833612777,682394.6,-61.99498,66.5
10000.0,799797.4,120.3848,66.5
