Frequency,Impedance,Phase Angle,Temperature (Dry Bath)
10.0,136829.6,-25.70231,66.9764
21.5,113345.2,-22.62165,66.9614
46.4,95091.37,-19.39591,66.9549
100.0,82692.94,-16.57773,66.9553
215.4,76152.74,-14.49873,66.949
464.2,68860.39,-14.50233,66.9595
1000.0,61135.37,-14.14861,66.9418
2154.4,56682.54,-18.20718,66.971
4641.6,48873.76,-26.60738,66.9565
10000.0,38908.5,-38.30286,66.9611
