Frequency,Impedance,Phase Angle,Temperature (Dry Bath)
10.0,1186947.0,-29.26289,70.9026
21.544346900318832,1053603.0,-23.66532,70.9133
46.41588833612777,934725.0,-26.52712,70.9044
100.0,732384.5,-19.83613,70.9235
215.44346900318823,1057608.0,-22.73118,70.9162
464.15888336127773,344880.1,-42.77994,70.9087
1000.0,515033.0,37.03192,70.9078
2154.4346900318824,162930.7,-73.76851,70.9117
4641.588833612777,97088.61,-70.71234,70.9117
10000.0,49949.74,-74.91879,70.9264
