Frequency,Impedance,Phase Angle,Temperature (Dry Bath)
10.0,17523410.0,-19.08518,68.1137
21.5,15805440.0,-21.88895,68.1154
46.4,15627890.0,-57.00409,68.1037
100.0,7041843.0,-11.71117,68.0989
215.4,6263957.0,-91.00076,68.1057
464.2,2093051.0,-89.2439,68.1116
1000.0,1015769.0,-82.58768,68.1194
2154.4,523751.8,-80.76638,68.119
4641.6,298250.2,-78.58372,68.1082
10000.0,153669.4,-91.09897,68.1104
