Frequency,Impedance,Phase Angle,Temperature (Dry Bath)
10.0,10525450.0,2.341547,66.3939
21.544346900318832,4564672.0,-5.096376,66.4106
46.41588833612777,6430109.0,-24.96642,66.3982
100.0,1180450.0,36.73787,66.4079
215.44346900318823,200415.3,-46.38339,66.396
464.15888336127773,477736.0,-121.0195,66.4106
1000.0,376497.4,-64.70631,66.4045
2154.4346900318824,307137.2,-98.60461,66.4242
4641.588833612777,104195.2,-89.64796,66.4106
10000.0,62505.95,-89.34788,66.4061
