Frequency,Impedance,Phase Angle,Temperature (Dry Bath)
10.0,6700153.0,-16.5739,66.5185
21.544346900318832,7639219.0,13.39215,66.5096
46.41588833612777,7109386.0,0.3336095,66.5089
100.0,3400706.0,33.77367,66.5146
215.44346900318823,7162858.0,28.38123,66.5302
464.15888336127773,3401715.0,-57.14999,66.5189
1000.0,4903774.0,-81.36926,66.5167
2154.4346900318824,3916949.0,-23.9215,66.5098
4641.588833612777,3844530.0,-40.89331,66.5238
10000.0,3240487.0,13.55879,66.5276
