Frequency,Impedance,Phase Angle,Temperature (Dry Bath)
10.0,118128.3,-24.59338,67.1115
21.5,98467.57,-21.48289,67.1248
46.4,85231.72,-18.28047,67.1261
100.0,75498.38,-14.95191,67.1256
215.4,69222.74,-12.14827,67.1103
464.2,62172.93,-13.49599,67.1168
1000.0,56934.35,-13.79679,67.1116
2154.4,51804.8,-16.33587,67.1236
4641.6,46456.54,-23.65321,67.1086
10000.0,39126.27,-35.38431,67.106
