Frequency,Impedance,Phase Angle,Temperature (Dry Bath)
10.0,5126200.0,-2.742714,70.7499
21.544346900318832,6033818.0,13.67979,70.7459
46.41588833612777,4059835.0,-39.07102,70.732
100.0,508259.6,36.80588,70.7321
215.44346900318823,910957.6,-53.95496,70.7297
464.15888336127773,482785.8,-44.45341,70.7321
1000.0,290677.4,-118.2458,70.713
2154.4346900318824,543301.8,-100.7187,70.7175
4641.588833612777,140359.2,-89.45484,70.7272
10000.0,64198.61,-82.66469,70.7192
