Frequency,Impedance,Phase Angle,Temperature (Dry Bath)
10.0,26279290.0,-34.87115,67.4869
21.5,22026760.0,-42.27851,67.4742
46.4,13159960.0,-60.52509,67.5017
100.0,13101550.0,-44.58321,67.4934
215.4,3964464.0,-101.2904,67.4927
464.2,1583310.0,-74.7723,67.4932
1000.0,914652.5,-73.39641,67.5002
2154.4,450407.0,-83.57087,67.4693
4641.6,232732.6,-84.8092,67.4783
10000.0,111581.0,-85.07716,67.4943
