Frequency,Impedance,Phase Angle,Temperature (Dry Bath)
10.0,7812021.0,12.07694,65.7805
21.544346900318832,5270005.0,-12.14281,65.7717
46.41588833612777,4020608.0,-3.443935,65.7706
100.0,2065380.0,-74.29297,65.789
215.44346900318823,3886.138,-70.5946,65.7814
464.15888336127773,3572522.0,106.7049,65.7818
1000.0,596905.0,-113.7667,65.7835
2154.4346900318824,350532.2,-90.20785,65.7679
4641.588833612777,202642.8,-77.8271,65.7767
10000.0,86811.91,-87.50449,65.7719
