Frequency,Impedance,Phase Angle,Temperature (Dry Bath)
10.0,155909.5,-6.302013,68.0703
21.5,150041.0,-5.166003,68.055
46.4,144862.9,-4.679941,68.0552
100.0,141511.6,-5.641876,68.0403
215.4,133973.7,-6.779649,68.0386
464.2,129664.7,-7.971941,68.0691
1000.0,129130.6,-12.73662,68.0518
2154.4,118124.8,-19.0093,68.0665
4641.6,102091.0,-33.79351,68.0682
10000.0,73704.81,-55.10646,68.0829
