Frequency,Impedance,Phase Angle,Temperature (Dry Bath)
10.0,41566270.0,-30.39589,67.8706
21.5,24725220.0,-29.04335,67.8629
46.4,36125910.0,-49.52405,67.856
100.0,4921790.0,-38.20112,67.8652
215.4,6985353.0,-80.94215,67.8602
464.2,2505443.0,-80.48993,67.8534
1000.0,1212881.0,-89.25819,67.88
2154.4,634172.4,-88.62313,67.8691
4641.6,281837.6,-90.35404,67.8663
10000.0,144111.9,-93.70826,67.874
