Frequency,Impedance,Phase Angle,Temperature (Dry Bath)
10.0,4494003.0,-12.96319,70.8813
21.544346900318832,4693898.0,-7.974011,70.9021
46.41588833612777,5645627.0,-16.08667,70.894
100.0,342354.7,-17.06178,70.8944
215.44346900318823,601079.7,32.30239,70.9001
464.15888336127773,883004.1,-54.79325,70.8875
1000.0,543285.5,-120.2143,70.8779
2154.4346900318824,223880.4,-101.0296,70.8885
4641.588833612777,109445.0,-85.01515,70.8897
10000.0,57593.14,-89.5671,70.888
