Frequency,Impedance,Phase Angle,Temperature (Dry Bath)
10.0,31136030.0,-33.30816,67.1994
21.5,23254000.0,-31.10993,67.2293
46.4,14702160.0,-60.95069,67.2142
100.0,5621992.0,-36.25163,67.2264
215.4,156108.5,161.4424,67.2164
464.2,1534982.0,-79.55037,67.2086
1000.0,778393.5,-75.55608,67.23
2154.4,425436.1,-83.2244,67.2248
4641.6,219772.0,-81.69387,67.2095
10000.0,106515.8,-83.7666,67.2138
