Frequency,Impedance,Phase Angle,Temperature (Dry Bath)
10.0,419052.4,-9.666221,67.2933
21.5,388357.3,-9.13066,67.2932
46.4,365006.1,-8.291491,67.2924
100.0,349028.6,-6.234172,67.2849
215.4,240948.9,11.85594,67.2894
464.2,299754.2,-11.2606,67.3079
1000.0,269828.0,-22.0613,67.2904
2154.4,238216.9,-32.79947,67.2913
4641.6,166068.5,-49.69981,67.2959
10000.0,101345.0,-64.37688,67.2999
