Frequency,Impedance,Phase Angle,Temperature (Dry Bath)
10.0,28475810.0,-9.240692,67.0022
21.5,22962880.0,-26.89892,67.0149
46.4,20046920.0,-56.77712,67.0119
100.0,5147006.0,-160.6611,66.9946
215.4,4404575.0,-105.9058,66.9915
464.2,2060482.0,-97.27184,67.0124
1000.0,1355319.0,-79.57817,67.0193
2154.4,636496.6,-95.2873,67.0212
4641.6,270195.6,-89.7715,67.0132
10000.0,132110.8,-86.55874,67.0253
