Frequency,Impedance,Phase Angle,Temperature (Dry Bath)
10.0,250989.8,-5.55624,67.0381
21.5,242829.3,-5.678773,67.0376
46.4,234299.1,-6.114717,67.0444
100.0,223727.4,-5.326053,67.0369
215.4,170053.3,77.50633,67.0442
464.2,197689.3,-13.63748,67.0269
1000.0,179048.1,-21.0572,67.031
2154.4,139585.2,-33.96762,67.0198
4641.6,99313.61,-49.76591,67.0217
10000.0,60037.45,-60.07317,67.0357
