Frequency,Impedance,Phase Angle,Temperature (Dry Bath)
10.0,6246116.0,4.151026,72.1465
21.544346900318832,6506895.0,-9.84729,72.1622
46.41588833612777,6579398.0,-23.48115,72.163
100.0,655392.0,3.540821,72.153
215.44346900318823,341535.3,41.37363,72.1509
464.15888336127773,2220070.0,-177.4754,72.1437
1000.0,528426.8,-143.1326,72.1524
2154.4346900318824,617960.2,-166.7528,72.1606
4641.588833612777,221892.5,-68.71092,72.1551
10000.0,196785.2,-78.61144,72.1631
