Frequency,Impedance,Phase Angle,Temperature (Dry Bath)
10.0,20396380.0,-19.1964,68.0207
21.5,25810600.0,-30.57555,68.0476
46.4,29302370.0,-58.13474,68.0385
100.0,5695827.0,-45.83707,68.0538
215.4,4080187.0,-81.56596,68.0409
464.2,1830179.0,-96.42035,68.0403
1000.0,1146919.0,-80.88683,68.0437
2154.4,529493.3,-82.32068,68.0557
4641.6,282428.2,-81.83975,68.0392
10000.0,138542.0,-86.90057,68.0422
