Frequency,Impedance,Phase Angle,Temperature (Dry Bath)
10.0,32204830.0,-11.85606,67.1021
21.5,26213780.0,-38.86065,67.1044
46.4,16415860.0,-60.85743,67.1036
100.0,3119008.0,-45.69059,67.1086
215.4,2141390.0,-96.89568,67.085
464.2,1706239.0,-71.43486,67.1188
1000.0,875443.4,-77.06628,67.1075
2154.4,466490.3,-82.76721,67.112
4641.6,224557.3,-81.43496,67.0909
10000.0,110403.1,-83.7785,67.1131
