Frequency,Impedance,Phase Angle,Temperature (Dry Bath)
10.0,717062.3,-11.37862,68.2755
21.5,675136.3,-10.22641,68.263
46.4,638975.9,-10.91971,68.2804
100.0,555129.7,-13.35817,68.2787
215.4,505472.3,-19.73909,68.2688
464.2,447751.3,-22.13887,68.2552
1000.0,376170.7,-30.27938,68.2652
2154.4,269198.8,-41.24524,68.267
4641.6,188674.8,-53.39804,68.289
10000.0,116162.5,-67.8886,68.259
