Frequency,Impedance,Phase Angle,Temperature (Dry Bath)
10.0,162448.3,-16.28553,70.7974
21.544346900318832,144013.3,-17.61436,70.8034
46.41588833612777,122896.5,-17.35486,70.807
100.0,106386.0,-5.706852,70.807
215.44346900318823,84851.27,-23.88385,70.8214
464.15888336127773,86091.25,-25.06323,70.8132
1000.0,66953.11,-24.83408,70.8163
2154.4346900318824,71491.8,-31.3645,70.8259
4641.588833612777,45436.38,-36.01886,70.8344
10000.0,33134.89,-59.68316,70.8125
