Frequency,Impedance,Phase Angle,Temperature (Dry Bath)
10.0,5343324.0,-0.7382355,69.3721
21.544346900318832,7685252.0,-21.89276,69.3615
46.41588833612777,4788548.0,-17.13208,69.3823
100.0,783608.0,52.13497,69.3912
215.44346900318823,623050.6,-79.28692,69.3899
464.15888336127773,992708.8,-20.46776,69.4012
1000.0,509440.3,-82.90765,69.3829
2154.4346900318824,297973.5,-60.67257,69.3886
4641.588833612777,112122.8,-84.17524,69.4195
10000.0,53780.9,-80.13833,69.4054
