Frequency,Impedance,Phase Angle,Temperature (Dry Bath)
10.0,561301.3,-11.28268,68.1906
21.5,517901.8,-10.52284,68.1875
46.4,489514.1,-11.38745,68.1773
100.0,424681.4,-13.17403,68.191
215.4,403752.4,-19.59363,68.1794
464.2,341978.2,-20.40141,68.1901
1000.0,284847.9,-27.47918,68.1773
2154.4,216369.8,-37.81629,68.1758
4641.6,159050.0,-50.68696,68.1585
10000.0,112116.2,-62.62298,68.1769
