Frequency,Impedance,Phase Angle,Temperature (Dry Bath)
10.0,24430160.0,-21.12072,67.1184
21.5,27254110.0,-20.07376,67.1145
46.4,19245910.0,-53.26369,67.119
100.0,9045223.0,-8.513823,67.1206
215.4,2921822.0,-83.46844,67.1214
464.2,1774909.0,-75.91697,67.1207
1000.0,1237402.0,-74.08838,67.1172
2154.4,638585.9,-89.39495,67.1177
4641.6,286594.9,-85.5364,67.1117
10000.0,133533.2,-86.54099,67.1234
