Frequency,Impedance,Phase Angle,Temperature (Dry Bath)
10.0,4393404.0,4.803118,71.0665
21.544346900318832,6378240.0,17.36818,71.0741
46.41588833612777,4484999.0,-12.48783,71.0777
100.0,894182.8,-29.44452,71.071
215.44346900318823,2242561.0,-93.15274,71.0746
464.15888336127773,1466091.0,-120.3754,71.0654
1000.0,271160.8,159.1447,71.0682
2154.4346900318824,300307.8,-75.18995,71.062
4641.588833612777,289450.0,-56.25183,71.0551
10000.0,154257.0,-72.09078,71.0584
