Frequency,Impedance,Phase Angle,Temperature (Dry Bath)
10.0,38524830.0,-7.223018,67.9894
21.5,38257750.0,-32.55902,67.9844
46.4,23827350.0,-65.14377,67.9955
100.0,4298065.0,-59.84599,68.0028
215.4,3677159.0,-73.20056,68.0017
464.2,2160933.0,-76.20735,68.0034
1000.0,926404.5,-78.74862,67.9962
2154.4,520284.1,-85.6515,67.9951
4641.6,249402.0,-85.77007,67.9831
10000.0,129448.3,-91.72359,67.9884
