Frequency,Impedance,Phase Angle,Temperature (Dry Bath)
10.0,138297.5,-5.889893,67.2684
21.5,133145.7,-4.815632,67.2717
46.4,129209.5,-4.416679,67.2455
100.0,124551.2,-4.183114,67.2419
215.4,123467.8,-5.959826,67.2652
464.2,119941.8,-7.668328,67.27
1000.0,111648.6,-11.90574,67.2722
2154.4,105200.7,-18.97222,67.2805
4641.6,90540.31,-31.32265,67.279
10000.0,63168.02,-49.87823,67.281
