Frequency,Impedance,Phase Angle,Temperature (Dry Bath)
10.0,5403832.0,7.433889,70.6595
21.544346900318832,4709489.0,-5.132216,70.6389
46.41588833612777,6063975.0,-15.14134,70.66
100.0,725165.5,-66.47322,70.6613
215.44346900318823,821094.0,-69.48851,70.635
464.15888336127773,439364.1,-59.00968,70.6799
1000.0,757247.4,-40.76365,70.6477
2154.4346900318824,482282.1,-94.2136,70.6489
4641.588833612777,103423.0,-78.76159,70.6554
10000.0,69314.45,-76.78672,70.6553
