Frequency,Impedance,Phase Angle,Temperature (Dry Bath)
10.0,138135.0,-6.407918,67.3274
21.5,131996.5,-5.452604,67.3306
46.4,127382.0,-5.076545,67.3146
100.0,121967.3,-5.61162,67.3118
215.4,116161.5,-4.033549,67.3266
464.2,117996.8,-8.810924,67.324
1000.0,108887.6,-12.8417,67.3383
2154.4,101736.4,-18.69942,67.3211
4641.6,86136.15,-32.81198,67.3316
10000.0,63174.27,-48.68939,67.3487
