Frequency,Impedance,Phase Angle,Temperature (Dry Bath)
10.0,150600.2,-6.190378,68.0964
21.5,144637.2,-5.334446,68.0964
46.4,139705.7,-4.915953,68.0964
100.0,130921.8,-5.345074,68.0964
215.4,130645.4,-5.998043,68.0964
464.2,123720.5,-7.459802,68.0964
1000.0,118883.1,-11.54654,68.0964
2154.4,111093.0,-19.33585,68.0964
4641.6,96347.29,-32.05058,68.0964
10000.0,70447.05,-51.22185,68.0964
