Frequency,Impedance,Phase Angle,Temperature (Dry Bath)
10.0,11915.08,-4.341915,67.3158
21.5,11650.95,-3.723862,67.3149
46.4,11402.25,-3.066911,67.2981
100.0,11341.65,-3.602679,67.3287
215.4,11252.66,-3.706225,67.3338
464.2,10990.49,-3.664634,67.3134
1000.0,10717.93,-3.738048,67.3294
2154.4,10507.98,-4.143301,67.3114
4641.6,10286.07,-5.835585,67.3249
10000.0,10026.83,-9.249659,67.3177
