Frequency,Impedance,Phase Angle,Temperature (Dry Bath)
10.0,20727990.0,-19.3003,68.2975
21.5,21352900.0,-40.67666,68.2955
46.4,25184170.0,-40.90244,68.3047
100.0,6223513.0,-47.08921,68.3061
215.4,8507975.0,-66.49923,68.2982
464.2,2551214.0,-89.37317,68.2882
1000.0,1544638.0,-90.48065,68.3001
2154.4,699241.0,-88.53751,68.3025
4641.6,329170.0,-91.22811,68.2861
10000.0,154265.6,-96.01785,68.3069
