Frequency,Impedance,Phase Angle,Temperature (Dry Bath)
10.0,37168430.0,-18.72208,67.1924
21.5,25405470.0,-34.40912,67.1792
46.4,17362170.0,-46.81766,67.1682
100.0,6696797.0,-28.72769,67.1898
215.4,6804571.0,-82.49709,67.1821
464.2,2607392.0,-70.35231,67.1949
1000.0,1200188.0,-88.39992,67.2
2154.4,597331.5,-89.18174,67.1827
4641.6,267652.8,-87.77,67.1925
10000.0,129258.0,-88.05308,67.2164
