Frequency,Impedance,Phase Angle,Temperature (Dry Bath)
10.0,4435023.0,4.084327,29.7813
21.544346900318832,4677667.0,9.579741,29.8457
46.41588833612777,6992997.0,-13.0575,29.7928
100.0,1667446.0,75.25929,29.886
215.44346900318823,169497700.0,142.0687,29.5308
464.15888336127773,2152581.0,-12.44526,29.7237
1000.0,700508.7,-21.07677,29.8861
2154.4346900318824,1207022.0,-105.7175,29.8494
4641.588833612777,307300.8,-93.99084,29.9606
10000.0,178109.2,-86.38578,29.8359
