Frequency,Impedance,Phase Angle,Temperature (Dry Bath)
10.0,23871810.0,-15.72722,68.0189
21.5,15654120.0,-25.02256,68.0151
46.4,16269720.0,-59.12664,68.0219
100.0,5363091.0,-71.80606,68.0211
215.4,3969422.0,-79.61521,68.0162
464.2,2168082.0,-73.16183,68.0219
1000.0,985697.5,-78.08654,68.0066
2154.4,542138.9,-80.87817,68.0224
4641.6,252598.0,-90.32955,68.0258
10000.0,126178.2,-88.70511,68.0132
