Frequency,Impedance,Phase Angle,Temperature (Dry Bath)
10.0,140657.1,-5.709206,67.4271
21.5,135807.0,-4.653392,67.4154
46.4,131804.0,-4.337892,67.431
100.0,125940.1,-4.54938,67.4455
215.4,123550.2,-2.968117,67.415
464.2,122163.6,-6.841622,67.425
1000.0,113891.0,-13.24721,67.4324
2154.4,109216.8,-20.14057,67.4335
4641.6,90569.92,-33.80052,67.4464
10000.0,63812.1,-51.32774,67.4303
