Frequency,Impedance,Phase Angle,Temperature (Dry Bath)
10.0,25504.83,-29.20708,71.4482
21.544346900318832,20059.46,-27.1109,71.4488
46.41588833612777,16018.64,-25.09304,71.4612
100.0,13205.3,-23.09226,71.4581
215.44346900318823,10835.63,-21.38117,71.4525
464.15888336127773,9332.022,-16.08694,71.4522
1000.0,8246.257,-14.72157,71.4643
2154.4346900318824,7418.379,-13.0203,71.4535
4641.588833612777,6816.967,-12.21311,71.4553
10000.0,6304.253,-13.65925,71.45
