Frequency,Impedance,Phase Angle,Temperature (Dry Bath)
10.0,31703940.0,-6.471971,67.1087
21.5,20741350.0,-35.48282,67.1225
46.4,15624260.0,-56.75706,67.1364
100.0,6077848.0,-80.28342,67.1349
215.4,3170273.0,-81.9964,67.1264
464.2,1966378.0,-79.08422,67.1093
1000.0,963230.7,-84.19835,67.1321
2154.4,460734.6,-81.70049,67.1219
4641.6,223214.4,-80.56347,67.1294
10000.0,115839.9,-79.77998,67.1398
