Frequency,Impedance,Phase Angle,Temperature (Dry Bath)
10.0,12382.48,-4.392251,67.235
21.5,12089.33,-3.67336,67.2503
46.4,11785.49,-3.066249,67.2454
100.0,11656.29,-3.140865,67.255
215.4,11056.9,-1.852696,67.2592
464.2,11288.73,-3.334117,67.2397
1000.0,11008.13,-3.453752,67.2413
2154.4,10819.35,-4.106249,67.2586
4641.6,10622.67,-5.729683,67.2368
10000.0,10330.83,-9.468794,67.228
