Frequency,Impedance,Phase Angle,Temperature (Dry Bath)
10.0,6997.154,-30.73293,70.4678
21.544346900318832,5509.535,-27.00979,70.4972
46.41588833612777,4475.452,-23.4072,70.4671
100.0,3715.033,-20.12827,70.4836
215.44346900318823,3220.15,-16.95196,70.4837
464.15888336127773,2847.586,-13.75865,70.4703
1000.0,2563.102,-10.94327,70.4647
2154.4346900318824,2369.43,-8.906231,70.4619
4641.588833612777,2239.424,-7.639564,70.4771
10000.0,2123.109,-7.763956,70.4588
