Frequency,Impedance,Phase Angle,Temperature (Dry Bath)
10.0,139654.0,-5.795021,67.2816
21.5,134098.2,-4.862056,67.2908
46.4,130043.0,-4.468323,67.3059
100.0,123639.3,-4.802351,67.2968
215.4,196251.6,-48.10623,67.2869
464.2,119919.6,-8.072511,67.2773
1000.0,115642.7,-11.74675,67.2896
2154.4,105392.7,-20.64131,67.3003
4641.6,86626.57,-34.53514,67.291
10000.0,61960.36,-50.90784,67.302
