Frequency,Impedance,Phase Angle,Temperature (Dry Bath)
10.0,122195.7,-25.3711,68.1794
21.5,101561.7,-22.25214,68.1779
46.4,87397.01,-19.26604,68.1811
100.0,74415.78,-16.52593,68.1848
215.4,68476.04,-14.91856,68.1689
464.2,62437.05,-13.89734,68.1704
1000.0,56068.13,-14.09079,68.163
2154.4,53043.32,-17.0136,68.1717
4641.6,46896.01,-25.05251,68.1805
10000.0,41082.08,-34.25549,68.1858
