Frequency,Impedance,Phase Angle,Temperature (Dry Bath)
10.0,27731780.0,-29.32884,67.1719
21.5,20977050.0,-40.88586,67.1431
46.4,13694830.0,-65.05706,67.1444
100.0,2807117.0,-65.46099,67.1668
215.4,2642750.0,-83.40655,67.1426
464.2,1591738.0,-74.8251,67.1551
1000.0,834093.0,-78.44708,67.1494
2154.4,413490.6,-81.86991,67.1298
4641.6,228845.4,-83.37551,67.1479
10000.0,107931.9,-84.26375,67.1498
