Frequency,Impedance,Phase Angle,Temperature (Dry Bath)
10.0,425287.2,-9.652708,67.1465
21.5,398543.8,-9.637222,67.1411
46.4,371347.7,-10.88143,67.1469
100.0,331809.9,-6.744599,67.1483
215.4,323776.2,-10.95119,67.1507
464.2,289830.1,-16.33902,67.1474
1000.0,251164.8,-25.86194,67.1634
2154.4,197272.8,-36.5544,67.1486
4641.6,135627.5,-48.03488,67.1621
10000.0,87779.61,-58.53821,67.1571
