Frequency,Impedance,Phase Angle,Temperature (Dry Bath)
10.0,19294500.0,-23.67431,68.1217
21.5,21445160.0,-49.02959,68.1034
46.4,20215350.0,-60.63074,68.1219
100.0,6277106.0,-46.22572,68.1085
215.4,4771805.0,-65.67868,68.1137
464.2,2140527.0,-84.40372,68.1225
1000.0,1154042.0,-84.59831,68.1106
2154.4,517178.8,-90.78478,68.1311
4641.6,239870.9,-89.09821,68.1166
10000.0,111377.8,-94.75365,68.0975
