Frequency,Impedance,Phase Angle,Temperature (Dry Bath)
10.0,1288261.0,-11.30615,67.8498
21.5,1119872.0,-11.14701,67.8633
46.4,1036086.0,-12.08212,67.8538
100.0,1015772.0,-18.78161,67.848
215.4,799048.9,-19.66604,67.8537
464.2,735613.4,-28.08959,67.8336
1000.0,552272.9,-38.55352,67.8428
2154.4,382101.0,-50.15144,67.8471
4641.6,252915.2,-60.98989,67.8525
10000.0,167103.7,-74.5384,67.8473
