Frequency,Impedance,Phase Angle,Temperature (Dry Bath)
10.0,26310500.0,-18.0877,67.1709
21.5,19144850.0,-27.40773,67.1773
46.4,15496130.0,-54.73369,67.1692
100.0,17375920.0,57.23615,67.1795
215.4,3298075.0,-57.41495,67.1926
464.2,2438298.0,-79.79142,67.1864
1000.0,921934.4,-88.39795,67.1733
2154.4,474596.1,-83.37638,67.188
4641.6,241945.2,-81.48135,67.1805
10000.0,119219.5,-79.33412,67.1842
