Frequency,Impedance,Phase Angle,Temperature (Dry Bath)
10.0,31974400.0,-6.227624,67.3919
21.5,21645780.0,-43.11747,67.3889
46.4,14217680.0,-61.57724,67.3855
100.0,3391274.0,-81.32747,67.3855
215.4,3437920.0,-122.8376,67.3823
464.2,2165455.0,-71.81649,67.3805
1000.0,927714.2,-80.79206,67.383
2154.4,483983.9,-82.38759,67.3978
4641.6,256902.9,-80.5804,67.3764
10000.0,131379.6,-80.03537,67.3892
