Frequency,Impedance,Phase Angle,Temperature (Dry Bath)
10.0,219780.7,-26.27269,71.2658
21.544346900318832,176702.4,-24.22604,71.2744
46.41588833612777,144723.5,-22.1831,71.285
100.0,124993.3,-30.9886,71.2626
215.44346900318823,123913.4,-23.89513,71.2638
464.15888336127773,92587.91,-13.36988,71.2699
1000.0,93096.28,-23.79241,71.266
2154.4346900318824,77345.64,-33.68652,71.2754
4641.588833612777,47677.42,-43.61412,71.2763
10000.0,37534.65,-50.43862,71.2887
