Frequency,Impedance,Phase Angle,Temperature (Dry Bath)
10.0,210043.1,-16.22264,28.5806
21.544346900318832,184320.3,-14.28816,28.7981
46.41588833612777,164406.1,-13.62293,28.5579
100.0,149095.0,3.520316,28.7208
215.44346900318823,141806.5,-13.11247,28.8349
464.15888336127773,138670.0,-8.361581,28.591
1000.0,97996.07,-25.85244,28.7738
2154.4346900318824,96351.14,-19.66377,28.7688
4641.588833612777,88015.23,-27.98615,28.8214
10000.0,65931.07,-34.87754,28.7503
