Frequency,Impedance,Phase Angle,Temperature (Dry Bath)
10.0,3435582.0,-3.493533,72.2521
21.544346900318832,5706979.0,-7.168575,72.2336
46.41588833612777,5091142.0,9.909221,72.236
100.0,306963.0,121.5235,72.2516
215.44346900318823,402661.6,-1.009108,72.253
464.15888336127773,480410.7,-74.22425,72.248
1000.0,1327896.0,21.39652,72.2605
2154.4346900318824,2625706.0,-146.1906,72.2629
4641.588833612777,445087.1,-43.42393,72.2468
10000.0,162470.2,-66.50724,72.2534
