Frequency,Impedance,Phase Angle,Temperature (Dry Bath)
10.0,20540800.0,-6.38748,68.0273
21.5,17592260.0,-18.12518,68.031
46.4,11795680.0,-53.49814,68.0516
100.0,7358119.0,-41.30695,68.042
215.4,3374469.0,-68.06589,68.0402
464.2,2044760.0,-66.58793,68.0394
1000.0,980086.5,-87.79991,68.051
2154.4,507708.2,-83.41712,68.044
4641.6,225384.1,-92.6302,68.0426
10000.0,115194.5,-94.99794,68.0319
