Frequency,Impedance,Phase Angle,Temperature (Dry Bath)
10.0,14986040.0,-0.9390785,68.0034
21.5,21500260.0,-40.73802,68.0234
46.4,19171630.0,-58.38349,68.0007
100.0,5685747.0,-55.46931,68.0142
215.4,4382467.0,-76.88863,68.0067
464.2,1927776.0,-75.86828,68.0168
1000.0,824585.5,-81.72974,67.9993
2154.4,504947.6,-78.48861,68.0051
4641.6,241174.9,-85.43297,68.0003
10000.0,152504.2,-89.10842,67.999
