Frequency,Impedance,Phase Angle,Temperature (Dry Bath)
10.0,5234149.0,2.912494,71.3827
21.544346900318832,3735770.0,-10.30079,71.3915
46.41588833612777,5521177.0,-10.94845,71.3835
100.0,505891.9,-4.81407,71.3738
215.44346900318823,998324.6,-60.25368,71.3934
464.15888336127773,764778.0,-104.6319,71.3805
1000.0,837282.8,-82.45544,71.3913
2154.4346900318824,749424.8,-106.7764,71.3926
4641.588833612777,228751.1,-91.9252,71.3809
10000.0,100926.9,-87.57548,71.3886
