Frequency,Impedance,Phase Angle,Temperature (Dry Bath)
10.0,280038.3,-8.779078,67.1399
21.5,264025.7,-7.891577,67.144
46.4,251603.2,-7.770846,67.1252
100.0,232765.6,-8.498259,67.1357
215.4,65439.83,-77.69107,67.1407
464.2,218642.9,-16.16069,67.1297
1000.0,190530.8,-21.85314,67.1403
2154.4,156022.5,-34.73941,67.1285
4641.6,104621.7,-49.49041,67.1261
10000.0,62448.57,-61.23034,67.1491
