Frequency,Impedance,Phase Angle,Temperature (Dry Bath)
10.0,8176289.0,16.02059,70.4
21.544346900318832,3833148.0,-8.699299,70.4
46.41588833612777,6711948.0,-18.27412,70.4
100.0,1825346.0,49.10303,70.4
215.44346900318823,2812371.0,98.20909,70.4
464.15888336127773,2322088.0,155.1695,70.4
1000.0,1030201.0,-59.24148,70.4
2154.4346900318824,954106.6,-60.31601,70.4
4641.588833612777,1019751.0,-67.40986,70.4
10000.0,2536178.0,-69.24502,70.4
