Frequency,Impedance,Phase Angle,Temperature (Dry Bath)
10.0,26968810.0,-27.94839,68.3412
21.5,19152530.0,-20.15608,68.3468
46.4,11805100.0,-57.59084,68.3212
100.0,7475186.0,-52.62954,68.3384
215.4,2967294.0,-95.85335,68.3249
464.2,1980928.0,-74.72496,68.3255
1000.0,895955.5,-87.16637,68.3218
2154.4,472044.8,-84.42727,68.3283
4641.6,248543.7,-86.44195,68.3282
10000.0,115747.4,-87.71048,68.3221
