Frequency,Impedance,Phase Angle,Temperature (Dry Bath)
10.0,18053130.0,-16.2112,68.1456
21.5,18004090.0,-20.23702,68.1399
46.4,19809980.0,-41.25735,68.1366
100.0,5846326.0,-19.34909,68.1399
215.4,16224720.0,-60.69694,68.1469
464.2,3882975.0,-84.47236,68.127
1000.0,1484569.0,-89.48948,68.1676
2154.4,641161.9,-84.78847,68.14
4641.6,307146.9,-93.74715,68.1187
10000.0,155140.7,-97.2781,68.1362
