Frequency,Impedance,Phase Angle,Temperature (Dry Bath)
10.0,11809.64,-4.342918,67.4847
21.5,11471.39,-3.793323,67.4885
46.4,11272.1,-3.359162,67.4746
100.0,11091.9,-3.232412,67.4821
215.4,11326.94,-4.48076,67.4903
464.2,10832.72,-3.698123,67.5075
1000.0,10566.89,-3.885272,67.4945
2154.4,10347.4,-4.23535,67.4869
4641.6,10153.17,-5.782515,67.4802
10000.0,9880.765,-9.216514,67.4798
