Frequency,Impedance,Phase Angle,Temperature (Dry Bath)
10.0,3970204.0,-1.133515,71.1232
21.544346900318832,3245447.0,9.732546,71.1465
46.41588833612777,3604742.0,-30.06948,71.1298
100.0,641089.4,66.65037,71.1337
215.44346900318823,1015040.0,108.4893,71.1388
464.15888336127773,2237027.0,-13.82429,71.1179
1000.0,201783.1,-34.95664,71.1135
2154.4346900318824,283974.1,-79.3324,71.1283
4641.588833612777,135437.0,-67.04735,71.1313
10000.0,65322.09,-92.64284,71.1175
