Frequency,Impedance,Phase Angle,Temperature (Dry Bath)
10.0,142251.5,-8.015874,67.3161
21.5,134792.4,-7.324453,67.2993
46.4,128777.6,-7.480438,67.2912
100.0,122671.5,-8.268141,67.309
215.4,110045.1,-4.340541,67.2923
464.2,110318.2,-11.59623,67.3012
1000.0,98349.33,-15.5812,67.2957
2154.4,85352.53,-22.99867,67.3073
4641.6,69650.66,-30.91785,67.3059
10000.0,51527.41,-42.47946,67.2898
