Frequency,Impedance,Phase Angle,Temperature (Dry Bath)
10.0,30896780.0,-24.72688,67.8889
21.5,29287250.0,-27.74572,67.9049
46.4,22941570.0,-56.74555,67.8989
100.0,6279141.0,-82.38297,67.8929
215.4,3295628.0,-91.46348,67.91
464.2,2370551.0,-72.89601,67.8883
1000.0,1152029.0,-91.0891,67.902
2154.4,498833.8,-88.92249,67.8967
4641.6,242397.5,-92.5171,67.8985
10000.0,116549.4,-90.22455,67.8846
