Frequency,Impedance,Phase Angle,Temperature (Dry Bath)
10.0,26367940.0,-31.94095,67.3923
21.5,24448850.0,-36.88294,67.3918
46.4,13945520.0,-67.46705,67.4138
100.0,3719653.0,-53.69746,67.392
215.4,950044.6,133.6529,67.3923
464.2,1487831.0,-70.37102,67.3874
1000.0,966842.6,-88.95676,67.3867
2154.4,438751.9,-81.11503,67.3949
4641.6,224155.8,-83.59489,67.4064
10000.0,112811.7,-83.67424,67.4015
