Frequency,Impedance,Phase Angle,Temperature (Dry Bath)
10.0,29584.52,-20.80771,72.2109
21.544346900318832,24730.3,-21.79449,72.2051
46.41588833612777,20524.26,-23.35842,72.2107
100.0,16458.42,-25.75892,72.2043
215.44346900318823,13546.51,-27.01948,72.2303
464.15888336127773,10563.16,-29.30888,72.2066
1000.0,8225.638,-27.17988,72.2111
2154.4346900318824,6150.037,-26.95396,72.2307
4641.588833612777,4992.787,-25.24084,72.2171
10000.0,4108.409,-20.84607,72.2141
