Frequency,Impedance,Phase Angle,Temperature (Dry Bath)
10.0,651016.8,-10.83371,68.0788
21.5,609418.0,-10.31998,68.0738
46.4,563266.4,-10.90823,68.066
100.0,481321.6,-14.34619,68.0921
215.4,467113.3,-16.94441,68.0678
464.2,397405.0,-20.3717,68.0555
1000.0,328358.3,-27.78343,68.056
2154.4,250653.2,-40.3778,68.071
4641.6,176523.2,-49.84311,68.0484
10000.0,112224.2,-65.14935,68.0674
