Frequency,Impedance,Phase Angle,Temperature (Dry Bath)
10.0,29577000.0,-21.67992,67.6962
21.5,33112620.0,-23.15889,67.6727
46.4,25399500.0,-51.96367,67.6842
100.0,5314362.0,-56.70256,67.6838
215.4,5688700.0,-75.09248,67.6865
464.2,2012849.0,-78.59601,67.6947
1000.0,979137.9,-73.49149,67.6801
2154.4,561109.4,-85.38351,67.6802
4641.6,254419.0,-81.27166,67.682
10000.0,124676.8,-90.77581,67.6914
