Frequency,Impedance,Phase Angle,Temperature (Dry Bath)
10.0,26585970.0,-14.15779,68.238
21.5,20194090.0,-28.02201,68.2285
46.4,19057470.0,-51.41157,68.2258
100.0,4994939.0,-31.91635,68.232
215.4,3740946.0,-61.47889,68.2225
464.2,2197204.0,-86.67864,68.2239
1000.0,1102717.0,-82.57976,68.231
2154.4,489430.8,-84.75662,68.2251
4641.6,239236.9,-90.95396,68.2146
10000.0,110186.7,-91.33761,68.2181
