Frequency,Impedance,Phase Angle,Temperature (Dry Bath)
10.0,125553.9,-24.72167,67.1846
21.5,102944.1,-21.60846,67.1872
46.4,89462.14,-18.40727,67.1856
100.0,79884.04,-16.08366,67.1799
215.4,52316.81,-10.27289,67.1724
464.2,66115.28,-12.25558,67.1835
1000.0,59195.75,-13.52081,67.1788
2154.4,55285.28,-16.31232,67.1871
4641.6,48517.72,-24.447,67.1714
10000.0,39897.25,-36.02532,67.1705
