Frequency,Impedance,Phase Angle,Temperature (Dry Bath)
10.0,15600140.0,-16.53088,68.1206
21.5,19542940.0,-25.97224,68.1183
46.4,18614910.0,-51.81123,68.093
100.0,5961262.0,-40.022,68.0975
215.4,3918810.0,-71.04306,68.1095
464.2,1643908.0,-72.26004,68.1025
1000.0,886522.8,-76.11429,68.103
2154.4,452523.1,-83.85095,68.097
4641.6,241073.3,-80.90087,68.1009
10000.0,111566.1,-91.96192,68.1255
