Frequency,Impedance,Phase Angle,Temperature (Dry Bath)
10.0,4252730.0,-17.65845,65.7879
21.544346900318832,5638179.0,-2.66858,65.7771
46.41588833612777,4296503.0,-13.12645,65.7834
100.0,340063.9,-10.45809,65.7744
215.44346900318823,11839.13,-133.3528,65.7863
464.15888336127773,860026.2,-87.88766,65.7863
1000.0,666554.0,27.73804,65.7887
2154.4346900318824,249910.1,-110.2359,65.7875
4641.588833612777,172584.2,-99.67495,65.7844
10000.0,86269.84,-84.12228,65.7749
