Frequency,Impedance,Phase Angle,Temperature (Dry Bath)
10.0,263360.5,-9.590866,67.0938
21.5,248894.7,-8.863799,67.0871
46.4,237228.9,-8.521482,67.0922
100.0,226758.5,-9.732327,67.109
215.4,212158.7,-9.315751,67.1138
464.2,199497.9,-12.66195,67.1002
1000.0,178851.1,-20.46755,67.1109
2154.4,148695.7,-34.25748,67.1091
4641.6,105579.6,-46.93833,67.1011
10000.0,64978.53,-58.62884,67.0925
