Frequency,Impedance,Phase Angle,Temperature (Dry Bath)
10.0,45170660.0,9.231882,67.4759
21.5,31484080.0,-36.65077,67.499
46.4,18861550.0,-49.82616,67.4783
100.0,8633621.0,107.1782,67.4695
215.4,4229633.0,-40.35282,67.4712
464.2,2111353.0,-75.4573,67.4704
1000.0,1252725.0,-86.38417,67.4739
2154.4,541117.4,-86.86458,67.4696
4641.6,292328.8,-87.4906,67.4558
10000.0,135135.9,-85.04898,67.47
