Frequency,Impedance,Phase Angle,Temperature (Dry Bath)
10.0,168530.5,-6.160299,68.0062
21.5,161284.3,-5.041553,67.9961
46.4,155248.9,-4.905886,68.0094
100.0,146687.6,-5.52478,68.0096
215.4,148438.9,-7.542979,68.0044
464.2,145192.0,-9.178026,68.0073
1000.0,134983.0,-11.80111,68.0004
2154.4,122985.2,-21.05324,68.0033
4641.6,108816.2,-35.34924,68.0038
10000.0,73253.6,-60.4363,68.0022
