Frequency,Impedance,Phase Angle,Temperature (Dry Bath)
10.0,51536180.0,-13.83054,67.9233
21.5,36170400.0,-40.41416,67.8968
46.4,17480890.0,-50.77424,67.9069
100.0,7225533.0,-55.68416,67.9165
215.4,2582515.0,-79.74149,67.9142
464.2,2469066.0,-78.93992,67.9197
1000.0,1030858.0,-77.31812,67.9287
2154.4,479043.5,-82.40242,67.9104
4641.6,271544.8,-82.24511,67.8939
10000.0,132400.3,-89.71018,67.903
