Frequency,Impedance,Phase Angle,Temperature (Dry Bath)
10.0,28053770.0,-15.01722,67.2885
21.5,19400390.0,-42.81835,67.2829
46.4,13256240.0,-64.82293,67.3066
100.0,5901090.0,-45.51953,67.2844
215.4,192272.9,-140.5197,67.2968
464.2,1877395.0,-82.06966,67.2904
1000.0,1013098.0,-78.73532,67.3054
2154.4,478825.6,-85.09209,67.2795
4641.6,225011.3,-80.57823,67.2953
10000.0,117354.5,-79.89225,67.3077
