Frequency,Impedance,Phase Angle,Temperature (Dry Bath)
10.0,2005894.0,-1.835352,67.9677
21.5,2042258.0,-1.65195,67.9677
46.4,2022677.0,-1.101383,67.9677
100.0,1859232.0,-5.102854,67.9677
215.4,1880794.0,-15.4598,67.9677
464.2,1716687.0,-42.43515,67.9677
1000.0,866935.2,-53.19876,67.9677
2154.4,477133.4,-74.68617,67.9677
4641.6,253697.0,-81.79333,67.9677
10000.0,137709.4,-89.02773,67.9677
