Frequency,Impedance,Phase Angle,Temperature (Dry Bath)
10.0,37200950.0,-37.26363,67.2896
21.5,23820000.0,-32.13252,67.3038
46.4,15974160.0,-56.08523,67.3211
100.0,21227230.0,-67.32826,67.2954
215.4,2587322.0,-81.76822,67.3171
464.2,1678064.0,-79.52056,67.2885
1000.0,960237.1,-87.0867,67.2957
2154.4,476439.6,-87.20043,67.2948
4641.6,237955.8,-83.97156,67.3115
10000.0,112304.6,-82.21251,67.2981
