Frequency,Impedance,Phase Angle,Temperature (Dry Bath)
10.0,28911310.0,-26.78364,67.0775
21.5,23066380.0,-30.04369,67.0865
46.4,13190320.0,-60.92413,67.0642
100.0,3930844.0,-41.16836,67.0617
215.4,2459798.0,-63.48542,67.0636
464.2,1800147.0,-68.97945,67.0422
1000.0,862570.4,-78.52572,67.0734
2154.4,442704.2,-82.91451,67.0615
4641.6,218720.9,-83.39833,67.0436
10000.0,108839.1,-84.67811,67.0747
