Frequency,Impedance,Phase Angle,Temperature (Dry Bath)
10.0,12294.41,-4.301513,67.2223
21.5,11989.05,-3.456984,67.2275
46.4,11811.95,-3.462399,67.2212
100.0,11585.29,-3.237574,67.2345
215.4,11645.83,-0.8401862,67.2302
464.2,11244.92,-3.373302,67.232
1000.0,10975.34,-3.472935,67.2102
2154.4,10796.28,-4.208736,67.245
4641.6,10586.9,-5.82751,67.2317
10000.0,10313.09,-9.400597,67.221
