Frequency,Impedance,Phase Angle,Temperature (Dry Bath)
10.0,23464.34,-21.13558,71.3057
21.544346900318832,19830.68,-18.37313,71.2992
46.41588833612777,17168.19,-15.60434,71.2993
100.0,15145.19,-13.23997,71.3065
215.44346900318823,7267.553,-17.45123,71.3115
464.15888336127773,12963.2,-9.108501,71.295
1000.0,12557.08,-10.64702,71.3122
2154.4346900318824,11487.07,-8.421771,71.3066
4641.588833612777,10937.63,-10.54835,71.3166
10000.0,9851.627,-15.15533,71.3083
