Frequency,Impedance,Phase Angle,Temperature (Dry Bath)
10.0,1185817.0,-19.21662,66.4328
21.544346900318832,1500836.0,-11.85736,66.4342
46.41588833612777,1144113.0,-16.63673,66.4213
100.0,426323.7,-7.865945,66.4254
215.44346900318823,251752.4,-57.86852,66.4133
464.15888336127773,501841.8,-75.91899,66.4317
1000.0,493242.3,-61.01557,66.4261
2154.4346900318824,210232.0,-62.92499,66.4209
4641.588833612777,115056.9,-89.07195,66.4271
10000.0,56862.84,-80.86408,66.4282
