Frequency,Impedance,Phase Angle,Temperature (Dry Bath)
10.0,46186780.0,-14.60644,67.9
21.5,46883620.0,-34.92728,67.9096
46.4,19540750.0,-56.16511,67.8957
100.0,4630805.0,-53.2375,67.9122
215.4,4108479.0,-74.06595,67.9087
464.2,2429902.0,-70.13192,67.9068
1000.0,1082373.0,-81.14297,67.9017
2154.4,560580.7,-79.49072,67.9149
4641.6,301440.6,-82.41197,67.9067
10000.0,160507.9,-89.89857,67.9065
