Frequency,Impedance,Phase Angle,Temperature (Dry Bath)
10.0,575547.4,-11.53501,68.1505
21.5,525976.9,-10.55701,68.165
46.4,485069.8,-11.60373,68.144
100.0,443441.6,-15.863,68.1526
215.4,401499.3,-18.31994,68.1369
464.2,340945.1,-20.2092,68.1393
1000.0,284683.9,-28.834,68.154
2154.4,220896.0,-36.332,68.143
4641.6,157447.5,-47.88172,68.1433
10000.0,108590.4,-60.8472,68.139
