Frequency,Impedance,Phase Angle,Temperature (Dry Bath)
10.0,150336.7,-6.495342,68.1154
21.5,144653.3,-5.305636,68.1154
46.4,139539.9,-4.815353,68.1154
100.0,131537.8,-3.688107,68.1154
215.4,131508.4,-4.319346,68.1154
464.2,126551.8,-7.428491,68.1154
1000.0,117102.3,-12.71312,68.1154
2154.4,111737.1,-19.15832,68.1154
4641.6,99715.1,-31.7194,68.1154
10000.0,73345.71,-54.00819,68.1154
