Frequency,Impedance,Phase Angle,Temperature (Dry Bath)
10.0,21883740.0,-31.01589,67.3411
21.5,26810470.0,-41.59687,67.3522
46.4,15269340.0,-64.20987,67.3428
100.0,5311917.0,-25.93328,67.3498
215.4,12367100.0,-33.902,67.3316
464.2,2765695.0,-64.79028,67.3302
1000.0,971294.4,-83.59486,67.3397
2154.4,499795.6,-83.07912,67.3392
4641.6,255194.8,-80.42018,67.352
10000.0,128252.2,-78.64236,67.3563
