Frequency,Impedance,Phase Angle,Temperature (Dry Bath)
10.0,131298.8,-16.66492,65.728
21.544346900318832,114800.3,-16.30413,65.726
46.41588833612777,99699.14,-14.40551,65.7165
100.0,79564.34,-12.38289,65.7358
215.44346900318823,18653.52,-34.79516,65.7191
464.15888336127773,71448.82,-18.2308,65.7267
1000.0,64859.91,-17.52388,65.7068
2154.4346900318824,55134.3,-22.30052,65.7229
4641.588833612777,45705.6,-28.90974,65.7096
10000.0,31863.67,-45.19365,65.7233
