Frequency,Impedance,Phase Angle,Temperature (Dry Bath)
10.0,6541561.0,-6.752466,70.9329
21.544346900318832,3384967.0,-2.928353,70.9301
46.41588833612777,3963116.0,-34.72965,70.9254
100.0,446761.8,-74.99863,70.9239
215.44346900318823,1546849.0,12.91145,70.9493
464.15888336127773,420760.8,-99.98771,70.9247
1000.0,848804.9,95.37957,70.9448
2154.4346900318824,267541.2,-78.65269,70.9281
4641.588833612777,118362.2,-88.9014,70.9425
10000.0,56163.88,-90.05365,70.926
