Frequency,Impedance,Phase Angle,Temperature (Dry Bath)
10.0,164870.8,-7.942099,67.3492
21.5,157151.2,-7.49431,67.3279
46.4,150391.7,-7.775653,67.336
100.0,145379.7,-7.955719,67.3264
215.4,143485.3,-9.980399,67.3319
464.2,123616.8,-12.49921,67.3094
1000.0,112780.1,-18.13285,67.3054
2154.4,97204.89,-23.96198,67.3096
4641.6,76921.21,-35.21431,67.3075
10000.0,55670.48,-46.13495,67.2901
