Frequency,Impedance,Phase Angle,Temperature (Dry Bath)
10.0,23413510.0,2.91443,70.9267
21.544346900318832,6445860.0,-4.9989,70.9323
46.41588833612777,6011234.0,-13.60251,70.9513
100.0,777415.6,38.71863,70.9382
215.44346900318823,360976.2,-40.68374,70.944
464.15888336127773,630131.4,-49.5522,70.9281
1000.0,726947.3,-5.669804,70.918
2154.4346900318824,263091.3,-59.107,70.9353
4641.588833612777,154668.1,-100.0138,70.9456
10000.0,62761.91,-76.05819,70.9257
