Frequency,Impedance,Phase Angle,Temperature (Dry Bath)
10.0,21470570.0,-6.159355,68.1949
21.5,22111680.0,-31.24986,68.1949
46.4,29909380.0,-56.87886,68.1949
100.0,7435977.0,-33.85462,68.1949
215.4,4878926.0,-82.85786,68.1949
464.2,2474072.0,-81.64175,68.1949
1000.0,996664.9,-83.94131,68.1949
2154.4,482952.3,-87.54087,68.1949
4641.6,247123.3,-92.73757,68.1949
10000.0,113085.4,-94.19651,68.1949
