Frequency,Impedance,Phase Angle,Temperature (Dry Bath)
10.0,55180620.0,-7.737586,68.4048
21.5,31688560.0,-46.04815,68.3937
46.4,13503530.0,-61.00996,68.4182
100.0,5782836.0,-30.97201,68.4205
215.4,6013979.0,-60.64481,68.4055
464.2,2635731.0,-75.04232,68.4155
1000.0,1070877.0,-85.03466,68.4249
2154.4,484361.4,-87.33695,68.4237
4641.6,235495.8,-92.28663,68.409
10000.0,115954.4,-94.80962,68.4203
