Frequency,Impedance,Phase Angle,Temperature (Dry Bath)
10.0,24114680.0,-29.19457,67.9223
21.5,27784170.0,-46.55798,67.8958
46.4,17590540.0,-57.11286,67.8988
100.0,16020760.0,-80.43253,67.9058
215.4,6554779.0,-85.42944,67.9094
464.2,1794144.0,-72.33435,67.9004
1000.0,893139.7,-72.27216,67.8903
2154.4,501813.2,-77.783,67.8759
4641.6,267695.3,-79.63428,67.8716
10000.0,134199.5,-93.46771,67.9023
