Frequency,Impedance,Phase Angle,Temperature (Dry Bath)
10.0,38631250.0,-0.3693696,68.1535
21.5,33630820.0,-23.19411,68.1535
46.4,11754040.0,-57.21606,68.1535
100.0,7203243.0,-58.94822,68.1535
215.4,4916335.0,-59.68616,68.1535
464.2,2708933.0,-89.34429,68.1535
1000.0,1076552.0,-82.69049,68.1535
2154.4,484807.7,-82.12121,68.1535
4641.6,241324.8,-82.62499,68.1535
10000.0,134014.8,-85.53093,68.1535
