Frequency,Impedance,Phase Angle,Temperature (Dry Bath)
10.0,1103027.0,-13.04999,68.0183
21.5,1003532.0,-11.01835,68.0071
46.4,934713.4,-11.71301,68.0139
100.0,777075.7,-18.14323,68.0298
215.4,769360.0,-21.7357,68.0054
464.2,669732.3,-21.72736,68.0087
1000.0,482815.4,-34.63717,68.0284
2154.4,358963.4,-43.64157,68.023
4641.6,222707.4,-60.47328,68.0148
10000.0,138388.9,-74.03656,68.0192
