Frequency,Impedance,Phase Angle,Temperature (Dry Bath)
10.0,18577760.0,-27.95714,68.063
21.5,11833140.0,-32.05246,68.0692
46.4,9904651.0,-55.97834,68.074
100.0,40070490.0,-100.0386,68.0824
215.4,3389028.0,-79.90301,68.0832
464.2,2852350.0,-82.6182,68.0804
1000.0,864943.9,-79.2119,68.0806
2154.4,437778.4,-79.86197,68.0903
4641.6,226939.7,-84.12955,68.0664
10000.0,122671.1,-90.02635,68.08
