Frequency,Impedance,Phase Angle,Temperature (Dry Bath)
10.0,31442540.0,-19.47481,67.0852
21.5,23553550.0,-43.77569,67.061
46.4,14155060.0,-60.06343,67.0738
100.0,5538852.0,17.16162,67.0577
215.4,192858.3,-157.6162,67.071
464.2,2052504.0,-82.76688,67.0655
1000.0,930271.7,-81.26914,67.0548
2154.4,474869.8,-83.0902,67.0553
4641.6,219385.6,-80.97359,67.0632
10000.0,106528.2,-84.67911,67.0738
