Frequency,Impedance,Phase Angle,Temperature (Dry Bath)
10.0,22579270.0,-5.060739,68.0473
21.5,21656180.0,-13.65095,68.0473
46.4,16069890.0,-40.00062,68.0473
100.0,6777404.0,-56.28065,68.0473
215.4,5614257.0,-53.95782,68.0473
464.2,2712667.0,-91.20102,68.0473
1000.0,1432057.0,-84.33096,68.0473
2154.4,632601.7,-89.81684,68.0473
4641.6,343627.7,-90.92648,68.0473
10000.0,149226.3,-96.78902,68.0473
