Frequency,Impedance,Phase Angle,Temperature (Dry Bath)
10.0,1108557.0,-9.860031,67.9051
21.5,1041423.0,-9.222293,67.9133
46.4,1001620.0,-11.42749,67.9129
100.0,801313.5,-11.59629,67.9177
215.4,751289.6,-22.66384,67.9
464.2,681373.4,-30.78842,67.9189
1000.0,508377.1,-40.51288,67.9084
2154.4,324524.1,-58.24039,67.9164
4641.6,204671.7,-63.33677,67.8957
10000.0,114661.4,-80.47296,67.915
