Frequency,Impedance,Phase Angle,Temperature (Dry Bath)
10.0,4197893.0,-21.26426,71.4341
21.544346900318832,5571799.0,-3.058195,71.4323
46.41588833612777,4249405.0,-21.07482,71.4216
100.0,1156391.0,-21.84739,71.4422
215.44346900318823,3310116.0,103.1698,71.4326
464.15888336127773,912699.4,-12.17593,71.4203
1000.0,412253.5,-19.60625,71.4493
2154.4346900318824,288840.9,-66.74355,71.4381
4641.588833612777,114336.0,-104.0658,71.4383
10000.0,53692.96,-84.60461,71.4376
