Frequency,Impedance,Phase Angle,Temperature (Dry Bath)
10.0,14781.89,-19.3512,71.0125
21.544346900318832,12773.35,-16.63998,71.0024
46.41588833612777,11270.35,-14.53156,71.005
100.0,10223.09,-13.47038,71.0208
215.44346900318823,9335.337,-11.95524,71.0161
464.15888336127773,8505.665,-10.16293,71.0217
1000.0,7781.725,-8.585964,71.0325
2154.4346900318824,7212.496,-9.673062,71.0061
4641.588833612777,6762.756,-11.03359,71.021
10000.0,6378.948,-13.42953,71.021
