Frequency,Impedance,Phase Angle,Temperature (Dry Bath)
10.0,3708667.0,-11.87668,67.8791
21.5,3566908.0,-15.78316,67.8872
46.4,4201112.0,-21.78968,67.8898
100.0,2227850.0,-27.77085,67.88
215.4,2619268.0,-28.20798,67.891
464.2,1510290.0,-52.01037,67.9035
1000.0,825134.7,-65.27365,67.9042
2154.4,438587.0,-75.5975,67.9039
4641.6,216548.1,-77.4792,67.8872
10000.0,114604.4,-88.67602,67.9108
