Frequency,Impedance,Phase Angle,Temperature (Dry Bath)
10.0,7581.87,-35.56929,71.4434
21.544346900318832,5734.008,-31.07769,71.431
46.41588833612777,4506.891,-26.72814,71.4253
100.0,3662.769,-22.41568,71.4231
215.44346900318823,3095.858,-18.82641,71.4382
464.15888336127773,2704.929,-16.02375,71.4244
1000.0,2384.092,-13.0779,71.4229
2154.4346900318824,2179.941,-11.04609,71.4296
4641.588833612777,2028.584,-9.843061,71.4289
10000.0,1894.636,-9.284971,71.4377
