Frequency,Impedance,Phase Angle,Temperature (Dry Bath)
10.0,2466184.0,-11.69565,68.0623
21.5,2186440.0,-11.31096,68.0625
46.4,2078962.0,-17.21154,68.0395
100.0,1902866.0,-29.17112,68.0358
215.4,1366496.0,-39.8146,68.0628
464.2,1485301.0,-45.40832,68.0521
1000.0,724902.0,-63.10071,68.0427
2154.4,404974.6,-69.14379,68.0549
4641.6,220079.1,-74.43877,68.0572
10000.0,116732.0,-85.16806,68.0527
