Frequency,Impedance,Phase Angle,Temperature (Dry Bath)
10.0,5061378.0,20.15079,71.2616
21.544346900318832,3868465.0,-16.66159,71.2648
46.41588833612777,4624250.0,-15.67174,71.278
100.0,1535347.0,-92.98349,71.2497
215.44346900318823,999164.1,-65.58657,71.2485
464.15888336127773,1145930.0,-40.23314,71.2709
1000.0,563367.5,-78.77731,71.2609
2154.4346900318824,1016081.0,-112.5315,71.2533
4641.588833612777,318610.9,-70.70671,71.2513
10000.0,183425.5,-77.93048,71.2541
