Frequency,Impedance,Phase Angle,Temperature (Dry Bath)
10.0,2015197.0,-9.717696,67.1545
21.5,1900537.0,-10.80111,67.169
46.4,1712997.0,-14.64086,67.1689
100.0,1295432.0,-27.81304,67.1856
215.4,218593.0,-57.27697,67.1612
464.2,929907.3,-33.6422,67.1711
1000.0,697191.7,-55.35066,67.152
2154.4,357272.9,-67.89852,67.1547
4641.6,188193.1,-69.5165,67.1548
10000.0,103864.9,-72.68198,67.1511
