Frequency,Impedance,Phase Angle,Temperature (Dry Bath)
10.0,185606.4,-26.51036,65.8356
21.544346900318832,147636.8,-24.60287,65.8269
46.41588833612777,122718.5,-21.89452,65.8326
100.0,106345.7,-12.48891,65.831
215.44346900318823,92925.23,-33.02839,65.8255
464.15888336127773,75581.92,-13.67408,65.8303
1000.0,70089.99,-16.36448,65.8283
2154.4346900318824,63513.69,-20.97383,65.8273
4641.588833612777,53288.67,-33.70613,65.8282
10000.0,34284.29,-46.64624,65.8398
