Frequency,Impedance,Phase Angle,Temperature (Dry Bath)
10.0,29254310.0,-13.25514,67.2862
21.5,39501560.0,-27.57231,67.2886
46.4,10252500.0,-82.70243,67.2823
100.0,4908073.0,-117.3749,67.2962
215.4,4921010.0,158.1703,67.3043
464.2,2110247.0,-79.21754,67.2954
1000.0,1143250.0,-78.58698,67.3096
2154.4,536917.3,-84.47925,67.2836
4641.6,264908.9,-86.93823,67.2936
10000.0,130856.5,-86.09568,67.2749
