Frequency,Impedance,Phase Angle,Temperature (Dry Bath)
10.0,24984800.0,-16.27118,68.1252
21.5,35185350.0,-34.5792,68.1419
46.4,22923750.0,-57.26961,68.1528
100.0,5597104.0,-36.45693,68.1363
215.4,3415681.0,-69.12604,68.1441
464.2,1942294.0,-87.20816,68.1371
1000.0,1069245.0,-83.78119,68.1274
2154.4,487099.1,-84.09738,68.1409
4641.6,247675.7,-86.00755,68.1294
10000.0,112238.6,-95.94577,68.1303
