Frequency,Impedance,Phase Angle,Temperature (Dry Bath)
10.0,34121330.0,-10.36065,67.1182
21.5,22518240.0,-28.90224,67.1214
46.4,16465500.0,-53.96673,67.1022
100.0,2579834.0,-15.53309,67.101
215.4,1122651.0,-105.2898,67.113
464.2,1923606.0,-83.91323,67.1305
1000.0,1181611.0,-85.98523,67.1231
2154.4,532795.7,-78.58177,67.1234
4641.6,226422.1,-79.31998,67.1191
10000.0,114721.3,-78.34735,67.1242
