Frequency,Impedance,Phase Angle,Temperature (Dry Bath)
10.0,19928610.0,-9.523796,68.1421
21.5,17949530.0,-35.95048,68.1421
46.4,11941660.0,-60.89705,68.1421
100.0,5051049.0,-31.65935,68.1421
215.4,4171051.0,-72.23822,68.1421
464.2,1730363.0,-76.52248,68.1421
1000.0,991700.2,-80.599,68.1421
2154.4,565778.8,-77.89091,68.1421
4641.6,276400.8,-76.50043,68.1421
10000.0,149257.5,-89.89528,68.1421
