Frequency,Impedance,Phase Angle,Temperature (Dry Bath)
10.0,133472.3,-6.516031,67.2962
21.5,127844.1,-5.412314,67.2696
46.4,126917.8,-5.098507,67.2795
100.0,123756.4,-5.044421,67.2551
215.4,118848.1,-8.476398,67.2955
464.2,116264.0,-7.629762,67.2751
1000.0,107911.9,-11.74583,67.2549
2154.4,102333.3,-18.63078,67.2849
4641.6,86633.96,-31.76498,67.303
10000.0,62713.42,-49.84121,67.2955
