Frequency,Impedance,Phase Angle,Temperature (Dry Bath)
10.0,36535310.0,-1.479141,67.5055
21.5,20456120.0,-38.00406,67.5152
46.4,21905250.0,-55.44365,67.5113
100.0,6944909.0,-109.417,67.4968
215.4,233298.4,94.61515,67.5095
464.2,1823244.0,-73.39875,67.4961
1000.0,933017.3,-83.2618,67.5194
2154.4,468643.8,-82.42147,67.5082
4641.6,222866.4,-81.81275,67.5082
10000.0,111196.2,-85.27296,67.4805
