Frequency,Impedance,Phase Angle,Temperature (Dry Bath)
10.0,7982828.0,-4.667508,67.1
21.544346900318832,3362325.0,-11.35543,67.1
46.41588833612777,5464430.0,-6.922027,67.1
100.0,3105841.0,-39.53043,67.1
215.44346900318823,2682281.0,16.82609,67.1
464.15888336127773,11260690.0,-45.07278,67.1
1000.0,12540830.0,-6.020106,67.1
2154.4346900318824,6185539.0,-15.79991,67.1
4641.588833612777,2584146.0,-7.26215,67.1
10000.0,2731555.0,-34.60141,67.1
