Frequency,Impedance,Phase Angle,Temperature (Dry Bath)
10.0,11910.19,-4.340839,67.412
21.5,11659.39,-3.708938,67.4044
46.4,11434.93,-3.191334,67.4215
100.0,11300.65,-3.465074,67.4039
215.4,11175.71,-3.424672,67.4248
464.2,10998.21,-3.598332,67.4192
1000.0,10731.64,-3.713114,67.4295
2154.4,10528.45,-4.244775,67.4081
4641.6,10281.49,-5.768234,67.4085
10000.0,10042.42,-9.26854,67.4171
