Frequency,Impedance,Phase Angle,Temperature (Dry Bath)
10.0,23741890.0,-5.379138,68.0651
21.5,20940140.0,-30.08342,68.0849
46.4,14558720.0,-55.85831,68.0683
100.0,7452485.0,-27.30504,68.0725
215.4,6358737.0,-78.45344,68.059
464.2,2832118.0,-85.62818,68.0598
1000.0,1424138.0,-80.21621,68.0619
2154.4,635290.9,-90.14061,68.0676
4641.6,325575.6,-92.60524,68.0585
10000.0,139565.2,-97.71522,68.0634
