Frequency,Impedance,Phase Angle,Temperature (Dry Bath)
10.0,259981.7,-9.419365,67.1581
21.5,244727.7,-8.372789,67.1526
46.4,232399.0,-7.998791,67.1902
100.0,211781.5,-7.360513,67.1762
215.4,207817.6,-11.62202,67.1596
464.2,195854.3,-15.02721,67.1909
1000.0,173456.7,-20.9094,67.1736
2154.4,147515.8,-33.42501,67.1659
4641.6,102122.6,-47.02001,67.1681
10000.0,63574.55,-58.70932,67.1636
