Frequency,Impedance,Phase Angle,Temperature (Dry Bath)
10.0,1375817.0,-9.894413,65.821
21.544346900318832,1267544.0,-11.85624,65.8318
46.41588833612777,1118587.0,-12.98647,65.8301
100.0,467171.6,-11.91881,65.8373
215.44346900318823,191424.5,22.09743,65.8349
464.15888336127773,712706.6,-1.002465,65.8276
1000.0,456607.3,-24.09165,65.8087
2154.4346900318824,218808.0,-43.65809,65.8257
4641.588833612777,115922.0,-68.85541,65.8427
10000.0,63902.44,-84.06679,65.8396
