Frequency,Impedance,Phase Angle,Temperature (Dry Bath)
10.0,135262.4,-6.184004,67.0714
21.5,129268.9,-5.393369,67.0834
46.4,124846.9,-5.021399,67.087
100.0,119731.1,-3.584755,67.0823
215.4,119793.9,-3.87922,67.0947
464.2,114317.2,-8.415551,67.0872
1000.0,107465.8,-12.34294,67.0994
2154.4,98541.33,-21.01647,67.073
4641.6,84669.6,-33.72251,67.1011
10000.0,58851.16,-49.9232,67.0952
