Frequency,Impedance,Phase Angle,Temperature (Dry Bath)
10.0,4993952.0,15.85308,71.3897
21.544346900318832,4212153.0,-10.7227,71.3849
46.41588833612777,4881787.0,-28.53954,71.391
100.0,1438710.0,-67.95484,71.3898
215.44346900318823,593716.9,-120.3127,71.3987
464.15888336127773,959161.5,-157.9872,71.3977
1000.0,762259.1,-142.1784,71.3968
2154.4346900318824,315589.5,-99.08486,71.393
4641.588833612777,122589.2,-81.27024,71.3825
10000.0,62491.98,-79.10147,71.3886
