Frequency,Impedance,Phase Angle,Temperature (Dry Bath)
10.0,23671.25,-19.70829,71.1413
21.544346900318832,20316.46,-17.44272,71.1501
46.41588833612777,17683.38,-15.58113,71.1264
100.0,15491.26,-14.67615,71.1435
215.44346900318823,13848.69,-12.59454,71.1358
464.15888336127773,12975.41,-12.64899,71.1429
1000.0,11837.88,-10.55086,71.1444
2154.4346900318824,11054.39,-11.07393,71.1483
4641.588833612777,10195.8,-11.15688,71.1406
10000.0,9625.731,-16.88093,71.1328
