Frequency,Impedance,Phase Angle,Temperature (Dry Bath)
10.0,1262683.0,-11.66976,67.6657
21.5,1134129.0,-10.59645,67.6717
46.4,1020440.0,-13.14439,67.6564
100.0,880168.7,-9.372284,67.6663
215.4,793938.6,-25.59381,67.667
464.2,663451.9,-26.23536,67.6587
1000.0,532049.0,-36.43736,67.6604
2154.4,353890.9,-51.54679,67.6643
4641.6,227301.4,-58.1931,67.6696
10000.0,132971.0,-74.7065,67.6604
