Frequency,Impedance,Phase Angle,Temperature (Dry Bath)
10.0,153138.4,-10.63511,71.1512
21.544346900318832,143883.6,-9.776014,71.1376
46.41588833612777,132389.9,-9.798391,71.1341
100.0,125569.0,-20.34594,71.1273
215.44346900318823,136051.2,-5.321071,71.1417
464.15888336127773,123701.4,-10.65214,71.1488
1000.0,93864.59,-13.81028,71.1346
2154.4346900318824,82939.76,-24.24665,71.125
4641.588833612777,66413.31,-45.80446,71.1248
10000.0,40903.96,-57.77371,71.1578
