Frequency,Impedance,Phase Angle,Temperature (Dry Bath)
10.0,1238913.0,-9.020092,71.4178
21.544346900318832,952314.4,-11.31746,71.4023
46.41588833612777,964683.6,-11.05983,71.408
100.0,291055.6,17.02222,71.4198
215.44346900318823,656127.2,-37.28491,71.4048
464.15888336127773,656192.0,23.12069,71.4078
1000.0,271006.9,-90.90509,71.4125
2154.4346900318824,275525.1,-44.12637,71.4212
4641.588833612777,103127.2,-78.09697,71.4119
10000.0,63663.47,-83.75726,71.4038
