Frequency,Impedance,Phase Angle,Temperature (Dry Bath)
10.0,3101836.0,-10.5456,71.5085
21.544346900318832,4632073.0,-23.91108,71.4766
46.41588833612777,5236505.0,-10.17047,71.4889
100.0,1327051.0,-30.46724,71.4732
215.44346900318823,4242958.0,-44.01975,71.4982
464.15888336127773,894720.9,6.745246,71.4888
1000.0,1099459.0,-32.35407,71.4877
2154.4346900318824,1064398.0,-94.67612,71.4957
4641.588833612777,370158.6,-56.04481,71.4962
10000.0,152315.8,-72.03168,71.4992
