Frequency,Impedance,Phase Angle,Temperature (Dry Bath)
10.0,550826.6,-11.16684,68.1607
21.5,509667.0,-10.65671,68.169
46.4,467588.7,-11.53615,68.158
100.0,413073.9,-12.05899,68.1629
215.4,380043.7,-18.14611,68.1701
464.2,332779.9,-20.01734,68.1563
1000.0,275565.3,-28.52163,68.1511
2154.4,218196.6,-35.13379,68.149
4641.6,166420.4,-45.62196,68.1622
10000.0,105214.4,-63.39116,68.1604
