Frequency,Impedance,Phase Angle,Temperature (Dry Bath)
10.0,27107720.0,-19.46484,67.3547
21.5,52968930.0,-27.9056,67.3485
46.4,17268460.0,-50.69254,67.3536
100.0,3068378.0,-24.68504,67.3568
215.4,3135262.0,-121.7177,67.356
464.2,2117651.0,-83.2572,67.3528
1000.0,1202990.0,-82.76047,67.3553
2154.4,567188.3,-83.87896,67.3648
4641.6,287443.5,-86.49069,67.3394
10000.0,134789.8,-87.76259,67.3582
