Frequency,Impedance,Phase Angle,Temperature (Dry Bath)
10.0,24729.36,-20.59177,71.303
21.544346900318832,20995.38,-18.05962,71.3032
46.41588833612777,18231.62,-15.57743,71.3049
100.0,15997.89,-14.01369,71.3081
215.44346900318823,14228.76,-3.70228,71.307
464.15888336127773,13543.27,-10.87029,71.2981
1000.0,12672.36,-9.866926,71.2983
2154.4346900318824,11733.37,-9.161553,71.299
4641.588833612777,11061.11,-10.51134,71.3058
10000.0,10322.57,-15.47579,71.3034
