Frequency,Impedance,Phase Angle,Temperature (Dry Bath)
10.0,5433580.0,-0.3237948,71.4224
21.544346900318832,4204203.0,1.92608,71.4054
46.41588833612777,6256524.0,-29.91576,71.4316
100.0,936053.5,53.91795,71.4187
215.44346900318823,22677.63,-43.66003,71.4167
464.15888336127773,889002.3,-86.44886,71.426
1000.0,799971.0,-4.113905,71.4111
2154.4346900318824,241249.3,-102.2676,71.426
4641.588833612777,138630.2,-87.61134,71.4261
10000.0,54911.22,-85.01034,71.4289
