Frequency,Impedance,Phase Angle,Temperature (Dry Bath)
10.0,12577.44,-23.59947,71.4818
21.544346900318832,10259.0,-23.9875,71.4713
46.41588833612777,8318.304,-23.66633,71.4706
100.0,6857.852,-21.33111,71.4776
215.44346900318823,5724.755,-20.20236,71.4791
464.15888336127773,4909.778,-17.93705,71.4829
1000.0,4247.36,-15.73476,71.4928
2154.4346900318824,3776.615,-14.34496,71.4798
4641.588833612777,3365.974,-13.36952,71.4878
10000.0,3022.638,-12.4076,71.4903
