Frequency,Impedance,Phase Angle,Temperature (Dry Bath)
10.0,35238820.0,-5.934747,67.3076
21.5,20652510.0,-37.30078,67.3
46.4,14262300.0,-55.99262,67.2822
100.0,12342660.0,-29.33438,67.2904
215.4,274433.7,161.6857,67.2913
464.2,2327631.0,-83.34003,67.2985
1000.0,979220.5,-82.16411,67.279
2154.4,455721.3,-83.35743,67.2855
4641.6,241080.9,-80.26842,67.2771
10000.0,124265.9,-78.29194,67.286
