Frequency,Impedance,Phase Angle,Temperature (Dry Bath)
10.0,11704790.0,-18.05363,65.7103
21.544346900318832,7429097.0,-2.705919,65.7022
46.41588833612777,3600098.0,-63.31176,65.7071
100.0,774724.7,18.26116,65.7049
215.44346900318823,14993.53,28.60044,65.7193
464.15888336127773,1202770.0,-36.53749,65.7119
1000.0,473064.6,-82.85617,65.7143
2154.4346900318824,207893.0,-68.55152,65.7084
4641.588833612777,127936.7,-82.28609,65.7141
10000.0,67239.97,-86.578,65.7126
