Frequency,Impedance,Phase Angle,Temperature (Dry Bath)
10.0,5359966.0,2.956317,71.5031
21.544346900318832,3640354.0,-12.40953,71.4872
46.41588833612777,6211881.0,1.300291,71.5013
100.0,641694.7,10.32901,71.4989
215.44346900318823,1712821.0,-127.726,71.4966
464.15888336127773,1489988.0,155.3566,71.4926
1000.0,711695.4,-87.42336,71.5106
2154.4346900318824,505898.1,-107.2671,71.4912
4641.588833612777,223460.6,-82.94596,71.4928
10000.0,120443.5,-81.60315,71.5039
