Frequency,Impedance,Phase Angle,Temperature (Dry Bath)
10.0,27467580.0,-15.43582,67.8939
21.5,47534510.0,-31.28232,67.8923
46.4,28469280.0,-52.02265,67.8948
100.0,9480157.0,-42.41467,67.8904
215.4,5063208.0,-73.29676,67.892
464.2,2076819.0,-64.62088,67.895
1000.0,1183272.0,-79.53517,67.8772
2154.4,545128.9,-84.22359,67.8881
4641.6,287150.5,-78.72031,67.88
10000.0,162370.8,-83.95944,67.9074
