Frequency,Impedance,Phase Angle,Temperature (Dry Bath)
10.0,50210450.0,-35.5818,68.2796
21.5,23857700.0,-50.55855,68.2796
46.4,11272940.0,-56.90517,68.2796
100.0,4149525.0,-34.30767,68.2796
215.4,3090310.0,-66.28141,68.2796
464.2,2310981.0,-92.10536,68.2796
1000.0,946774.0,-78.87739,68.2796
2154.4,534737.9,-82.26777,68.2796
4641.6,252455.0,-86.96959,68.2796
10000.0,128866.1,-92.34639,68.2796
