Frequency,Impedance,Phase Angle,Temperature (Dry Bath)
10.0,17933910.0,-26.73102,68.2435
21.5,15147220.0,-35.60665,68.2414
46.4,12597160.0,-56.25718,68.2348
100.0,4927105.0,-62.96505,68.2415
215.4,5573231.0,-49.91894,68.2366
464.2,2739538.0,-86.54787,68.238
1000.0,1025336.0,-78.24194,68.2391
2154.4,516783.8,-87.13323,68.248
4641.6,247190.9,-91.58944,68.2317
10000.0,110627.7,-94.96786,68.2429
