Frequency,Impedance,Phase Angle,Temperature (Dry Bath)
10.0,21539850.0,-11.62784,67.9975
21.5,19188100.0,-39.18545,68.0102
46.4,17512220.0,-59.431,68.0214
100.0,4506050.0,-18.06858,68.0002
215.4,2931249.0,-63.55323,68.0054
464.2,2304201.0,-91.90172,68.0118
1000.0,1062150.0,-85.98199,68.0116
2154.4,511847.0,-90.58445,68.0065
4641.6,237339.5,-90.15627,68.0192
10000.0,116353.5,-93.3156,68.0073
