Frequency,Impedance,Phase Angle,Temperature (Dry Bath)
10.0,181731.1,-26.78052,65.8186
21.544346900318832,147710.5,-24.3113,65.8176
46.41588833612777,121125.9,-21.92112,65.8234
100.0,128086.0,-14.85733,65.8291
215.44346900318823,99287.48,-7.165921,65.8117
464.15888336127773,76887.5,-16.16092,65.8221
1000.0,71330.08,-21.14396,65.8157
2154.4346900318824,60769.72,-29.34841,65.8219
4641.588833612777,51230.98,-40.33353,65.8268
10000.0,36638.69,-48.52881,65.8122
