Frequency,Impedance,Phase Angle,Temperature (Dry Bath)
10.0,139696.4,-5.844266,67.1816
21.5,133744.7,-4.88126,67.1704
46.4,129541.0,-4.587248,67.1763
100.0,127369.7,-4.269761,67.1765
215.4,130709.2,-7.562577,67.1806
464.2,117579.9,-7.567009,67.1941
1000.0,112454.1,-12.30329,67.1922
2154.4,103515.5,-20.21424,67.1821
4641.6,87862.91,-33.11319,67.2002
10000.0,61585.11,-51.45285,67.1734
