Frequency,Impedance,Phase Angle,Temperature (Dry Bath)
10.0,16915350.0,-3.34904,67.9583
21.5,12897030.0,-40.57558,67.9517
46.4,15913950.0,-58.78474,67.9536
100.0,7669797.0,-75.41192,67.9412
215.4,3569096.0,-84.2668,67.956
464.2,1748375.0,-74.76342,67.949
1000.0,1009867.0,-82.57202,67.9326
2154.4,530763.0,-87.54731,67.9525
4641.6,255570.5,-86.64214,67.9327
10000.0,110499.4,-94.21169,67.9572
