Frequency,Impedance,Phase Angle,Temperature (Dry Bath)
10.0,20583600.0,-8.729543,68.1367
21.5,21928620.0,-18.4704,68.1367
46.4,30028490.0,-54.27178,68.1367
100.0,7187419.0,-34.76473,68.1367
215.4,3839522.0,-90.21206,68.1367
464.2,3009327.0,-80.34045,68.1367
1000.0,1359480.0,-89.00424,68.1367
2154.4,674358.4,-85.82267,68.1367
4641.6,335368.0,-97.65755,68.1367
10000.0,151397.0,-99.58672,68.1367
