Frequency,Impedance,Phase Angle,Temperature (Dry Bath)
10.0,8976463.0,-23.91974,70.9282
21.544346900318832,4170845.0,13.45108,70.915
46.41588833612777,4923421.0,-46.15297,70.9229
100.0,1638033.0,-64.40295,70.9081
215.44346900318823,741998.3,-76.89563,70.9124
464.15888336127773,829843.4,-16.64161,70.9284
1000.0,294735.2,-82.80418,70.911
2154.4346900318824,194135.9,-74.59013,70.9149
4641.588833612777,133859.8,-84.04662,70.9273
10000.0,60288.58,-83.93199,70.9038
