Frequency,Impedance,Phase Angle,Temperature (Dry Bath)
10.0,30815490.0,-38.54997,67.4789
21.5,21850440.0,-53.33749,67.4746
46.4,18430890.0,-6.989406,67.4712
100.0,3551569.0,-25.24188,67.4766
215.4,219747.2,-81.41642,67.4445
464.2,1617909.0,-62.68025,67.4562
1000.0,845622.3,-86.56962,67.4598
2154.4,473690.5,-81.8146,67.4777
4641.6,236830.2,-82.47892,67.458
10000.0,112376.3,-83.59379,67.4437
