Frequency,Impedance,Phase Angle,Temperature (Dry Bath)
10.0,24221680.0,-4.125627,68.0149
21.5,19029100.0,-44.84881,68.0096
46.4,13033400.0,-56.07156,68.0165
100.0,5446529.0,-30.70052,67.9964
215.4,3285768.0,-54.1336,68.0261
464.2,2296111.0,-81.33905,68.0292
1000.0,1086862.0,-84.36949,68.0212
2154.4,517805.7,-76.06348,68.0231
4641.6,272762.9,-79.4603,68.0213
10000.0,147264.9,-88.2595,68.0151
