Frequency,Impedance,Phase Angle,Temperature (Dry Bath)
10.0,1246440.0,-11.43467,68.0318
21.5,1131287.0,-10.69334,68.0478
46.4,1049156.0,-11.59979,68.0401
100.0,919973.0,-14.82634,68.0485
215.4,832176.8,-20.09492,68.0449
464.2,714582.3,-23.29595,68.0307
1000.0,571667.2,-37.0248,68.035
2154.4,400874.8,-49.21486,68.0308
4641.6,248104.8,-60.02931,68.0211
10000.0,150221.6,-78.32187,68.0451
