Frequency,Impedance,Phase Angle,Temperature (Dry Bath)
10.0,135215.3,-25.2471,67.0639
21.5,111773.6,-22.20206,67.0659
46.4,96332.53,-19.09278,67.0629
100.0,84258.56,-15.37502,67.0548
215.4,71625.14,21.73034,67.0704
464.2,68793.5,-14.81589,67.0729
1000.0,62472.37,-14.76002,67.0655
2154.4,57378.06,-18.28984,67.0492
4641.6,48993.8,-26.40321,67.0538
10000.0,39827.9,-38.74126,67.0471
