Frequency,Impedance,Phase Angle,Temperature (Dry Bath)
10.0,22695.8,-21.48214,65.7
21.544346900318832,19065.97,-18.58034,65.7127
46.41588833612777,16505.48,-15.5804,65.741
100.0,14935.25,-12.63907,65.7142
215.44346900318823,15008.73,-8.942009,65.722
464.15888336127773,12530.32,-8.713572,65.7414
1000.0,11848.47,-7.233644,65.7247
2154.4346900318824,11365.52,-8.443615,65.7411
4641.588833612777,10766.97,-10.71293,65.7386
10000.0,10227.97,-12.53907,65.7063
