Frequency,Impedance,Phase Angle,Temperature (Dry Bath)
10.0,22539320.0,-11.28281,68.0147
21.5,22115210.0,-35.47478,68.0147
46.4,23938480.0,-55.56921,68.0147
100.0,5856985.0,-42.54432,68.0147
215.4,4969779.0,-83.67128,68.0147
464.2,1877918.0,-75.03924,68.0147
1000.0,943133.6,-76.35109,68.0147
2154.4,524365.1,-79.60512,68.0147
4641.6,270340.3,-83.38744,68.0147
10000.0,130711.6,-91.53598,68.0147
