Frequency,Impedance,Phase Angle,Temperature (Dry Bath)
10.0,36509970.0,-41.50355,67.1697
21.5,27510910.0,-29.33277,67.1778
46.4,14428220.0,-60.32534,67.1742
100.0,17895060.0,10.3179,67.1731
215.4,252402.1,-129.5423,67.1678
464.2,2246787.0,-100.4531,67.1711
1000.0,927076.1,-85.75472,67.1686
2154.4,459558.9,-81.88577,67.1708
4641.6,231099.5,-82.19594,67.1709
10000.0,118600.0,-78.67299,67.1591
