Frequency,Impedance,Phase Angle,Temperature (Dry Bath)
10.0,19390.81,-18.72567,67.634
21.5,16845.66,-15.30414,67.6453
46.4,15133.94,-12.27111,67.645
100.0,13872.22,-10.45216,67.6563
215.4,13190.51,-7.245982,67.6586
464.2,12402.31,-6.399432,67.6529
1000.0,12081.13,-5.713001,67.6734
2154.4,11540.14,-6.065606,67.668
4641.6,11210.94,-6.607872,67.6579
10000.0,10929.33,-11.58912,67.6524
