Frequency,Impedance,Phase Angle,Temperature (Dry Bath)
10.0,12309.47,-4.489693,67.098
21.5,12027.9,-3.804429,67.1072
46.4,11799.77,-3.59073,67.0855
100.0,11581.61,-3.374052,67.0938
215.4,11450.75,-3.332157,67.1031
464.2,11249.06,-3.454684,67.0901
1000.0,10982.99,-3.679621,67.0749
2154.4,10740.15,-4.263165,67.1009
4641.6,10536.59,-5.848716,67.0963
10000.0,10245.77,-9.63474,67.1062
