Frequency,Impedance,Phase Angle,Temperature (Dry Bath)
10.0,147902.1,-6.412486,68.2499
21.5,142310.6,-5.329793,68.2499
46.4,137687.3,-4.865227,68.2499
100.0,130054.0,-5.732358,68.2499
215.4,127762.0,-5.394738,68.2499
464.2,124265.2,-8.989173,68.2499
1000.0,118349.3,-10.74081,68.2499
2154.4,108330.5,-18.12716,68.2499
4641.6,93255.5,-33.0984,68.2499
10000.0,72956.77,-51.71497,68.2499
