Frequency,Impedance,Phase Angle,Temperature (Dry Bath)
10.0,12319930.0,-8.663118,71.4947
21.544346900318832,4169149.0,-24.79594,71.4745
46.41588833612777,5812131.0,3.275969,71.491
100.0,798170.5,81.88007,71.4832
215.44346900318823,1970267.0,-41.17483,71.4881
464.15888336127773,421174.6,-8.3102,71.479
1000.0,1282450.0,-79.45085,71.4918
2154.4346900318824,398481.3,-94.33655,71.4879
4641.588833612777,328951.1,-67.22969,71.4849
10000.0,195675.8,-77.60682,71.494
