Frequency,Impedance,Phase Angle,Temperature (Dry Bath)
10.0,511010.7,-7.450859,66.6036
21.5,484363.6,-8.476941,66.6147
46.4,454022.0,-9.872621,66.6106
100.0,424768.2,-8.2247,66.6035
215.4,150307.5,38.28134,66.6112
464.2,361521.2,-20.68679,66.6118
1000.0,315062.1,-28.44961,66.6253
2154.4,234650.4,-40.61093,66.6265
4641.6,149581.2,-54.0073,66.6019
10000.0,91393.19,-64.70214,66.6194
