Frequency,Impedance,Phase Angle,Temperature (Dry Bath)
10.0,34575300.0,-17.2255,67.4152
21.5,25099160.0,-40.94763,67.3969
46.4,31039700.0,-25.98484,67.424
100.0,3741932.0,-78.56574,67.4064
215.4,265397.5,101.5938,67.425
464.2,1938113.0,-88.85003,67.4112
1000.0,1249237.0,-84.74977,67.4328
2154.4,634756.2,-88.33401,67.421
4641.6,275233.4,-88.55017,67.3952
10000.0,132538.3,-85.50761,67.4255
