Frequency,Impedance,Phase Angle,Temperature (Dry Bath)
10.0,161827.6,-10.59094,71.3527
21.544346900318832,150551.2,-8.984944,71.3674
46.41588833612777,146987.0,-8.703362,71.3635
100.0,132327.9,-23.49781,71.3569
215.44346900318823,25095.13,146.1142,71.3616
464.15888336127773,102542.5,-4.988903,71.3619
1000.0,130615.6,-9.119605,71.3611
2154.4346900318824,78550.64,-31.63377,71.3568
4641.588833612777,71203.34,-38.77179,71.3589
10000.0,45660.57,-61.90221,71.3629
