Frequency,Impedance,Phase Angle,Temperature (Dry Bath)
10.0,5855197.0,2.685112,71.4681
21.544346900318832,5539262.0,-17.10455,71.4492
46.41588833612777,5906591.0,-57.77276,71.441
100.0,677360.8,172.438,71.471
215.44346900318823,718673.3,-103.4106,71.4587
464.15888336127773,452113.0,-103.5594,71.4717
1000.0,836139.7,-150.8392,71.4549
2154.4346900318824,241985.6,-72.93469,71.4634
4641.588833612777,143849.0,-101.2457,71.4633
10000.0,61007.04,-83.09297,71.4559
