Frequency,Impedance,Phase Angle,Temperature (Dry Bath)
10.0,29351890.0,-30.0956,67.4099
21.5,21173940.0,-42.38295,67.4179
46.4,14612380.0,-56.67555,67.4156
100.0,4885034.0,-26.25329,67.4148
215.4,8199162.0,-14.68604,67.4248
464.2,2018484.0,-78.11049,67.4213
1000.0,891707.0,-82.00938,67.4099
2154.4,450213.5,-83.19557,67.4103
4641.6,225079.2,-82.08377,67.4145
10000.0,110370.1,-83.82572,67.412
