Frequency,Impedance,Phase Angle,Temperature (Dry Bath)
10.0,156489.3,-6.162159,68.2066
21.5,150044.5,-5.155668,68.1857
46.4,145775.5,-4.656588,68.2036
100.0,135735.3,-6.595011,68.1881
215.4,135925.7,-6.362027,68.1872
464.2,133361.3,-6.98222,68.1833
1000.0,126749.2,-11.4862,68.194
2154.4,117760.9,-19.43384,68.2015
4641.6,102409.8,-33.89619,68.205
10000.0,73871.03,-57.46761,68.1996
