Frequency,Impedance,Phase Angle,Temperature (Dry Bath)
10.0,1793354.0,-10.4608,67.2365
21.5,1620426.0,-11.27816,67.2275
46.4,1485738.0,-15.62121,67.2455
100.0,1122104.0,-26.37386,67.2334
215.4,378498.2,-149.2255,67.2304
464.2,1090538.0,-29.62734,67.2275
1000.0,557882.0,-53.87363,67.2241
2154.4,352346.8,-63.93395,67.2495
4641.6,191845.4,-70.78201,67.2313
10000.0,99334.53,-73.60647,67.2395
