Frequency,Impedance,Phase Angle,Temperature (Dry Bath)
10.0,3141891.0,-5.494066,28.9715
21.544346900318832,2129142.0,-9.757059,28.9105
46.41588833612777,2712744.0,-16.06578,28.9782
100.0,2713503.0,-150.7249,28.883
215.44346900318823,2185470.0,-37.50254,29.0454
464.15888336127773,572823.3,-44.55481,29.003
1000.0,463526.3,-131.4872,29.062
2154.4346900318824,313857.9,-79.22331,28.554
4641.588833612777,213241.2,-83.99429,28.3475
10000.0,83973.88,-84.14178,28.3737
