Frequency,Impedance,Phase Angle,Temperature (Dry Bath)
10.0,5684443.0,-15.93739,71.3225
21.544346900318832,4379593.0,-38.02198,71.3309
46.41588833612777,3586943.0,-33.41863,71.335
100.0,399378.3,-74.06925,71.3421
215.44346900318823,493143.3,37.91565,71.3235
464.15888336127773,705519.8,-81.70931,71.3361
1000.0,255406.8,-110.9318,71.3359
2154.4346900318824,197125.2,-86.03081,71.3454
4641.588833612777,85989.2,-91.26381,71.344
10000.0,39321.55,-85.59199,71.3249
