Frequency,Impedance,Phase Angle,Temperature (Dry Bath)
10.0,139402.5,-5.765972,67.4268
21.5,134129.8,-4.76609,67.4357
46.4,130125.2,-4.6435,67.4125
100.0,124624.6,-4.432121,67.4165
215.4,81260.57,-14.25147,67.421
464.2,120827.5,-7.357362,67.4071
1000.0,112422.8,-11.68516,67.4183
2154.4,104651.4,-20.27478,67.4171
4641.6,89777.78,-32.99501,67.4163
10000.0,62141.6,-51.26425,67.4117
