Frequency,Impedance,Phase Angle,Temperature (Dry Bath)
10.0,258992.3,-8.91642,67.225
21.5,244045.7,-8.10941,67.2268
46.4,231902.4,-7.619334,67.2226
100.0,219018.5,-10.64041,67.2102
215.4,161576.4,-51.21227,67.2302
464.2,199627.8,-12.21556,67.2235
1000.0,182757.1,-20.87503,67.2238
2154.4,149830.4,-32.73787,67.2197
4641.6,107565.7,-46.93017,67.2191
10000.0,64814.62,-58.39322,67.2517
