Frequency,Impedance,Phase Angle,Temperature (Dry Bath)
10.0,7484868.0,-33.18284,70.9767
21.544346900318832,7597786.0,-45.59535,70.9676
46.41588833612777,5660183.0,-26.16983,70.9796
100.0,386445.4,98.08742,70.9839
215.44346900318823,998507.9,127.9172,70.986
464.15888336127773,781512.8,-23.44057,70.9805
1000.0,795008.8,-68.95934,70.9878
2154.4346900318824,219837.4,-78.33003,70.9697
4641.588833612777,118554.7,-80.04697,70.9765
10000.0,56716.72,-87.1324,70.9718
