Frequency,Impedance,Phase Angle,Temperature (Dry Bath)
10.0,833822.0,-10.2423,67.8898
21.5,789801.5,-9.800754,67.8901
46.4,753446.0,-11.62111,67.9108
100.0,614417.0,-11.76802,67.9041
215.4,592082.8,-18.58205,67.9003
464.2,526577.2,-25.67765,67.8922
1000.0,404040.0,-36.64853,67.9139
2154.4,279638.2,-43.66035,67.8914
4641.6,192131.3,-56.61818,67.9186
10000.0,114349.4,-68.45683,67.9005
