Frequency,Impedance,Phase Angle,Temperature (Dry Bath)
10.0,131752.5,-15.5105,65.8338
21.544346900318832,115092.5,-14.36286,65.8262
46.41588833612777,103342.8,-12.37154,65.8182
100.0,95425.92,-10.48434,65.8311
215.44346900318823,73885.99,-35.41282,65.8324
464.15888336127773,73633.77,-14.80692,65.8388
1000.0,67550.09,-23.09727,65.8192
2154.4346900318824,64167.87,-28.13628,65.8367
4641.588833612777,51389.16,-36.1027,65.8412
10000.0,36025.56,-48.01214,65.8336
