Frequency,Impedance,Phase Angle,Temperature (Dry Bath)
10.0,7124551.0,-38.40019,65.7856
21.544346900318832,3501837.0,-4.965369,65.7657
46.41588833612777,5325681.0,-37.55913,65.777
100.0,2026796.0,-89.24098,65.7819
215.44346900318823,16030.09,-22.49314,65.7742
464.15888336127773,2405274.0,-123.159,65.7808
1000.0,770160.6,-55.0544,65.7843
2154.4346900318824,375616.7,-95.15825,65.7783
4641.588833612777,163364.0,-108.0529,65.789
10000.0,61034.23,-85.73175,65.7752
