Frequency,Impedance,Phase Angle,Temperature (Dry Bath)
10.0,2148126.0,-7.119229,71.0698
21.544346900318832,2330592.0,-10.12672,71.0755
46.41588833612777,2294822.0,-10.31676,71.0751
100.0,376604.6,-42.23991,71.0807
215.44346900318823,514692.0,-152.9965,71.0768
464.15888336127773,719583.7,-60.35005,71.0656
1000.0,413819.6,132.352,71.0771
2154.4346900318824,438794.3,-62.78116,71.0876
4641.588833612777,235727.0,-103.1152,71.0822
10000.0,121828.5,-87.53647,71.0867
