Frequency,Impedance,Phase Angle,Temperature (Dry Bath)
10.0,2025932.0,-9.36681,67.2877
21.5,1879723.0,-11.26135,67.2943
46.4,1709688.0,-15.13539,67.2846
100.0,1384237.0,-8.474788,67.2809
215.4,215963.0,-166.4755,67.2592
464.2,820860.5,-44.59621,67.2799
1000.0,625253.3,-52.2766,67.293
2154.4,357756.4,-66.15697,67.267
4641.6,197602.4,-69.26445,67.2792
10000.0,103237.0,-71.92334,67.2993
