Frequency,Impedance,Phase Angle,Temperature (Dry Bath)
10.0,26860910.0,-2.627654,67.117
21.5,30831210.0,-6.050951,67.1084
46.4,17729010.0,-36.83078,67.1247
100.0,2581089.0,-80.19439,67.1267
215.4,213564.3,-71.17653,67.1272
464.2,4540032.0,-78.80253,67.1247
1000.0,1055707.0,-96.23024,67.1208
2154.4,544413.6,-90.21879,67.1356
4641.6,280664.6,-87.17939,67.1236
10000.0,127964.9,-87.05303,67.1295
