Frequency,Impedance,Phase Angle,Temperature (Dry Bath)
10.0,138566.7,-6.025492,67.0501
21.5,133168.3,-5.085615,67.0626
46.4,128393.2,-4.933924,67.064
100.0,127134.6,-3.956097,67.0447
215.4,188497.9,-56.27249,67.0512
464.2,116140.7,-8.429709,67.0525
1000.0,108949.7,-12.4733,67.0543
2154.4,100402.8,-21.33561,67.0542
4641.6,86395.56,-32.06663,67.0508
10000.0,60573.13,-51.27397,67.0459
