Frequency,Impedance,Phase Angle,Temperature (Dry Bath)
10.0,152541.9,-6.417565,67.9636
21.5,146532.9,-5.327602,67.9667
46.4,141831.8,-4.928689,67.9631
100.0,135605.0,-5.836612,67.9532
215.4,129609.7,-6.293824,67.9561
464.2,126747.7,-7.028124,67.976
1000.0,122677.9,-12.25817,67.9525
2154.4,113354.4,-20.15277,67.9503
4641.6,95618.75,-33.59764,67.9439
10000.0,68961.7,-49.04806,67.9472
