Frequency,Impedance,Phase Angle,Temperature (Dry Bath)
10.0,4876086.0,-4.645337,70.9132
21.544346900318832,5436425.0,-2.396255,70.9142
46.41588833612777,6486896.0,14.15717,70.9225
100.0,1440183.0,29.43326,70.9074
215.44346900318823,2435215.0,-88.07927,70.9073
464.15888336127773,814985.5,-88.12448,70.8988
1000.0,403412.7,-80.7498,70.9059
2154.4346900318824,567521.7,-84.73341,70.8973
4641.588833612777,288924.5,-47.90961,70.9045
10000.0,225876.7,-134.1807,70.9029
