Frequency,Impedance,Phase Angle,Temperature (Dry Bath)
10.0,37900110.0,-13.79723,67.1593
21.5,21888670.0,-30.58759,67.1517
46.4,16672240.0,-52.86426,67.1516
100.0,4509749.0,-61.89946,67.1406
215.4,2474151.0,-73.7168,67.142
464.2,2028856.0,-90.2952,67.1504
1000.0,952145.4,-85.33483,67.1479
2154.4,455653.9,-83.85229,67.1606
4641.6,229149.1,-81.53637,67.1495
10000.0,117473.4,-78.9843,67.1476
