Frequency,Impedance,Phase Angle,Temperature (Dry Bath)
10.0,26468000.0,-23.25391,67.218
21.5,26111590.0,-26.11894,67.2064
46.4,12665250.0,-64.16536,67.2186
100.0,4704542.0,-11.17449,67.2091
215.4,600498.2,-152.8031,67.2098
464.2,2312738.0,-71.40448,67.2115
1000.0,983715.5,-82.27351,67.2156
2154.4,478664.1,-81.33058,67.2192
4641.6,233796.7,-79.30869,67.2286
10000.0,123881.7,-77.81196,67.2256
