Frequency,Impedance,Phase Angle,Temperature (Dry Bath)
10.0,6816585.0,4.37369,70.6339
21.544346900318832,7192230.0,-18.17223,70.6433
46.41588833612777,3537137.0,-19.77658,70.6169
100.0,3263714.0,112.6855,70.6279
215.44346900318823,523243.0,-142.9808,70.6156
464.15888336127773,1478712.0,-71.90295,70.6364
1000.0,245336.6,-114.0118,70.6268
2154.4346900318824,230137.8,-98.50565,70.6474
4641.588833612777,186744.3,-80.54153,70.6484
10000.0,76496.01,-91.90162,70.6334
