Frequency,Impedance,Phase Angle,Temperature (Dry Bath)
10.0,24767330.0,-13.61806,68.0385
21.5,25534500.0,-29.68318,68.0387
46.4,20780040.0,-44.60923,68.0259
100.0,4868547.0,-60.39038,68.0523
215.4,4237805.0,-74.18976,68.0407
464.2,1632159.0,-74.68497,68.0293
1000.0,1040948.0,-89.44869,68.0522
2154.4,518975.9,-89.07935,68.0326
4641.6,226252.8,-90.33605,68.0241
10000.0,112421.9,-91.29827,68.014
