Frequency,Impedance,Phase Angle,Temperature (Dry Bath)
10.0,24064660.0,-12.99536,68.0208
21.5,17060000.0,-49.84553,68.0234
46.4,11140020.0,-57.54507,68.022
100.0,7157376.0,-8.050141,68.0228
215.4,4081323.0,-51.09714,68.0093
464.2,2269682.0,-82.73537,68.0348
1000.0,1065658.0,-83.2518,68.0349
2154.4,537015.0,-85.05681,68.0226
4641.6,236610.1,-88.23546,68.0029
10000.0,121011.7,-96.5759,68.0346
