Frequency,Impedance,Phase Angle,Temperature (Dry Bath)
10.0,2562911.0,1.999526,68.2813
21.5,2432846.0,-1.44188,68.2813
46.4,3964138.0,-0.3187496,68.2813
100.0,4662172.0,-32.25916,68.2813
215.4,3709734.0,-47.43743,68.2813
464.2,1890637.0,-60.37576,68.2813
1000.0,971940.8,-74.38258,68.2813
2154.4,528660.5,-71.53818,68.2813
4641.6,268993.9,-81.61262,68.2813
10000.0,144414.5,-88.41113,68.2813
