Frequency,Impedance,Phase Angle,Temperature (Dry Bath)
10.0,1266232.0,-9.970665,67.8152
21.5,1198322.0,-10.45674,67.7994
46.4,1053699.0,-12.91779,67.8021
100.0,854555.8,-12.59282,67.8003
215.4,912452.8,-24.31008,67.803
464.2,684248.8,-37.99388,67.8051
1000.0,516001.2,-38.58885,67.7994
2154.4,340300.6,-49.43818,67.8053
4641.6,204046.4,-58.30001,67.8032
10000.0,133807.0,-72.03546,67.7997
