Frequency,Impedance,Phase Angle,Temperature (Dry Bath)
10.0,379091.3,-5.932271,67.2226
21.5,362579.4,-5.935444,67.2211
46.4,352473.0,-5.769661,67.2306
100.0,314019.8,-9.419029,67.2363
215.4,441168.4,72.75716,67.2192
464.2,307904.9,-16.42158,67.2197
1000.0,277841.6,-20.56535,67.2143
2154.4,239852.0,-31.96822,67.225
4641.6,164524.1,-50.5876,67.2236
10000.0,98482.22,-66.04702,67.2102
