Frequency,Impedance,Phase Angle,Temperature (Dry Bath)
10.0,8282047.0,-2.338725,70.9798
21.544346900318832,3860780.0,-7.150528,70.9773
46.41588833612777,5487934.0,-9.069255,70.9598
100.0,270658.5,-21.08552,70.9844
215.44346900318823,2525561.0,42.95875,70.972
464.15888336127773,783156.8,-53.08071,70.9632
1000.0,893588.5,-40.01767,70.9669
2154.4346900318824,443973.4,-90.4147,70.9667
4641.588833612777,126921.1,-89.61744,70.9751
10000.0,61676.3,-88.63079,70.9719
