Frequency,Impedance,Phase Angle,Temperature (Dry Bath)
10.0,19812780.0,6.30572,68.1981
21.5,24427720.0,-20.72264,68.1934
46.4,21918930.0,-55.61948,68.2072
100.0,4523844.0,-80.74843,68.2064
215.4,4866057.0,-50.38002,68.1896
464.2,2264132.0,-93.65411,68.202
1000.0,1014706.0,-77.91441,68.2112
2154.4,533746.7,-81.81632,68.1921
4641.6,263932.5,-84.89316,68.1934
10000.0,135839.6,-87.7652,68.2069
