Frequency,Impedance,Phase Angle,Temperature (Dry Bath)
10.0,5199884.0,-7.369321,70.6014
21.544346900318832,4378834.0,-32.48144,70.5991
46.41588833612777,3548998.0,-14.37436,70.6017
100.0,1603927.0,-35.68267,70.5993
215.44346900318823,916550.9,-96.84537,70.5981
464.15888336127773,1707522.0,115.3265,70.595
1000.0,170822.8,-105.9797,70.5938
2154.4346900318824,188661.6,-89.30848,70.6136
4641.588833612777,118435.4,-106.9745,70.5856
10000.0,50929.02,-89.22543,70.5957
