Frequency,Impedance,Phase Angle,Temperature (Dry Bath)
10.0,24483510.0,-23.50909,67.9374
21.5,21792930.0,-41.24502,67.9398
46.4,23852710.0,-65.02842,67.935
100.0,3888052.0,-54.50784,67.9327
215.4,3356055.0,-86.68633,67.9437
464.2,2058377.0,-61.45435,67.927
1000.0,1002998.0,-77.17531,67.9458
2154.4,484089.1,-81.56038,67.9344
4641.6,266845.5,-82.63327,67.9447
10000.0,127660.5,-91.08786,67.9517
