Frequency,Impedance,Phase Angle,Temperature (Dry Bath)
10.0,131989.9,-25.1536,67.1098
21.5,109598.1,-22.02799,67.0972
46.4,93329.67,-18.89597,67.0858
100.0,82864.52,-15.29078,67.0929
215.4,74110.7,-14.80348,67.0884
464.2,67561.99,-13.49086,67.0917
1000.0,61706.97,-14.64335,67.0846
2154.4,56598.18,-18.18395,67.0917
4641.6,48888.08,-24.84924,67.0998
10000.0,39900.71,-37.11252,67.0996
