Frequency,Impedance,Phase Angle,Temperature (Dry Bath)
10.0,156194.2,-8.903642,65.8535
21.544346900318832,148419.6,-8.055143,65.8683
46.41588833612777,138978.1,-7.464933,65.8502
100.0,121333.6,-22.47833,65.8611
215.44346900318823,95580.85,9.820376,65.8635
464.15888336127773,121818.3,-7.644692,65.8497
1000.0,147849.5,-24.12689,65.8579
2154.4346900318824,102802.9,-22.94837,65.8435
4641.588833612777,72578.37,-36.98414,65.8528
10000.0,43160.87,-66.76829,65.8428
