Frequency,Impedance,Phase Angle,Temperature (Dry Bath)
10.0,12308.24,-4.743637,66.9972
21.5,11985.4,-4.012963,67.0127
46.4,11767.3,-3.821474,67.0083
100.0,11597.21,-3.804086,67.0056
215.4,11442.93,-3.94633,67.0138
464.2,11252.41,-3.939421,67.0033
1000.0,10960.22,-4.03059,67.0098
2154.4,10753.94,-4.639647,67.0417
4641.6,10514.65,-6.078371,67.0239
10000.0,10187.84,-9.675753,67.0114
