Frequency,Impedance,Phase Angle,Temperature (Dry Bath)
10.0,8552.18,-25.86433,70.6888
21.544346900318832,6964.355,-22.70353,70.6928
46.41588833612777,5840.793,-19.66961,70.6943
100.0,5036.889,-16.87409,70.6788
215.44346900318823,4466.692,-14.61581,70.6911
464.15888336127773,4026.805,-12.3525,70.673
1000.0,3663.291,-10.49525,70.6836
2154.4346900318824,3342.714,-9.501093,70.6741
4641.588833612777,3157.102,-8.487845,70.6885
10000.0,2957.608,-9.690713,70.6792
