Frequency,Impedance,Phase Angle,Temperature (Dry Bath)
10.0,19671010.0,-22.53184,68.035
21.5,18314670.0,-40.14397,68.0394
46.4,12605070.0,-65.29312,68.0335
100.0,3386814.0,-43.30977,68.0489
215.4,2935334.0,-82.09851,68.0344
464.2,1705120.0,-64.44131,68.0415
1000.0,996489.4,-77.61006,68.0459
2154.4,510342.3,-79.15191,68.0327
4641.6,274418.6,-78.51413,68.0527
10000.0,141204.0,-94.34562,68.0367
