Frequency,Impedance,Phase Angle,Temperature (Dry Bath)
10.0,52415.66,-15.4552,66.6
21.544346900318832,50897.63,-17.41368,66.6
46.41588833612777,45230.53,-19.58055,66.6
100.0,34393.54,-15.56382,66.6
215.44346900318823,28662.27,-24.47825,66.6
464.15888336127773,636476.9,127.2162,66.6
1000.0,263986.4,2.415384,66.6
2154.4346900318824,410091.8,-122.9564,66.6
4641.588833612777,192841.7,-0.2008883,66.6
10000.0,468111.3,58.8686,66.6
