Frequency,Impedance,Phase Angle,Temperature (Dry Bath)
10.0,15186740.0,-15.54704,68.0257
21.5,14598230.0,-34.77832,68.0194
46.4,12181350.0,-68.3079,68.0157
100.0,6116434.0,-73.23454,68.0232
215.4,3563583.0,-86.45906,68.0373
464.2,1524503.0,-64.53543,68.0197
1000.0,1017045.0,-71.92534,68.035
2154.4,503751.7,-75.62633,68.0369
4641.6,271153.3,-71.77112,68.0237
10000.0,138320.9,-91.88723,68.0161
