Frequency,Impedance,Phase Angle,Temperature (Dry Bath)
10.0,1452116.0,-8.018765,67.3145
21.5,1366108.0,-8.620157,67.3113
46.4,1286999.0,-11.6036,67.307
100.0,1308717.0,-22.61074,67.3226
215.4,751454.2,-16.35705,67.3183
464.2,1018302.0,-32.19411,67.2954
1000.0,591853.9,-54.92198,67.2929
2154.4,363933.8,-62.70832,67.2744
4641.6,197613.4,-71.85495,67.308
10000.0,103968.0,-74.80891,67.3174
