Frequency,Impedance,Phase Angle,Temperature (Dry Bath)
10.0,43272680.0,-6.63168,67.8839
21.5,43168190.0,-38.6095,67.9071
46.4,23637120.0,-36.68841,67.8988
100.0,6454103.0,-38.22424,67.9051
215.4,5690066.0,-56.67875,67.9173
464.2,3259182.0,-73.17143,67.9073
1000.0,1285980.0,-80.52388,67.9103
2154.4,702384.7,-88.74963,67.9008
4641.6,309712.9,-88.52998,67.8987
10000.0,150472.3,-93.19637,67.9005
