Frequency,Impedance,Phase Angle,Temperature (Dry Bath)
10.0,30278540.0,5.256928,68.1045
21.5,44352960.0,-16.65713,68.1431
46.4,25443520.0,-63.07027,68.1313
100.0,5893491.0,-43.62993,68.1205
215.4,5551540.0,-66.78294,68.1241
464.2,2218747.0,-82.13691,68.1107
1000.0,1130201.0,-84.82854,68.1155
2154.4,550587.8,-76.17022,68.1148
4641.6,266741.3,-79.67878,68.1183
10000.0,139380.7,-87.76632,68.1225
