Frequency,Impedance,Phase Angle,Temperature (Dry Bath)
10.0,1165346.0,-8.879717,68.0473
21.5,1082991.0,-9.290414,68.0473
46.4,988577.8,-10.40412,68.0473
100.0,746683.9,-10.61043,68.0473
215.4,823451.3,-10.57076,68.0473
464.2,677479.9,-20.36487,68.0473
1000.0,595850.6,-28.06871,68.0473
2154.4,489940.7,-42.02643,68.0473
4641.6,351392.9,-60.13089,68.0473
10000.0,185954.6,-77.34628,68.0473
