Frequency,Impedance,Phase Angle,Temperature (Dry Bath)
10.0,3862087.0,-16.68947,65.7629
21.544346900318832,6306513.0,-11.63355,65.7511
46.41588833612777,5331542.0,-10.30604,65.7636
100.0,281718.9,-41.44571,65.7606
215.44346900318823,224861.9,-113.6681,65.7507
464.15888336127773,1205665.0,-102.3125,65.7616
1000.0,553868.6,-59.49158,65.7584
2154.4346900318824,274046.9,-94.75088,65.7698
4641.588833612777,146000.2,-82.73046,65.7655
10000.0,66767.12,-85.4569,65.7808
