Frequency,Impedance,Phase Angle,Temperature (Dry Bath)
10.0,21971920.0,-28.97854,67.3682
21.5,22887600.0,-34.71973,67.3689
46.4,15542030.0,-62.02011,67.3753
100.0,5397765.0,-97.58016,67.379
215.4,198812.3,147.3133,67.3791
464.2,1434357.0,-76.19192,67.3845
1000.0,1020912.0,-83.04195,67.3812
2154.4,462242.9,-84.48098,67.372
4641.6,230258.7,-84.72249,67.3704
10000.0,110676.9,-82.17124,67.3825
