Frequency,Impedance,Phase Angle,Temperature (Dry Bath)
10.0,12139.44,-23.7761,70.9844
21.544346900318832,10151.91,-20.08721,70.9754
46.41588833612777,8733.377,-16.9473,70.9814
100.0,7762.754,-14.37374,70.9966
215.44346900318823,6995.389,-12.32142,70.9931
464.15888336127773,6295.5,-10.65287,70.9996
1000.0,5815.634,-9.666834,70.9869
2154.4346900318824,5479.965,-9.194769,70.9912
4641.588833612777,5104.685,-9.2217,70.9851
10000.0,4877.172,-10.70058,70.9913
