Frequency,Impedance,Phase Angle,Temperature (Dry Bath)
10.0,5756516.0,-8.00803,68.0276
21.5,4893979.0,-11.99479,68.0242
46.4,4977905.0,-24.33873,68.0184
100.0,3046346.0,-27.19927,68.024
215.4,5420237.0,-48.71064,68.0196
464.2,1601933.0,-76.50566,68.0314
1000.0,939339.7,-68.54368,68.0197
2154.4,445695.5,-74.4724,68.0328
4641.6,214256.7,-79.92905,68.0205
10000.0,100132.0,-91.67497,68.0188
