Frequency,Impedance,Phase Angle,Temperature (Dry Bath)
10.0,4529186.0,-5.957327,71.5685
21.544346900318832,3338028.0,-19.44144,71.5665
46.41588833612777,4766564.0,-5.900951,71.5755
100.0,693591.0,142.6982,71.5643
215.44346900318823,3237614.0,-90.04233,71.5658
464.15888336127773,656845.3,13.89541,71.5614
1000.0,755742.5,-103.4706,71.5642
2154.4346900318824,344962.1,-81.16893,71.5597
4641.588833612777,246379.2,-64.30925,71.5615
10000.0,113703.0,-74.19528,71.5606
