Frequency,Impedance,Phase Angle,Temperature (Dry Bath)
10.0,19297140.0,-19.31163,67.9492
21.5,32475870.0,-17.53239,67.9618
46.4,36561880.0,-36.81452,67.9395
100.0,7883478.0,-20.60705,67.9683
215.4,17858250.0,-69.60974,67.9641
464.2,2615389.0,-77.25066,67.9547
1000.0,1419496.0,-94.89635,67.9398
2154.4,701572.9,-84.21909,67.9575
4641.6,311495.7,-87.43231,67.9537
10000.0,152110.0,-100.6134,67.9525
