Frequency,Impedance,Phase Angle,Temperature (Dry Bath)
10.0,12296.9,-4.586498,67.0804
21.5,11992.14,-3.87338,67.0923
46.4,11752.56,-3.476598,67.0915
100.0,11532.21,-3.189139,67.0963
215.4,11409.06,-3.62982,67.0841
464.2,11230.26,-3.526511,67.1038
1000.0,10946.79,-3.805873,67.0915
2154.4,10720.46,-4.5696,67.1008
4641.6,10464.9,-6.02207,67.0833
10000.0,10191.0,-9.650574,67.1
