Frequency,Impedance,Phase Angle,Temperature (Dry Bath)
10.0,190805.6,-26.72896,65.6401
21.544346900318832,151814.5,-25.68601,65.6435
46.41588833612777,122467.4,-21.50962,65.6267
100.0,94836.47,-21.6146,65.6424
215.44346900318823,54249.93,-68.6111,65.6637
464.15888336127773,85705.76,-11.72683,65.6432
1000.0,64288.7,-19.52708,65.6703
2154.4346900318824,58996.83,-25.80676,65.6536
4641.588833612777,49095.24,-40.08838,65.6272
10000.0,34418.68,-47.63731,65.6434
