Frequency,Impedance,Phase Angle,Temperature (Dry Bath)
10.0,53620.64,-15.80772,71.4027
21.544346900318832,47557.56,-14.36661,71.384
46.41588833612777,42821.58,-13.26126,71.3951
100.0,36040.13,-11.99215,71.39
215.44346900318823,35055.86,-10.88977,71.4012
464.15888336127773,32885.7,-8.150171,71.3821
1000.0,29135.92,-11.5054,71.383
2154.4346900318824,27965.11,-10.8644,71.3995
4641.588833612777,24663.44,-7.211023,71.389
10000.0,23650.67,-18.3632,71.3963
