Frequency,Impedance,Phase Angle,Temperature (Dry Bath)
10.0,126427.2,-24.69849,67.2176
21.5,105066.0,-21.75412,67.2234
46.4,90643.01,-18.59773,67.2179
100.0,80346.19,-15.55348,67.2425
215.4,43250.38,-5.056497,67.22
464.2,66885.33,-13.3415,67.2194
1000.0,60068.34,-14.04703,67.2274
2154.4,55085.62,-16.99759,67.2189
4641.6,48780.79,-24.71279,67.2205
10000.0,40147.59,-36.59438,67.2205
