Frequency,Impedance,Phase Angle,Temperature (Dry Bath)
10.0,5666152.0,-8.870376,67.9875
21.5,6141548.0,-16.32355,67.9749
46.4,5322027.0,-23.42089,67.9985
100.0,2191152.0,-34.74218,67.9934
215.4,2467131.0,-30.40829,67.9951
464.2,1489236.0,-62.49862,68.0033
1000.0,792840.0,-72.23504,67.9917
2154.4,426723.5,-75.32189,68.0058
4641.6,211423.8,-81.18015,67.9843
10000.0,115684.3,-86.95602,67.9911
