Frequency,Impedance,Phase Angle,Temperature (Dry Bath)
10.0,114265.2,-28.05165,71.8494
21.544346900318832,91001.41,-27.62684,71.8425
46.41588833612777,72932.54,-28.60824,71.8366
100.0,49699.95,-32.15054,71.8494
215.44346900318823,43508.55,-32.12313,71.8424
464.15888336127773,32032.1,-31.41433,71.8444
1000.0,23458.6,-31.58791,71.8581
2154.4346900318824,19512.25,-31.79667,71.8416
4641.588833612777,14264.05,-23.92631,71.8376
10000.0,12889.36,-24.16638,71.8548
