Frequency,Impedance,Phase Angle,Temperature (Dry Bath)
10.0,25299400.0,-10.52729,68.0266
21.5,19559180.0,-41.31887,68.0407
46.4,19973600.0,-65.20385,68.0411
100.0,15467970.0,-44.88234,68.0316
215.4,4508589.0,-77.55775,68.0248
464.2,1687873.0,-80.41385,68.0321
1000.0,982861.6,-77.76215,68.0307
2154.4,496207.6,-79.09448,68.0331
4641.6,270520.6,-82.7426,68.0233
10000.0,128221.9,-89.09031,68.0244
