Frequency,Impedance,Phase Angle,Temperature (Dry Bath)
10.0,21435010.0,-18.56152,68.0045
21.5,26412960.0,-29.36843,68.0206
46.4,27406540.0,-40.02245,68.0028
100.0,6865297.0,-35.22557,68.0152
215.4,4259198.0,-68.47256,68.0137
464.2,2350411.0,-79.56498,68.0139
1000.0,1389733.0,-88.04516,68.0222
2154.4,662512.8,-93.053,68.0244
4641.6,339062.6,-95.49934,68.0234
10000.0,145421.9,-96.03322,68.0085
