Frequency,Impedance,Phase Angle,Temperature (Dry Bath)
10.0,12195.87,-8.227565,67.3543
21.5,11628.53,-4.558552,67.3468
46.4,11443.17,-4.522655,67.3463
100.0,11389.44,-4.709471,67.3664
215.4,11276.19,-5.436576,67.3555
464.2,11156.93,-5.820531,67.3586
1000.0,10824.15,-5.750459,67.3648
2154.4,10492.14,-5.973986,67.355
4641.6,10157.7,-7.03199,67.3679
10000.0,9801.105,-9.788811,67.377
