Frequency,Impedance,Phase Angle,Temperature (Dry Bath)
10.0,41547240.0,-47.99764,67.0469
21.5,26939260.0,-19.14391,67.0456
46.4,19415140.0,-50.75269,67.0453
100.0,5359149.0,-30.66982,67.0345
215.4,4092392.0,16.70532,67.0501
464.2,2209899.0,-88.10716,67.0297
1000.0,1280701.0,-96.98572,67.0274
2154.4,593401.0,-86.6131,67.0351
4641.6,269141.4,-86.57931,67.047
10000.0,130860.2,-87.56522,67.0247
