Frequency,Impedance,Phase Angle,Temperature (Dry Bath)
10.0,18872480.0,-30.45638,68.2545
21.5,19983860.0,-46.10002,68.2447
46.4,17496670.0,-58.80981,68.2603
100.0,5330012.0,-44.77494,68.2509
215.4,3434140.0,-68.17119,68.254
464.2,1835071.0,-74.2623,68.2435
1000.0,1010357.0,-79.04453,68.2557
2154.4,537704.7,-83.22035,68.2509
4641.6,265892.3,-84.01919,68.2379
10000.0,123987.2,-93.66097,68.262
