Frequency,Impedance,Phase Angle,Temperature (Dry Bath)
10.0,31192990.0,-9.729509,67.3295
21.5,20249440.0,-45.41981,67.3188
46.4,14881580.0,-57.40472,67.3301
100.0,3142941.0,-89.86645,67.3378
215.4,5026575.0,-32.78634,67.3247
464.2,1824909.0,-78.39326,67.3284
1000.0,884360.5,-86.00556,67.3196
2154.4,501504.7,-80.72807,67.3253
4641.6,224054.3,-84.10905,67.3194
10000.0,112310.6,-84.77716,67.336
