Frequency,Impedance,Phase Angle,Temperature (Dry Bath)
10.0,32033430.0,-29.26483,67.1245
21.5,19095620.0,-32.11951,67.1601
46.4,15335610.0,-60.96371,67.1411
100.0,5554367.0,-32.41176,67.1729
215.4,2619761.0,-87.56545,67.1672
464.2,1613174.0,-77.27649,67.1819
1000.0,735405.0,-84.61354,67.1738
2154.4,464199.9,-81.15389,67.1528
4641.6,227460.9,-84.96901,67.1714
10000.0,113121.4,-83.00986,67.1679
