Frequency,Impedance,Phase Angle,Temperature (Dry Bath)
10.0,42880250.0,-24.13298,67.8969
21.5,29538710.0,-36.13522,67.8911
46.4,16005100.0,-58.12691,67.8913
100.0,13463080.0,-72.08424,67.894
215.4,4712047.0,-79.23105,67.8874
464.2,2025458.0,-84.39301,67.8978
1000.0,947340.5,-68.42283,67.8842
2154.4,527476.9,-75.68621,67.9021
4641.6,261940.7,-81.25723,67.9013
10000.0,129138.7,-89.38542,67.897
