Frequency,Impedance,Phase Angle,Temperature (Dry Bath)
10.0,38653200.0,-9.070728,67.3653
21.5,28730450.0,-23.96055,67.3763
46.4,14207570.0,-40.87909,67.3754
100.0,2895866.0,-69.74123,67.3757
215.4,945524.3,80.38069,67.3603
464.2,2327715.0,-79.49079,67.3671
1000.0,1141606.0,-89.75195,67.3669
2154.4,658190.7,-83.18648,67.3741
4641.6,277254.2,-89.72204,67.3602
10000.0,132485.9,-86.63811,67.3587
