Frequency,Impedance,Phase Angle,Temperature (Dry Bath)
10.0,116014.5,-24.98937,68.1697
21.5,97887.56,-21.97689,68.1612
46.4,83769.38,-19.2166,68.1793
100.0,72631.17,-17.5369,68.1635
215.4,66462.64,-13.84196,68.1765
464.2,59489.65,-14.48808,68.1538
1000.0,55450.19,-13.41271,68.158
2154.4,51840.5,-16.00049,68.1582
4641.6,46081.52,-21.81918,68.1614
10000.0,38702.51,-34.92005,68.169
