Frequency,Impedance,Phase Angle,Temperature (Dry Bath)
10.0,20304060.0,-30.68392,68.1154
21.5,18459220.0,-30.35728,68.1154
46.4,22704210.0,-59.83187,68.1154
100.0,4454524.0,-39.07208,68.1154
215.4,4230520.0,-87.88202,68.1154
464.2,2208345.0,-75.27457,68.1154
1000.0,1118869.0,-78.85189,68.1154
2154.4,567783.7,-79.62596,68.1154
4641.6,292836.1,-80.11955,68.1154
10000.0,159399.5,-91.03058,68.1154
