Frequency,Impedance,Phase Angle,Temperature (Dry Bath)
10.0,22381600.0,-12.81631,68.0857
21.5,24755650.0,-47.63624,68.088
46.4,22271390.0,-63.86831,68.0686
100.0,5063939.0,-21.10445,68.0952
215.4,2994645.0,-61.12851,68.0744
464.2,2194956.0,-81.28973,68.0792
1000.0,944797.9,-80.31627,68.1017
2154.4,509297.5,-79.12403,68.0876
4641.6,266839.3,-88.20538,68.0846
10000.0,136060.6,-88.7899,68.0698
