Frequency,Impedance,Phase Angle,Temperature (Dry Bath)
10.0,134319.7,-6.507593,66.992
21.5,128895.8,-5.482523,66.9935
46.4,124077.7,-5.166597,66.9755
100.0,122217.3,-6.165122,66.9998
215.4,113301.8,-6.440101,66.9732
464.2,112199.2,-8.756489,66.9938
1000.0,103569.0,-11.0832,66.9805
2154.4,98138.16,-19.40381,67.0015
4641.6,82592.02,-32.93552,66.9883
10000.0,58660.85,-50.54278,66.9822
