Frequency,Impedance,Phase Angle,Temperature (Dry Bath)
10.0,20724310.0,-19.67607,68.1985
21.5,16653110.0,-42.38542,68.1849
46.4,15112330.0,-63.75852,68.1776
100.0,6548635.0,-50.42821,68.1816
215.4,2780149.0,-74.45356,68.178
464.2,1981578.0,-80.86414,68.1951
1000.0,920169.7,-79.29091,68.2037
2154.4,488460.9,-79.73326,68.1759
4641.6,270739.3,-83.05992,68.2016
10000.0,135578.8,-89.60493,68.1918
