Frequency,Impedance,Phase Angle,Temperature (Dry Bath)
10.0,26534530.0,-29.55539,67.0718
21.5,21637170.0,-29.57596,67.0688
46.4,14774070.0,-53.14844,67.0944
100.0,4620803.0,-35.09985,67.0739
215.4,8103340.0,-115.0469,67.0839
464.2,2196889.0,-77.02489,67.0844
1000.0,991359.5,-81.86724,67.0762
2154.4,469237.2,-85.07837,67.0776
4641.6,223177.0,-81.95848,67.0739
10000.0,116877.7,-79.44054,67.0723
