Frequency,Impedance,Phase Angle,Temperature (Dry Bath)
10.0,3178519.0,-11.0839,68.0609
21.5,3428790.0,-13.26722,68.0604
46.4,3197673.0,-17.99705,68.0668
100.0,1537935.0,-20.15756,68.0565
215.4,1668359.0,-33.45587,68.0613
464.2,1389426.0,-45.52541,68.0738
1000.0,674389.3,-65.72278,68.0648
2154.4,393551.4,-73.65184,68.0687
4641.6,218575.2,-75.30646,68.0678
10000.0,113583.0,-85.83043,68.0839
