Frequency,Impedance,Phase Angle,Temperature (Dry Bath)
10.0,238110.9,-5.96301,66.9472
21.5,229809.9,-5.936881,66.9363
46.4,222316.7,-6.581411,66.926
100.0,202581.8,-8.793879,66.9366
215.4,203245.8,-39.53117,66.9315
464.2,191689.7,-12.69496,66.9463
1000.0,167350.7,-20.62485,66.9382
2154.4,134606.2,-34.64517,66.9398
4641.6,96564.2,-48.38487,66.9208
10000.0,58755.53,-59.86383,66.9262
