Frequency,Impedance,Phase Angle,Temperature (Dry Bath)
10.0,21545600.0,-46.76627,68.139
21.5,16666050.0,-42.09935,68.1309
46.4,23649380.0,-60.61873,68.1264
100.0,4388590.0,-72.81714,68.1127
215.4,3665339.0,-86.54547,68.1295
464.2,2729627.0,-103.019,68.1126
1000.0,891836.9,-81.53463,68.1252
2154.4,503721.8,-81.27788,68.1423
4641.6,257773.3,-85.80396,68.1293
10000.0,126013.4,-91.34139,68.1376
