Frequency,Impedance,Phase Angle,Temperature (Dry Bath)
10.0,17370160.0,-28.15736,68.0147
21.5,13911550.0,-38.19699,68.0147
46.4,22945100.0,-52.87778,68.0147
100.0,4209060.0,-38.10203,68.0147
215.4,3641793.0,-79.39666,68.0147
464.2,2091544.0,-80.17877,68.0147
1000.0,1058056.0,-82.59849,68.0147
2154.4,511603.9,-79.97241,68.0147
4641.6,305729.4,-79.85835,68.0147
10000.0,169464.1,-88.66644,68.0147
