Frequency,Impedance,Phase Angle,Temperature (Dry Bath)
10.0,290727.4,-14.60917,72.228
21.544346900318832,256325.2,-14.48418,72.2179
46.41588833612777,235328.2,-13.86153,72.2212
100.0,287143.4,-0.2341658,72.2144
215.44346900318823,233264.0,10.42945,72.2425
464.15888336127773,202079.5,-35.82908,72.2137
1000.0,177536.7,-15.82051,72.2256
2154.4346900318824,107202.0,-35.20159,72.2136
4641.588833612777,100130.5,-47.54018,72.2237
10000.0,81778.89,-45.75481,72.2219
