Frequency,Impedance,Phase Angle,Temperature (Dry Bath)
10.0,8935.471,-26.76974,70.8869
21.544346900318832,7287.756,-22.48968,70.8806
46.41588833612777,6160.439,-18.66828,70.876
100.0,5399.022,-15.47525,70.8787
215.44346900318823,4835.102,-13.1179,70.8754
464.15888336127773,4385.452,-10.38456,70.8757
1000.0,4058.802,-8.891399,70.8752
2154.4346900318824,3805.188,-7.566742,70.8632
4641.588833612777,3611.943,-8.14403,70.8703
10000.0,3465.513,-8.347162,70.8628
