Frequency,Impedance,Phase Angle,Temperature (Dry Bath)
10.0,5369972.0,-1.014027,71.3246
21.544346900318832,6463596.0,-47.81577,71.3492
46.41588833612777,4069504.0,-15.89744,71.3222
100.0,369911.2,115.1402,71.3122
215.44346900318823,748651.5,-76.81795,71.3437
464.15888336127773,534769.2,-70.92005,71.326
1000.0,458534.4,-135.5697,71.3044
2154.4346900318824,237055.4,-71.52219,71.3367
4641.588833612777,149536.1,-80.37705,71.3282
10000.0,63928.9,-82.9589,71.322
