Frequency,Impedance,Phase Angle,Temperature (Dry Bath)
10.0,2383721.0,-0.5271483,68.1535
21.5,2261454.0,-1.890002,68.1535
46.4,2859041.0,2.078261,68.1535
100.0,4006657.0,-21.02483,68.1535
215.4,2996900.0,-49.04778,68.1535
464.2,2015447.0,-57.86923,68.1535
1000.0,942894.8,-71.07584,68.1535
2154.4,558814.6,-76.95328,68.1535
4641.6,286762.9,-77.31463,68.1535
10000.0,140381.6,-87.37074,68.1535
