Frequency,Impedance,Phase Angle,Temperature (Dry Bath)
10.0,31874570.0,-39.17562,67.2525
21.5,23495910.0,-39.73636,67.2618
46.4,16341170.0,-51.50579,67.2506
100.0,4167177.0,-88.23553,67.2629
215.4,2496852.0,-124.7109,67.251
464.2,1935198.0,-84.81934,67.2478
1000.0,1198766.0,-86.7099,67.2459
2154.4,447662.2,-83.85887,67.2485
4641.6,219903.4,-83.14578,67.2569
10000.0,120056.7,-88.54672,67.253
