Frequency,Impedance,Phase Angle,Temperature (Dry Bath)
10.0,341406.7,-14.16071,71.3178
21.544346900318832,308198.5,-15.47695,71.3086
46.41588833612777,274593.0,-15.26269,71.2986
100.0,205383.8,-8.095946,71.3124
215.44346900318823,201432.8,-22.73152,71.318
464.15888336127773,203491.4,-16.44864,71.3277
1000.0,133318.8,-23.28974,71.3107
2154.4346900318824,120434.3,-45.22602,71.3105
4641.588833612777,84280.34,-44.17224,71.319
10000.0,47953.23,-71.55266,71.3094
