Frequency,Impedance,Phase Angle,Temperature (Dry Bath)
10.0,154481.5,-6.454539,68.0219
21.5,148589.5,-5.3506,68.02
46.4,144083.4,-4.917133,68.0311
100.0,135844.9,-4.858301,68.031
215.4,133323.2,-7.236898,68.0227
464.2,130544.1,-6.808823,68.0239
1000.0,121939.2,-12.30828,68.0276
2154.4,111382.2,-20.52743,68.0235
4641.6,101722.3,-33.03275,68.024
10000.0,74746.48,-52.14554,68.0232
