Frequency,Impedance,Phase Angle,Temperature (Dry Bath)
10.0,20561100.0,-32.75456,68.2574
21.5,24483530.0,-33.29663,68.2492
46.4,17805570.0,-54.53428,68.2463
100.0,6563473.0,-57.5799,68.2468
215.4,3139503.0,-84.96081,68.2519
464.2,1738016.0,-68.73758,68.2553
1000.0,1035175.0,-81.14526,68.2504
2154.4,486877.1,-82.76885,68.2501
4641.6,249074.4,-80.75789,68.2531
10000.0,120145.7,-92.19919,68.2537
