Frequency,Impedance,Phase Angle,Temperature (Dry Bath)
10.0,2032466.0,-10.4289,67.2873
21.5,1836503.0,-11.23255,67.2729
46.4,1688030.0,-14.23083,67.2848
100.0,1543792.0,-12.15864,67.2932
215.4,188160.6,74.32912,67.2931
464.2,994733.8,-42.1174,67.2949
1000.0,625486.8,-55.17598,67.2989
2154.4,359898.1,-65.12159,67.2772
4641.6,200822.7,-70.52225,67.2799
10000.0,101669.1,-72.61444,67.2893
