Frequency,Impedance,Phase Angle,Temperature (Dry Bath)
10.0,5500941.0,-22.70663,70.9659
21.544346900318832,3566663.0,-3.115178,70.9683
46.41588833612777,3995690.0,-20.3266,70.973
100.0,1478962.0,79.25803,70.9782
215.44346900318823,1488018.0,134.9359,70.9893
464.15888336127773,1659414.0,-14.59859,70.9664
1000.0,558974.0,-165.7261,70.9841
2154.4346900318824,349511.5,-106.8653,70.9932
4641.588833612777,141807.8,-54.3924,70.9858
10000.0,103294.7,-105.2172,70.9759
