Frequency,Impedance,Phase Angle,Temperature (Dry Bath)
10.0,24229100.0,-22.94515,67.7869
21.5,18442420.0,-28.81511,67.79
46.4,15892760.0,-63.90448,67.7826
100.0,12433440.0,-86.40558,67.7858
215.4,5497751.0,-69.08019,67.793
464.2,1737417.0,-76.04221,67.7809
1000.0,928005.4,-76.55289,67.7864
2154.4,540452.6,-84.50991,67.7778
4641.6,234376.1,-85.07118,67.7733
10000.0,122950.4,-87.98258,67.7959
