Frequency,Impedance,Phase Angle,Temperature (Dry Bath)
10.0,17510330.0,-24.95584,67.7752
21.5,20636970.0,-37.50844,67.7819
46.4,13439100.0,-61.71737,67.7904
100.0,8941926.0,1.476264,67.7675
215.4,4629759.0,-95.23918,67.7711
464.2,1490129.0,-81.40906,67.7446
1000.0,968108.6,-74.84267,67.7756
2154.4,508539.6,-73.02067,67.7816
4641.6,265691.6,-82.53977,67.7888
10000.0,135498.1,-90.45184,67.792
