Frequency,Impedance,Phase Angle,Temperature (Dry Bath)
10.0,13572.5,-28.31624,71.022
21.544346900318832,10778.46,-25.64646,71.0218
46.41588833612777,8762.194,-22.91162,71.0177
100.0,7308.49,-19.89806,71.0134
215.44346900318823,6300.141,-17.62015,71.0221
464.15888336127773,5493.55,-15.58225,71.0235
1000.0,4899.85,-14.17575,71.0324
2154.4346900318824,4372.519,-12.65889,71.0255
4641.588833612777,4014.767,-12.19832,71.0329
10000.0,3696.01,-13.02771,71.0183
