Frequency,Impedance,Phase Angle,Temperature (Dry Bath)
10.0,5095647.0,-1.061827,70.3784
21.544346900318832,4839810.0,3.116136,70.3905
46.41588833612777,3850635.0,-27.55533,70.3849
100.0,1667626.0,130.351,70.4035
215.44346900318823,1532612.0,157.9093,70.4103
464.15888336127773,363468.7,-73.03498,70.383
1000.0,264339.8,-49.81459,70.392
2154.4346900318824,221949.3,-93.89577,70.3925
4641.588833612777,145045.8,-104.3629,70.3992
10000.0,52676.44,-93.30385,70.4076
