Frequency,Impedance,Phase Angle,Temperature (Dry Bath)
10.0,124276.6,-24.8149,67.3584
21.5,103149.1,-21.52627,67.3552
46.4,88341.0,-18.48849,67.3427
100.0,78743.56,-16.65738,67.358
215.4,68034.86,-15.61839,67.3448
464.2,65055.68,-13.17392,67.3548
1000.0,58743.71,-13.4576,67.3464
2154.4,54430.55,-16.09161,67.3705
4641.6,48119.92,-24.03485,67.3585
10000.0,39735.01,-36.36239,67.3669
