Frequency,Impedance,Phase Angle,Temperature (Dry Bath)
10.0,4717846.0,-15.508,70.9567
21.544346900318832,4449471.0,-33.75121,70.9663
46.41588833612777,3116373.0,-32.16822,70.9456
100.0,572388.4,161.6618,70.9592
215.44346900318823,507349.7,-112.1145,70.9619
464.15888336127773,499279.4,-126.9966,70.9703
1000.0,157999.1,-46.9548,70.9543
2154.4346900318824,123971.2,-68.35857,70.9457
4641.588833612777,107113.1,-87.42619,70.9614
10000.0,48826.24,-81.27024,70.9682
