Frequency,Impedance,Phase Angle,Temperature (Dry Bath)
10.0,675875.3,-10.37157,67.068
21.5,626446.0,-10.31117,67.064
46.4,587170.1,-11.60711,67.0636
100.0,509954.2,-14.25807,67.0719
215.4,510107.1,-18.27498,67.068
464.2,434796.5,-26.43664,67.0629
1000.0,338400.4,-34.66906,67.062
2154.4,252217.3,-45.24607,67.0626
4641.6,165229.5,-56.51935,67.0686
10000.0,94037.74,-65.49979,67.0551
