Frequency,Impedance,Phase Angle,Temperature (Dry Bath)
10.0,24125970.0,-32.93972,68.007
21.5,17244940.0,-37.58207,68.007
46.4,14625450.0,-51.42153,68.007
100.0,5187739.0,-20.65339,68.007
215.4,4574553.0,-71.50166,68.007
464.2,1897299.0,-78.74929,68.007
1000.0,1200171.0,-79.83769,68.007
2154.4,599811.6,-82.00765,68.007
4641.6,351502.8,-83.3325,68.007
10000.0,162378.6,-90.86155,68.007
