Frequency,Impedance,Phase Angle,Temperature (Dry Bath)
10.0,29752990.0,-9.668574,67.3261
21.5,25446550.0,-36.21466,67.3272
46.4,19219080.0,-53.52302,67.332
100.0,3905595.0,-18.46171,67.3486
215.4,1813412.0,-86.07098,67.3486
464.2,2634098.0,-66.06167,67.3394
1000.0,1382870.0,-76.04037,67.3359
2154.4,638256.1,-85.01144,67.338
4641.6,300102.5,-85.41709,67.3328
10000.0,133773.8,-85.81339,67.3392
