Frequency,Impedance,Phase Angle,Temperature (Dry Bath)
10.0,26935030.0,-26.23715,67.1288
21.5,23805080.0,-33.26526,67.1192
46.4,10703050.0,-58.00795,67.1232
100.0,5280694.0,5.880966,67.1251
215.4,382690.6,7.914944,67.1069
464.2,1779861.0,-99.67423,67.1326
1000.0,949722.1,-77.99319,67.1167
2154.4,449364.6,-84.89516,67.1197
4641.6,229460.3,-78.96073,67.1237
10000.0,110027.6,-83.26844,67.1183
