Frequency,Impedance,Phase Angle,Temperature (Dry Bath)
10.0,26144220.0,-15.82387,67.7158
21.5,17252340.0,-38.2575,67.7356
46.4,29799880.0,-48.58804,67.7279
100.0,4827572.0,-40.2483,67.7443
215.4,4174679.0,-78.79882,67.7541
464.2,2138403.0,-71.0175,67.7297
1000.0,964599.4,-79.63724,67.7326
2154.4,508845.0,-85.22294,67.7203
4641.6,271781.9,-82.78272,67.7451
10000.0,144434.3,-93.91611,67.7316
