Frequency,Impedance,Phase Angle,Temperature (Dry Bath)
10.0,4846629.0,31.74542,65.7582
21.544346900318832,7432393.0,-16.80544,65.7784
46.41588833612777,5657588.0,-17.64622,65.7668
100.0,1216615.0,24.31009,65.7683
215.44346900318823,264066.6,79.86405,65.7657
464.15888336127773,580439.9,-72.45024,65.7872
1000.0,577350.5,-85.02868,65.7661
2154.4346900318824,348595.4,-89.34508,65.7785
4641.588833612777,125659.1,-73.76059,65.7712
10000.0,60236.06,-85.76697,65.7831
