Frequency,Impedance,Phase Angle,Temperature (Dry Bath)
10.0,27880480.0,-15.91875,67.2189
21.5,31873600.0,-15.64892,67.2159
46.4,19287510.0,-44.10943,67.2143
100.0,6517968.0,-8.594992,67.23
215.4,8847598.0,90.2347,67.2074
464.2,2260062.0,-77.98821,67.2076
1000.0,1165532.0,-78.09715,67.2156
2154.4,543844.6,-94.21913,67.2301
4641.6,286153.1,-88.02302,67.2224
10000.0,131618.4,-86.4585,67.2113
