Frequency,Impedance,Phase Angle,Temperature (Dry Bath)
10.0,6288834.0,-0.9626201,65.7781
21.544346900318832,6255465.0,-7.636111,65.7695
46.41588833612777,4064348.0,-22.69128,65.7754
100.0,10935740.0,167.8904,65.7772
215.44346900318823,9931.385,-20.06278,65.7721
464.15888336127773,695559.9,-35.92005,65.7654
1000.0,934302.1,-73.00821,65.7618
2154.4346900318824,309677.3,-83.95733,65.7645
4641.588833612777,149689.2,-83.80384,65.7641
10000.0,67407.18,-79.952,65.762
