Frequency,Impedance,Phase Angle,Temperature (Dry Bath)
10.0,117160.1,-24.58261,67.3077
21.5,97731.29,-21.30418,67.3069
46.4,84501.47,-18.1635,67.2956
100.0,74761.7,-15.63576,67.3272
215.4,67732.26,-14.03692,67.3198
464.2,61397.95,-13.04272,67.3231
1000.0,55975.73,-13.38707,67.3062
2154.4,51858.58,-16.64583,67.3103
4641.6,46249.09,-22.41175,67.3134
10000.0,38230.55,-34.69032,67.3109
