Frequency,Impedance,Phase Angle,Temperature (Dry Bath)
10.0,23454400.0,-23.7943,68.0877
21.5,22626800.0,-45.33769,68.1136
46.4,15935430.0,-60.81432,68.1027
100.0,5286325.0,-68.75422,68.1071
215.4,2964020.0,-77.74379,68.0966
464.2,2002809.0,-78.75523,68.1003
1000.0,938114.0,-82.346,68.0982
2154.4,534490.3,-83.01826,68.0979
4641.6,262409.9,-85.32055,68.1057
10000.0,123970.4,-89.18583,68.1011
