Frequency,Impedance,Phase Angle,Temperature (Dry Bath)
10.0,13061.41,-20.24787,70.9669
21.544346900318832,11208.02,-17.37887,70.9562
46.41588833612777,9816.124,-15.35954,70.9599
100.0,8824.617,-13.19692,70.9605
215.44346900318823,7861.779,-11.52217,70.9771
464.15888336127773,7212.682,-11.15673,70.9706
1000.0,6688.039,-9.424706,70.9669
2154.4346900318824,6115.05,-9.851222,70.9646
4641.588833612777,5775.625,-9.978561,70.9637
10000.0,5331.575,-12.32424,70.9636
