Frequency,Impedance,Phase Angle,Temperature (Dry Bath)
10.0,7537670.0,-0.4130893,66.5354
21.544346900318832,9313205.0,20.23179,66.5257
46.41588833612777,4630244.0,-9.93433,66.5232
100.0,1917248.0,-31.57398,66.5469
215.44346900318823,1385741.0,-52.80088,66.5202
464.15888336127773,3139569.0,-90.06222,66.5418
1000.0,988234.2,-65.16766,66.5305
2154.4346900318824,1294617.0,-31.03943,66.5352
4641.588833612777,787014.3,-39.12449,66.5583
10000.0,300740.5,-86.74491,66.5459
