Frequency,Impedance,Phase Angle,Temperature (Dry Bath)
10.0,5614997.0,-23.50345,70.9074
21.544346900318832,5006419.0,-3.158968,70.9108
46.41588833612777,4339187.0,-10.14364,70.9206
100.0,588435.8,20.29137,70.9116
215.44346900318823,1533652.0,-106.3407,70.9063
464.15888336127773,3778002.0,146.455,70.9205
1000.0,401365.0,-105.5331,70.9091
2154.4346900318824,309816.0,-83.22421,70.9262
4641.588833612777,131973.1,-79.57427,70.8922
10000.0,59254.22,-83.71572,70.9129
