Frequency,Impedance,Phase Angle,Temperature (Dry Bath)
10.0,22691.42,-21.42733,65.7663
21.544346900318832,19110.25,-18.46313,65.7544
46.41588833612777,16590.47,-15.37069,65.7661
100.0,14525.02,-12.53805,65.7584
215.44346900318823,15393.27,-61.86405,65.7664
464.15888336127773,12513.65,-9.55041,65.7631
1000.0,11824.77,-7.477416,65.7711
2154.4346900318824,11097.95,-8.346087,65.7653
4641.588833612777,10899.5,-10.37102,65.7704
10000.0,10146.27,-14.38457,65.7667
