Frequency,Impedance,Phase Angle,Temperature (Dry Bath)
10.0,4217583.0,-21.74298,65.8547
21.544346900318832,6969609.0,5.965443,65.8534
46.41588833612777,4079142.0,-29.03003,65.8303
100.0,507764.0,38.42647,65.8388
215.44346900318823,615220.6,-67.38783,65.8425
464.15888336127773,795236.7,-99.57585,65.8433
1000.0,617887.2,-121.9532,65.8349
2154.4346900318824,317119.9,-40.44982,65.8338
4641.588833612777,168232.5,-100.6922,65.8312
10000.0,66125.61,-89.09027,65.8602
