Frequency,Impedance,Phase Angle,Temperature (Dry Bath)
10.0,23608.01,-21.16294,71.4238
21.544346900318832,20010.46,-18.35091,71.4045
46.41588833612777,17308.75,-15.59329,71.4219
100.0,15533.95,-12.9296,71.4264
215.44346900318823,5774.038,-40.90835,71.4271
464.15888336127773,12708.6,-10.10103,71.4159
1000.0,11877.22,-8.497804,71.4106
2154.4346900318824,11810.95,-8.732557,71.4032
4641.588833612777,10686.68,-10.22212,71.4186
10000.0,10297.13,-14.9201,71.4243
