Frequency,Impedance,Phase Angle,Temperature (Dry Bath)
10.0,6813749.0,1.146235,65.8473
21.544346900318832,5477929.0,-18.95608,65.8677
46.41588833612777,3819699.0,-35.35093,65.8621
100.0,253004.6,-117.1037,65.8629
215.44346900318823,16950.36,76.53554,65.8799
464.15888336127773,1436052.0,151.3277,65.8526
1000.0,344129.7,-35.3778,65.8671
2154.4346900318824,269879.5,-81.51523,65.8533
4641.588833612777,131575.5,-104.5876,65.8557
10000.0,67742.14,-89.49587,65.8427
