Frequency,Impedance,Phase Angle,Temperature (Dry Bath)
10.0,138825.9,-19.15842,66.1856
21.544346900318832,117888.4,-17.57618,66.1785
46.41588833612777,101740.0,-16.34112,66.1957
100.0,91391.42,-17.91077,66.1948
215.44346900318823,72730.22,-31.80082,66.1808
464.15888336127773,67617.92,-25.96415,66.1861
1000.0,62327.64,-14.98664,66.1772
2154.4346900318824,50888.32,-26.80824,66.1913
4641.588833612777,43837.4,-34.3145,66.1774
10000.0,31083.99,-48.91398,66.1892
