Frequency,Impedance,Phase Angle,Temperature (Dry Bath)
10.0,12273.53,-4.842493,67.0406
21.5,11979.77,-4.078001,67.0331
46.4,11728.88,-3.63496,67.0343
100.0,11563.96,-3.6671,67.0132
215.4,11408.34,-3.796443,67.0286
464.2,11253.59,-3.966333,67.0331
1000.0,10965.22,-4.088687,67.0288
2154.4,10733.95,-4.790348,67.0236
4641.6,10468.33,-6.242085,67.0324
10000.0,10154.02,-9.673309,67.0426
