Frequency,Impedance,Phase Angle,Temperature (Dry Bath)
10.0,29190630.0,-37.43246,68.042
21.5,23251990.0,-42.15663,68.042
46.4,10664680.0,-55.45244,68.042
100.0,3554482.0,-33.78506,68.042
215.4,4012232.0,-67.90463,68.042
464.2,2143318.0,-81.49207,68.042
1000.0,863873.1,-79.68585,68.042
2154.4,453813.9,-83.81987,68.042
4641.6,244447.7,-84.19821,68.042
10000.0,120448.3,-88.69574,68.042
