Frequency,Impedance,Phase Angle,Temperature (Dry Bath)
10.0,4521418.0,-1.196125,71.4735
21.544346900318832,9068336.0,-4.756873,71.4589
46.41588833612777,4723445.0,-30.12885,71.4757
100.0,1001147.0,128.9032,71.4696
215.44346900318823,2090757.0,158.574,71.4661
464.15888336127773,918990.0,-78.37371,71.4792
1000.0,725173.2,-77.21469,71.4651
2154.4346900318824,321556.2,-96.30585,71.4525
4641.588833612777,235890.4,-75.02585,71.4605
10000.0,138622.7,-81.90872,71.4714
