Frequency,Impedance,Phase Angle,Temperature (Dry Bath)
10.0,20270290.0,-11.11237,67.963
21.5,16663650.0,-39.23398,67.9703
46.4,12300530.0,-60.56446,67.9842
100.0,5218021.0,-37.1102,67.9643
215.4,3093373.0,-96.49463,67.9636
464.2,2046334.0,-77.39331,67.9838
1000.0,876391.4,-75.96733,67.9887
2154.4,501663.2,-79.34783,67.9731
4641.6,262756.5,-83.49742,67.9697
10000.0,147903.4,-89.79577,67.9814
