Frequency,Impedance,Phase Angle,Temperature (Dry Bath)
10.0,191760.8,-27.03986,65.7527
21.544346900318832,154967.7,-23.961,65.7657
46.41588833612777,127589.9,-21.57751,65.7553
100.0,117782.5,-20.23815,65.7534
215.44346900318823,8302.425,-65.55602,65.7768
464.15888336127773,81653.49,-15.93926,65.7636
1000.0,77853.84,-22.07921,65.756
2154.4346900318824,63380.06,-26.74891,65.7668
4641.588833612777,46622.12,-33.65911,65.7626
10000.0,36887.76,-57.26619,65.7511
