Frequency,Impedance,Phase Angle,Temperature (Dry Bath)
10.0,20712490.0,-25.15944,67.9983
21.5,21818190.0,-40.20161,68.0259
46.4,23681790.0,-54.68795,68.0232
100.0,4644442.0,-44.88103,68.0143
215.4,4112458.0,-51.29867,68.0226
464.2,1909160.0,-88.39442,68.0331
1000.0,1034093.0,-86.65109,68.0053
2154.4,501992.5,-82.46958,68.0207
4641.6,251498.1,-85.00304,68.0097
10000.0,117273.2,-93.48735,68.0187
