Frequency,Impedance,Phase Angle,Temperature (Dry Bath)
10.0,34594220.0,-25.72502,67.5005
21.5,27362580.0,-36.20744,67.5107
46.4,21669690.0,-47.06159,67.4896
100.0,4104047.0,-47.27182,67.4999
215.4,4624029.0,-75.11374,67.5022
464.2,2903447.0,-77.12943,67.495
1000.0,1358739.0,-70.63,67.4825
2154.4,601884.9,-89.22164,67.4894
4641.6,275177.2,-87.43493,67.5027
10000.0,134894.5,-86.91877,67.4998
