Frequency,Impedance,Phase Angle,Temperature (Dry Bath)
10.0,22513320.0,-23.40149,68.0576
21.5,15332170.0,-38.32719,68.0327
46.4,9773115.0,-56.99001,68.0708
100.0,3213579.0,-27.9076,68.0643
215.4,3299684.0,-74.84132,68.0423
464.2,2193827.0,-74.02389,68.0376
1000.0,928617.8,-75.68903,68.0476
2154.4,570390.6,-74.18818,68.0435
4641.6,269545.9,-85.59072,68.0549
10000.0,132366.0,-91.44829,68.0386
