Frequency,Impedance,Phase Angle,Temperature (Dry Bath)
10.0,12132.0,-4.834505,66.9715
21.5,11826.19,-4.179141,66.9762
46.4,11646.15,-3.904828,66.9679
100.0,11515.63,-3.982964,66.9633
215.4,11404.44,-4.260251,66.9733
464.2,11200.06,-4.274972,66.9556
1000.0,10935.86,-4.536713,66.9828
2154.4,10633.89,-5.078656,66.9591
4641.6,10377.9,-6.37766,66.9659
10000.0,10052.6,-9.788107,66.9845
