Frequency,Impedance,Phase Angle,Temperature (Dry Bath)
10.0,13264.34,-27.61668,70.8901
21.544346900318832,10622.59,-25.18817,70.8874
46.41588833612777,8674.003,-22.42941,70.8899
100.0,7305.377,-18.9823,70.8937
215.44346900318823,6248.566,-16.95278,70.8892
464.15888336127773,5513.215,-15.15841,70.8874
1000.0,4842.137,-13.33658,70.8881
2154.4346900318824,4398.394,-12.11468,70.881
4641.588833612777,4034.794,-11.81765,70.9023
10000.0,3673.378,-12.98106,70.8937
