Frequency,Impedance,Phase Angle,Temperature (Dry Bath)
10.0,21172680.0,-21.28092,67.7674
21.5,23378460.0,-41.53149,67.7818
46.4,17451770.0,-64.56711,67.7725
100.0,4409510.0,-58.87987,67.7894
215.4,6713675.0,-68.73714,67.7823
464.2,1869783.0,-75.35238,67.796
1000.0,850234.5,-81.13976,67.8115
2154.4,535905.2,-77.93506,67.8146
4641.6,257293.7,-81.28099,67.8152
10000.0,129880.8,-90.27092,67.8084
