Frequency,Impedance,Phase Angle,Temperature (Dry Bath)
10.0,28460870.0,-34.42741,68.0259
21.5,40039530.0,-24.08044,68.0032
46.4,35274360.0,-44.31714,68.0238
100.0,6271755.0,-50.9673,68.0345
215.4,3030276.0,-82.90954,68.0325
464.2,1943759.0,-92.18597,68.0268
1000.0,1045082.0,-77.8912,68.0282
2154.4,571123.6,-79.39871,68.0191
4641.6,283472.2,-82.07614,68.0196
10000.0,149219.5,-89.4338,68.0241
