Frequency,Impedance,Phase Angle,Temperature (Dry Bath)
10.0,19659540.0,-7.667772,67.1153
21.5,23858780.0,-28.57897,67.1137
46.4,17169720.0,-50.06915,67.1149
100.0,6075503.0,-29.65657,67.1142
215.4,144419.8,-172.2734,67.1254
464.2,3020537.0,-77.55127,67.1204
1000.0,1277965.0,-88.7821,67.1074
2154.4,601305.1,-85.98076,67.1172
4641.6,260265.4,-88.84596,67.1146
10000.0,130299.1,-86.02447,67.1157
