Frequency,Impedance,Phase Angle,Temperature (Dry Bath)
10.0,23439710.0,-12.85871,67.9555
21.5,25220260.0,-31.23874,67.9582
46.4,26756710.0,-46.93048,67.97
100.0,5509495.0,-67.35675,67.9517
215.4,4248811.0,-83.56681,67.9669
464.2,2117050.0,-79.34551,67.9829
1000.0,1081049.0,-81.62533,67.9639
2154.4,550509.7,-84.06739,67.9626
4641.6,273286.0,-75.64298,67.9545
10000.0,156974.1,-88.11752,67.9584
