Frequency,Impedance,Phase Angle,Temperature (Dry Bath)
10.0,5672217.0,-0.8387368,71.496
21.544346900318832,3951150.0,-2.735954,71.5136
46.41588833612777,4387003.0,4.111894,71.512
100.0,2739684.0,119.0217,71.5191
215.44346900318823,782894.8,-149.3989,71.5149
464.15888336127773,1524278.0,42.12289,71.5044
1000.0,2750900.0,-41.6555,71.5121
2154.4346900318824,616715.7,-87.89248,71.5
4641.588833612777,274418.6,-112.1019,71.5159
10000.0,133810.5,-81.74697,71.5121
