Frequency,Impedance,Phase Angle,Temperature (Dry Bath)
10.0,21311960.0,-25.52599,68.0149
21.5,20441700.0,-39.08863,68.0258
46.4,22865650.0,-62.07397,68.0155
100.0,6213729.0,-25.7705,67.9869
215.4,4419727.0,-80.93563,68.0288
464.2,2026313.0,-72.31848,68.0036
1000.0,928089.7,-80.01012,67.9793
2154.4,518096.7,-85.85161,67.9907
4641.6,240344.4,-86.36977,67.9932
10000.0,121298.0,-91.97277,68.0028
