Frequency,Impedance,Phase Angle,Temperature (Dry Bath)
10.0,11483.15,-5.028725,67.1959
21.5,11236.52,-4.162457,67.1949
46.4,10988.05,-3.325476,67.2155
100.0,10936.03,-3.933499,67.1982
215.4,10705.21,-4.127721,67.2089
464.2,10596.8,-4.06389,67.184
1000.0,10313.8,-4.064056,67.2082
2154.4,10088.37,-4.378342,67.1945
4641.6,9852.55,-5.76955,67.1935
10000.0,9583.451,-8.941565,67.2131
