Frequency,Impedance,Phase Angle,Temperature (Dry Bath)
10.0,32249170.0,-25.2885,67.484
21.5,22372490.0,-50.10537,67.4827
46.4,10845790.0,-73.44207,67.4779
100.0,3624385.0,-35.20557,67.4754
215.4,359279.6,120.3396,67.4719
464.2,1797431.0,-79.84705,67.4873
1000.0,855689.6,-74.36598,67.4796
2154.4,438818.9,-76.30877,67.4625
4641.6,238763.4,-76.89706,67.4797
10000.0,121297.0,-80.1836,67.4713
