Frequency,Impedance,Phase Angle,Temperature (Dry Bath)
10.0,1058105.0,-11.15015,67.9492
21.5,947595.3,-10.98739,67.9454
46.4,864230.2,-12.20951,67.9415
100.0,740952.5,-9.792016,67.9392
215.4,690725.5,-15.48714,67.9569
464.2,629631.3,-26.82329,67.9407
1000.0,455359.3,-35.5228,67.9549
2154.4,359256.3,-46.16116,67.9426
4641.6,213852.0,-59.66462,67.9537
10000.0,134886.9,-71.97726,67.9488
