Frequency,Impedance,Phase Angle,Temperature (Dry Bath)
10.0,1173808.0,-10.82048,67.6982
21.5,1098278.0,-11.00996,67.7171
46.4,1015443.0,-12.15882,67.6935
100.0,809873.8,-21.06589,67.6833
215.4,841199.0,-24.38792,67.7013
464.2,681969.6,-30.94483,67.6897
1000.0,518749.7,-41.35074,67.7133
2154.4,343592.0,-50.2884,67.6967
4641.6,220471.4,-62.94366,67.6809
10000.0,129384.4,-73.48673,67.7076
