Frequency,Impedance,Phase Angle,Temperature (Dry Bath)
10.0,40354380.0,-9.904271,67.1022
21.5,28382890.0,-20.27521,67.1066
46.4,23571580.0,-52.49614,67.1101
100.0,4066521.0,-37.30579,67.107
215.4,4632746.0,-51.80467,67.0917
464.2,4097341.0,-95.96553,67.1129
1000.0,1448743.0,-83.55292,67.1059
2154.4,590510.1,-93.85627,67.111
4641.6,272405.7,-89.05618,67.0974
10000.0,131291.1,-88.06597,67.118
