Frequency,Impedance,Phase Angle,Temperature (Dry Bath)
10.0,36429790.0,-21.69606,68.0664
21.5,19287010.0,-38.48987,68.0677
46.4,10501250.0,-59.90042,68.0599
100.0,5514806.0,-26.29505,68.0657
215.4,4689716.0,-88.08603,68.0803
464.2,1840976.0,-76.54611,68.0836
1000.0,959801.0,-79.94777,68.0609
2154.4,538622.0,-81.76214,68.0841
4641.6,259145.0,-86.35597,68.0837
10000.0,125935.4,-91.05316,68.0481
