Frequency,Impedance,Phase Angle,Temperature (Dry Bath)
10.0,23148.81,-21.1982,66.2096
21.544346900318832,19553.97,-18.44696,66.209
46.41588833612777,16945.09,-15.46483,66.2147
100.0,15119.78,-12.4968,66.1985
215.44346900318823,13734.44,-7.442841,66.224
464.15888336127773,12914.47,-10.46981,66.223
1000.0,11986.91,-7.645233,66.1885
2154.4346900318824,11242.79,-8.270743,66.196
4641.588833612777,11033.37,-10.2234,66.1878
10000.0,10151.62,-14.79783,66.2057
