Frequency,Impedance,Phase Angle,Temperature (Dry Bath)
10.0,138244.7,-24.79207,67.4226
21.5,116207.0,-22.19869,67.4116
46.4,99107.64,-19.36083,67.4248
100.0,85902.42,-16.92792,67.4249
215.4,80662.03,-10.83046,67.4137
464.2,71084.85,-14.75313,67.418
1000.0,63986.53,-15.38518,67.4113
2154.4,57849.88,-18.28322,67.4047
4641.6,51495.71,-24.78165,67.417
10000.0,42610.6,-36.53671,67.3963
