Frequency,Impedance,Phase Angle,Temperature (Dry Bath)
10.0,135686.7,-19.42044,66.2445
21.544346900318832,114684.3,-18.5335,66.2351
46.41588833612777,98709.08,-16.52478,66.2501
100.0,98785.99,-12.16695,66.2345
215.44346900318823,83653.24,0.1284798,66.2431
464.15888336127773,71905.78,-17.72195,66.2158
1000.0,65120.57,-14.20544,66.2409
2154.4346900318824,56218.49,-28.96708,66.2362
4641.588833612777,41715.1,-32.22836,66.2519
10000.0,30956.83,-44.94096,66.2438
