Frequency,Impedance,Phase Angle,Temperature (Dry Bath)
10.0,360707.2,-6.014168,67.2273
21.5,346951.9,-5.588246,67.2305
46.4,334203.6,-5.671428,67.2124
100.0,300130.6,-8.067183,67.2178
215.4,370242.5,52.24285,67.2347
464.2,294197.0,-13.48666,67.2283
1000.0,260977.8,-18.288,67.2146
2154.4,226627.7,-32.22744,67.2149
4641.6,161577.0,-46.28579,67.2158
10000.0,96616.73,-64.61918,67.2281
