Frequency,Impedance,Phase Angle,Temperature (Dry Bath)
10.0,41629740.0,-41.28569,67.9859
21.5,44255880.0,-45.8114,68.0026
46.4,18551080.0,-53.77197,67.9925
100.0,5948221.0,-25.78016,67.9999
215.4,2397889.0,-67.34058,67.9912
464.2,1573882.0,-73.93401,68.0024
1000.0,989948.8,-77.04437,67.988
2154.4,512376.5,-80.42679,67.987
4641.6,269230.4,-82.7685,68.0017
10000.0,130030.5,-95.5366,67.9995
