Frequency,Impedance,Phase Angle,Temperature (Dry Bath)
10.0,152994.7,-6.321952,68.1535
21.5,146309.3,-5.216576,68.1535
46.4,141972.4,-4.68572,68.1535
100.0,135927.7,-4.934606,68.1535
215.4,132096.3,-4.571483,68.1535
464.2,127302.9,-7.069869,68.1535
1000.0,120806.0,-13.33506,68.1535
2154.4,111241.4,-18.07162,68.1535
4641.6,98410.63,-34.93156,68.1535
10000.0,73655.6,-52.78819,68.1535
