Frequency,Impedance,Phase Angle,Temperature (Dry Bath)
10.0,138510.7,-5.828569,67.1964
21.5,133415.7,-4.932692,67.1877
46.4,129364.7,-4.061815,67.2014
100.0,127019.1,-3.626114,67.1672
215.4,64884.11,22.18862,67.188
464.2,118614.1,-7.530435,67.1701
1000.0,112519.7,-11.94395,67.1734
2154.4,104964.0,-19.49295,67.1685
4641.6,87006.73,-32.41014,67.181
10000.0,62993.64,-50.20168,67.1953
