Frequency,Impedance,Phase Angle,Temperature (Dry Bath)
10.0,1462860.0,-8.863466,67.3205
21.5,1412123.0,-9.401122,67.3312
46.4,1307075.0,-11.90907,67.314
100.0,1183170.0,2.515553,67.3325
215.4,1176374.0,-23.01588,67.3234
464.2,795258.3,-39.06414,67.3162
1000.0,575973.1,-51.63067,67.3221
2154.4,366817.3,-64.14454,67.3255
4641.6,197072.9,-70.75112,67.3277
10000.0,102761.8,-74.38944,67.321
