Frequency,Impedance,Phase Angle,Temperature (Dry Bath)
10.0,359754.5,-26.0899,70.9564
21.544346900318832,293836.5,-22.03622,70.9501
46.41588833612777,248890.8,-20.38186,70.9844
100.0,132812.8,-43.47297,70.9679
215.44346900318823,188837.1,-12.11142,70.9346
464.15888336127773,159942.8,-29.83288,70.9635
1000.0,138018.0,-46.22978,70.9665
2154.4346900318824,114480.7,-30.56709,70.9808
4641.588833612777,66972.09,-61.53975,70.9486
10000.0,42156.8,-65.81445,70.955
