Frequency,Impedance,Phase Angle,Temperature (Dry Bath)
10.0,137217.4,-25.58789,67.082
21.5,113432.7,-22.4802,67.0889
46.4,95659.25,-19.35855,67.0798
100.0,83324.9,-16.85938,67.0678
215.4,75604.81,-16.13764,67.0806
464.2,69259.7,-14.33075,67.0744
1000.0,62147.89,-14.59831,67.0754
2154.4,56975.39,-19.07649,67.0777
4641.6,49198.07,-25.96251,67.0896
10000.0,39617.64,-38.03117,67.0666
