Frequency,Impedance,Phase Angle,Temperature (Dry Bath)
10.0,4883388.0,29.14069,25.5776
21.544346900318832,4120338.0,-25.83023,25.973
46.41588833612777,5768990.0,-13.89491,25.8662
100.0,692949.1,-14.62353,25.9529
215.44346900318823,1218666.0,146.9767,25.9212
464.15888336127773,3106291.0,-45.25622,26.0522
1000.0,437737.4,21.0268,25.8572
2154.4346900318824,501017.0,-84.94866,25.7689
4641.588833612777,324728.5,-79.8145,26.059
10000.0,131590.6,-80.8194,26.0197
