Frequency,Impedance,Phase Angle,Temperature (Dry Bath)
10.0,28107420.0,-14.75682,68.042
21.5,17286240.0,-46.33605,68.042
46.4,12904860.0,-49.99101,68.042
100.0,3944441.0,-56.95352,68.042
215.4,3441814.0,-70.51581,68.042
464.2,2889258.0,-69.49792,68.042
1000.0,1271237.0,-79.28336,68.042
2154.4,554057.9,-78.03271,68.042
4641.6,293480.5,-82.95049,68.042
10000.0,170732.1,-94.37922,68.042
