Frequency,Impedance,Phase Angle,Temperature (Dry Bath)
10.0,3860793.0,-15.74944,65.6735
21.544346900318832,5077975.0,-10.43395,65.6829
46.41588833612777,3915989.0,-66.29928,65.703
100.0,10005510.0,136.6612,65.6864
215.44346900318823,35838.77,139.0246,65.682
464.15888336127773,980191.8,-100.4125,65.6974
1000.0,623550.1,-30.98986,65.6825
2154.4346900318824,293954.9,-78.37308,65.6937
4641.588833612777,144467.1,-81.46357,65.6957
10000.0,69246.3,-85.57486,65.6434
