Frequency,Impedance,Phase Angle,Temperature (Dry Bath)
10.0,26170510.0,-11.14225,67.8003
21.5,18624550.0,-34.9041,67.8
46.4,20088090.0,-59.11073,67.8117
100.0,6025371.0,-15.22505,67.8337
215.4,6185322.0,-100.6769,67.8219
464.2,2048181.0,-79.62561,67.8164
1000.0,1032940.0,-89.7208,67.8233
2154.4,543045.8,-81.94797,67.8114
4641.6,298951.3,-79.81297,67.8261
10000.0,156227.8,-92.4107,67.8209
