Frequency,Impedance,Phase Angle,Temperature (Dry Bath)
10.0,5048503.0,13.10754,71.5274
21.544346900318832,4945126.0,-13.44622,71.5285
46.41588833612777,6930487.0,-22.55631,71.5226
100.0,2396715.0,-132.943,71.5297
215.44346900318823,1597365.0,-175.7086,71.5192
464.15888336127773,4057878.0,-67.23626,71.5273
1000.0,423114.1,-90.54823,71.5289
2154.4346900318824,430635.3,-97.93615,71.5236
4641.588833612777,132520.3,-83.2562,71.5244
10000.0,88626.88,-85.66634,71.5244
