Frequency,Impedance,Phase Angle,Temperature (Dry Bath)
10.0,548905.8,-11.23378,68.0215
21.5,504304.0,-10.95499,68.0034
46.4,462572.4,-11.12381,68.0237
100.0,427389.8,-13.64107,68.0021
215.4,382140.9,-17.95318,68.0169
464.2,342762.0,-20.85236,68.013
1000.0,278697.2,-26.39387,68.0124
2154.4,219393.4,-36.85697,68.0093
4641.6,162009.6,-48.89421,67.9988
10000.0,104600.6,-62.66191,68.0055
