Frequency,Impedance,Phase Angle,Temperature (Dry Bath)
10.0,22964.38,-21.25892,66.3971
21.544346900318832,19365.88,-18.33357,66.4197
46.41588833612777,16824.94,-15.39481,66.408
100.0,15101.9,-12.72137,66.4157
215.44346900318823,13314.93,-10.11214,66.4113
464.15888336127773,12932.93,-8.852604,66.4126
1000.0,12153.67,-8.248783,66.4007
2154.4346900318824,11190.51,-8.505081,66.4026
4641.588833612777,10913.35,-10.01605,66.4017
10000.0,10199.25,-13.68377,66.406
