Frequency,Impedance,Phase Angle,Temperature (Dry Bath)
10.0,14433.4,-19.91938,71.191
21.544346900318832,12429.95,-17.14828,71.1743
46.41588833612777,10920.64,-14.88654,71.187
100.0,9769.802,-14.44875,71.1776
215.44346900318823,8985.444,-10.7977,71.1876
464.15888336127773,8181.6,-10.39685,71.1803
1000.0,7369.872,-10.34017,71.1962
2154.4346900318824,6970.213,-9.661509,71.1875
4641.588833612777,6429.83,-10.27215,71.1788
10000.0,6029.197,-12.46445,71.1816
