Frequency,Impedance,Phase Angle,Temperature (Dry Bath)
10.0,7869017.0,-2.286119,65.8365
21.544346900318832,5768447.0,-10.05171,65.8313
46.41588833612777,3923810.0,-30.62823,65.8196
100.0,592497.5,-82.61864,65.8431
215.44346900318823,241411.7,128.5721,65.8343
464.15888336127773,684360.8,-97.35874,65.8249
1000.0,502220.5,-66.63313,65.8394
2154.4346900318824,327354.8,-88.23443,65.8319
4641.588833612777,150171.7,-85.9487,65.8497
10000.0,61917.9,-82.01221,65.8263
