Frequency,Impedance,Phase Angle,Temperature (Dry Bath)
10.0,42716450.0,-32.05771,67.8501
21.5,32159540.0,-32.41487,67.8255
46.4,22030190.0,-69.53222,67.8408
100.0,3654614.0,-28.02329,67.8359
215.4,3337926.0,-50.38044,67.8364
464.2,1521630.0,-70.99122,67.8391
1000.0,961083.0,-74.54414,67.8343
2154.4,534925.8,-79.69989,67.8364
4641.6,279505.3,-86.59581,67.8321
10000.0,144444.2,-94.09417,67.8353
