Frequency,Impedance,Phase Angle,Temperature (Dry Bath)
10.0,4090395.0,0.5669619,71.4242
21.544346900318832,3681606.0,-20.2058,71.4303
46.41588833612777,4147215.0,-22.82673,71.4195
100.0,1765512.0,-105.8752,71.436
215.44346900318823,712363.6,144.5737,71.4231
464.15888336127773,681532.2,-135.4173,71.4231
1000.0,1645448.0,-129.5377,71.4256
2154.4346900318824,239551.8,-104.8918,71.4293
4641.588833612777,114025.0,-84.15781,71.43
10000.0,62346.31,-88.91848,71.4333
