Frequency,Impedance,Phase Angle,Temperature (Dry Bath)
10.0,12146630.0,12.51942,68.1421
21.5,16738810.0,-36.28185,68.1421
46.4,9781742.0,-56.04496,68.1421
100.0,4094324.0,-34.61178,68.1421
215.4,4384523.0,-92.0949,68.1421
464.2,1702331.0,-74.3601,68.1421
1000.0,1030767.0,-73.47191,68.1421
2154.4,541589.7,-79.09209,68.1421
4641.6,290624.9,-80.86619,68.1421
10000.0,141281.9,-90.5295,68.1421
