Frequency,Impedance,Phase Angle,Temperature (Dry Bath)
10.0,1144092.0,-10.64887,67.8978
21.5,1048666.0,-10.29487,67.8968
46.4,992846.1,-11.65774,67.8987
100.0,802067.7,-12.42153,67.8782
215.4,800456.5,-18.25228,67.8979
464.2,732682.9,-24.53104,67.888
1000.0,539631.1,-34.71312,67.9019
2154.4,383979.8,-47.9402,67.8975
4641.6,249227.5,-59.74883,67.9026
10000.0,153790.6,-76.50905,67.8988
