Frequency,Impedance,Phase Angle,Temperature (Dry Bath)
10.0,8749279.0,0.06423228,71.3867
21.544346900318832,6475832.0,32.86329,71.3926
46.41588833612777,5536976.0,-8.664293,71.3963
100.0,832834.2,-33.75239,71.3978
215.44346900318823,956293.6,72.45048,71.3876
464.15888336127773,949747.7,-77.18378,71.3825
1000.0,2169582.0,-67.49134,71.4127
2154.4346900318824,669213.4,-75.50913,71.4048
4641.588833612777,300101.9,-76.71709,71.3961
10000.0,156177.4,-87.35922,71.3834
