Frequency,Impedance,Phase Angle,Temperature (Dry Bath)
10.0,22867700.0,-25.20828,68.1958
21.5,24903500.0,-40.28356,68.1907
46.4,27687660.0,-52.94677,68.1915
100.0,5314543.0,-66.90053,68.1854
215.4,4826845.0,-64.80161,68.2007
464.2,1960544.0,-79.3606,68.1777
1000.0,1059891.0,-82.37591,68.2026
2154.4,495661.3,-81.01743,68.1737
4641.6,268844.2,-80.99337,68.2001
10000.0,136610.1,-90.20257,68.1875
