Frequency,Impedance,Phase Angle,Temperature (Dry Bath)
10.0,21177880.0,-24.67028,67.9457
21.5,22799960.0,-31.40612,67.9457
46.4,24341970.0,-59.52457,67.9457
100.0,3586828.0,-73.66476,67.9457
215.4,3241300.0,-70.15328,67.9457
464.2,1923545.0,-75.3019,67.9457
1000.0,893059.5,-76.69634,67.9457
2154.4,511817.8,-79.94072,67.9457
4641.6,254076.0,-86.53429,67.9457
10000.0,130442.8,-89.52736,67.9457
