Frequency,Impedance,Phase Angle,Temperature (Dry Bath)
10.0,14317.76,-33.19031,70.9464
21.544346900318832,10991.93,-30.32644,70.9273
46.41588833612777,8600.591,-27.47306,70.9495
100.0,6904.722,-23.49211,70.9315
215.44346900318823,5705.003,-20.4798,70.9449
464.15888336127773,4863.762,-17.0891,70.9483
1000.0,4265.447,-14.78295,70.9563
2154.4346900318824,3895.212,-11.37906,70.9459
4641.588833612777,3600.225,-9.687272,70.9698
10000.0,3398.624,-9.572126,70.9509
