Frequency,Impedance,Phase Angle,Temperature (Dry Bath)
10.0,12331.24,-4.234768,67.2247
21.5,12056.33,-3.646933,67.2335
46.4,11848.26,-3.48818,67.2263
100.0,11670.35,-3.254142,67.2434
215.4,11855.27,-2.026512,67.2155
464.2,11258.36,-3.301965,67.2207
1000.0,11002.0,-3.491033,67.2415
2154.4,10812.1,-4.22352,67.2296
4641.6,10603.67,-5.794549,67.2366
10000.0,10317.8,-9.470628,67.2194
