Frequency,Impedance,Phase Angle,Temperature (Dry Bath)
10.0,32851420.0,-12.13813,67.2549
21.5,23810740.0,-15.26068,67.2547
46.4,24696190.0,-53.07944,67.2472
100.0,5689557.0,-2.069298,67.2616
215.4,333344.6,-172.2235,67.2593
464.2,2416802.0,-79.18468,67.224
1000.0,1040486.0,-84.14368,67.2501
2154.4,625639.0,-89.87561,67.2433
4641.6,266050.0,-87.42162,67.2484
10000.0,130510.9,-86.1914,67.2488
