Frequency,Impedance,Phase Angle,Temperature (Dry Bath)
10.0,9425.683,-42.36018,71.4928
21.544346900318832,6658.498,-38.56984,71.5062
46.41588833612777,4866.361,-34.18341,71.5099
100.0,3716.969,-29.53027,71.5076
215.44346900318823,2968.684,-24.34075,71.4942
464.15888336127773,2478.664,-20.14994,71.4883
1000.0,2121.913,-16.80296,71.501
2154.4346900318824,1876.874,-14.48377,71.5152
4641.588833612777,1675.133,-12.19529,71.5013
10000.0,1530.635,-10.5329,71.4984
