Frequency,Impedance,Phase Angle,Temperature (Dry Bath)
10.0,22314.97,-21.65184,65.732
21.544346900318832,18755.61,-18.55131,65.7433
46.41588833612777,16256.79,-15.26957,65.7228
100.0,14338.76,-11.75834,65.7298
215.44346900318823,13334.23,-13.15177,65.7329
464.15888336127773,12567.31,-8.622501,65.7269
1000.0,12023.84,-7.792784,65.7234
2154.4346900318824,11160.99,-7.540531,65.7369
4641.588833612777,10614.9,-9.281471,65.7222
10000.0,10222.05,-14.59032,65.7186
