Frequency,Impedance,Phase Angle,Temperature (Dry Bath)
10.0,5545653.0,-29.61881,70.3599
21.544346900318832,4374611.0,9.773024,70.3552
46.41588833612777,5027580.0,-12.37663,70.3605
100.0,481806.6,7.284517,70.3676
215.44346900318823,939558.0,14.15791,70.3649
464.15888336127773,925481.9,89.24333,70.3523
1000.0,1647303.0,-67.89891,70.371
2154.4346900318824,279542.2,-66.26921,70.3724
4641.588833612777,575439.0,-86.7202,70.3614
10000.0,145481.8,-72.71604,70.3548
