Frequency,Impedance,Phase Angle,Temperature (Dry Bath)
10.0,4190802.0,3.567533,71.355
21.544346900318832,5267983.0,1.197727,71.3682
46.41588833612777,4615733.0,-40.15561,71.3519
100.0,855474.9,68.02473,71.3517
215.44346900318823,1657353.0,-125.1328,71.3358
464.15888336127773,900049.2,-130.0143,71.3613
1000.0,434170.0,-76.80163,71.3538
2154.4346900318824,256222.8,-84.01272,71.3536
4641.588833612777,119777.9,-75.50878,71.347
10000.0,62212.75,-85.2364,71.3471
