Frequency,Impedance,Phase Angle,Temperature (Dry Bath)
10.0,7066515.0,-14.46863,71.4525
21.544346900318832,6273965.0,-1.6106,71.4425
46.41588833612777,5179593.0,-31.10163,71.4471
100.0,904383.8,-117.1306,71.4436
215.44346900318823,505288.2,-5.186564,71.4427
464.15888336127773,1078682.0,-119.113,71.4597
1000.0,1623527.0,-24.71193,71.4415
2154.4346900318824,262539.4,-105.3846,71.44
4641.588833612777,115875.4,-90.6276,71.4476
10000.0,66954.47,-85.83641,71.4409
