Frequency,Impedance,Phase Angle,Temperature (Dry Bath)
10.0,158044.6,-10.20392,71.1917
21.544346900318832,146952.3,-8.933566,71.2133
46.41588833612777,137718.2,-9.228741,71.2057
100.0,131445.6,8.48641,71.2028
215.44346900318823,131105.4,-5.982664,71.2092
464.15888336127773,77854.31,-25.57327,71.2099
1000.0,112849.3,-31.8649,71.192
2154.4346900318824,80000.25,-38.00086,71.1773
4641.588833612777,51748.38,-51.01543,71.2013
10000.0,29735.79,-72.51798,71.2051
