Frequency,Impedance,Phase Angle,Temperature (Dry Bath)
10.0,22498590.0,-6.139723,68.1089
21.5,14382480.0,-40.47516,68.1399
46.4,12489300.0,-63.9333,68.13
100.0,6221055.0,-58.51012,68.1248
215.4,3674506.0,-63.34996,68.1449
464.2,1693488.0,-67.90468,68.1376
1000.0,910254.7,-74.35927,68.1295
2154.4,510283.7,-79.86468,68.13
4641.6,275718.3,-78.82979,68.138
10000.0,132608.9,-88.46597,68.1406
