Frequency,Impedance,Phase Angle,Temperature (Dry Bath)
10.0,16142550.0,-23.062,68.2825
21.5,17182320.0,-33.97041,68.2887
46.4,17496860.0,-63.06552,68.2789
100.0,3596227.0,-45.39417,68.2788
215.4,7790553.0,-45.55869,68.297
464.2,1983595.0,-71.36741,68.2855
1000.0,891527.9,-69.37471,68.2759
2154.4,521442.8,-81.28911,68.285
4641.6,259248.3,-80.46451,68.2821
10000.0,147642.7,-90.70353,68.2684
