Frequency,Impedance,Phase Angle,Temperature (Dry Bath)
10.0,6910981.0,9.573959,70.9873
21.544346900318832,4553286.0,-0.2835747,70.9872
46.41588833612777,3571075.0,2.400857,70.9782
100.0,663362.9,-62.70495,70.9873
215.44346900318823,1122814.0,115.0872,70.9868
464.15888336127773,1087011.0,27.29586,70.9718
1000.0,1452860.0,142.8722,70.9767
2154.4346900318824,1177826.0,-107.5955,70.9788
4641.588833612777,241858.8,-93.31416,70.9765
10000.0,210320.9,-93.26396,70.9887
