Frequency,Impedance,Phase Angle,Temperature (Dry Bath)
10.0,4996588.0,17.71484,71.2674
21.544346900318832,3859988.0,-4.465745,71.2853
46.41588833612777,3767689.0,-54.71106,71.2642
100.0,605333.9,-128.4723,71.2728
215.44346900318823,834319.9,-95.90794,71.2456
464.15888336127773,453014.1,165.7883,71.2598
1000.0,327604.1,-49.57439,71.263
2154.4346900318824,251988.6,-98.11195,71.2523
4641.588833612777,82872.37,-75.31795,71.2544
10000.0,36375.59,-86.28285,71.2358
