Frequency,Impedance,Phase Angle,Temperature (Dry Bath)
10.0,4960569.0,-21.03295,71.2452
21.544346900318832,9179087.0,23.61459,71.2604
46.41588833612777,5957774.0,-38.16709,71.2495
100.0,498586.4,-17.2554,71.2576
215.44346900318823,543500.1,-96.53576,71.2629
464.15888336127773,784088.8,-85.23237,71.2539
1000.0,730621.5,-105.387,71.2502
2154.4346900318824,293126.9,-77.50874,71.249
4641.588833612777,116167.7,-81.73481,71.2579
10000.0,64832.72,-84.0512,71.2609
