Frequency,Impedance,Phase Angle,Temperature (Dry Bath)
10.0,162863.7,-6.237944,67.7903
21.5,157072.9,-5.178716,67.7975
46.4,151907.1,-4.832336,67.7949
100.0,145333.3,-4.163528,67.7855
215.4,142466.2,-6.740146,67.7887
464.2,136465.2,-7.640601,67.7911
1000.0,129910.1,-11.66712,67.7849
2154.4,119314.7,-20.83272,67.7795
4641.6,101004.7,-36.34479,67.7974
10000.0,75082.24,-54.21944,67.7773
