Frequency,Impedance,Phase Angle,Temperature (Dry Bath)
10.0,1575675.0,-7.387705,67.5434
21.5,1489493.0,-9.686017,67.5461
46.4,1386322.0,-11.03783,67.5591
100.0,1029849.0,-8.773969,67.547
215.4,387466.6,-23.84099,67.5548
464.2,866057.9,-42.5241,67.5525
1000.0,585825.5,-43.04941,67.5689
2154.4,344485.6,-63.28828,67.5662
4641.6,196467.7,-71.34064,67.5823
10000.0,106169.5,-74.1646,67.5617
