Frequency,Impedance,Phase Angle,Temperature (Dry Bath)
10.0,12193.31,-8.08076,67.3664
21.5,11644.19,-4.681417,67.3718
46.4,11464.87,-4.356499,67.3702
100.0,11405.42,-4.782659,67.3551
215.4,11297.05,-5.663248,67.3702
464.2,11152.67,-5.761404,67.3766
1000.0,10808.31,-5.658703,67.3722
2154.4,10497.5,-5.885349,67.3777
4641.6,10163.06,-7.039938,67.3767
10000.0,9810.593,-9.934853,67.3768
