Frequency,Impedance,Phase Angle,Temperature (Dry Bath)
10.0,31171640.0,-6.648734,67.7116
21.5,31590390.0,-40.07817,67.6957
46.4,30638400.0,-62.7072,67.6989
100.0,5454604.0,-61.6732,67.6994
215.4,5478720.0,-81.08962,67.7044
464.2,1901035.0,-74.15858,67.7181
1000.0,1079302.0,-77.04322,67.701
2154.4,550511.1,-82.63186,67.7123
4641.6,259314.7,-84.03557,67.6942
10000.0,130960.5,-84.98696,67.6938
