Frequency,Impedance,Phase Angle,Temperature (Dry Bath)
10.0,7276541.0,4.142811,70.5825
21.544346900318832,7954372.0,-36.2241,70.5624
46.41588833612777,5864825.0,-17.97145,70.5505
100.0,2124725.0,159.6788,70.5595
215.44346900318823,1123656.0,159.0982,70.5734
464.15888336127773,900441.1,-6.106802,70.5669
1000.0,342938.6,160.249,70.5732
2154.4346900318824,223108.1,-94.74795,70.5528
4641.588833612777,132002.7,-94.75993,70.5753
10000.0,63158.26,-82.11526,70.5679
