Frequency,Impedance,Phase Angle,Temperature (Dry Bath)
10.0,185726.4,-26.50698,65.7687
21.544346900318832,149961.3,-24.36217,65.7667
46.41588833612777,121899.4,-22.19652,65.7688
100.0,88506.17,-28.94482,65.7554
215.44346900318823,85957.1,-37.03185,65.757
464.15888336127773,88787.02,-22.95222,65.7459
1000.0,79705.59,-26.58628,65.7615
2154.4346900318824,59958.29,-28.62376,65.7622
4641.588833612777,53917.08,-34.87202,65.7594
10000.0,33331.49,-49.43505,65.7638
