Frequency,Impedance,Phase Angle,Temperature (Dry Bath)
10.0,652684.9,-11.58153,68.2378
21.5,629933.0,-10.56188,68.229
46.4,570958.3,-10.98516,68.2125
100.0,497039.3,-11.2066,68.2444
215.4,468682.2,-17.21225,68.2227
464.2,412433.3,-21.35946,68.2274
1000.0,345352.3,-31.24218,68.2451
2154.4,253044.8,-39.15581,68.2305
4641.6,171579.4,-52.8097,68.2402
10000.0,117384.3,-64.2131,68.2319
