Frequency,Impedance,Phase Angle,Temperature (Dry Bath)
10.0,29745040.0,-5.779527,67.3528
21.5,27947130.0,-30.71375,67.3477
46.4,19366000.0,-50.41938,67.3614
100.0,4113738.0,102.911,67.35
215.4,5273935.0,87.79891,67.3603
464.2,3842560.0,-86.22952,67.3667
1000.0,1137596.0,-81.53296,67.3425
2154.4,599227.9,-83.77741,67.3532
4641.6,290532.1,-84.9704,67.3603
10000.0,135766.2,-88.44218,67.3623
