Frequency,Impedance,Phase Angle,Temperature (Dry Bath)
10.0,31617090.0,-13.78438,67.2944
21.5,32112750.0,-45.1925,67.2932
46.4,45867690.0,-48.9057,67.2934
100.0,4720896.0,-81.23279,67.3045
215.4,173555.0,-109.2989,67.308
464.2,2893524.0,-62.10689,67.3249
1000.0,1101683.0,-77.31186,67.325
2154.4,627918.1,-85.87898,67.3205
4641.6,264084.8,-89.94399,67.3097
10000.0,129267.3,-86.43261,67.3094
