Frequency,Impedance,Phase Angle,Temperature (Dry Bath)
10.0,522391.8,-8.153086,66.9171
21.5,491463.4,-8.630388,66.9095
46.4,460544.0,-9.771711,66.9327
100.0,397796.7,-8.853675,66.9048
215.4,87411.25,122.5196,66.9203
464.2,380545.6,-21.211,66.9136
1000.0,311522.8,-26.30661,66.9255
2154.4,235442.4,-39.88856,66.9082
4641.6,156957.5,-54.26408,66.9167
10000.0,88247.34,-64.97579,66.9085
