Frequency,Impedance,Phase Angle,Temperature (Dry Bath)
10.0,12217.18,-8.212367,67.2597
21.5,11661.34,-4.793743,67.26
46.4,11469.19,-4.628844,67.259
100.0,11359.15,-5.000456,67.2558
215.4,11261.15,-5.585631,67.2299
464.2,11157.07,-5.776509,67.2558
1000.0,10855.16,-5.822789,67.2421
2154.4,10492.83,-5.866827,67.2514
4641.6,10162.56,-7.022489,67.2407
10000.0,9867.225,-9.715304,67.2457
