Frequency,Impedance,Phase Angle,Temperature (Dry Bath)
10.0,22727990.0,-25.86675,68.1727
21.5,20136720.0,-35.91617,68.1564
46.4,18902210.0,-61.83093,68.1743
100.0,4685330.0,-15.08787,68.164
215.4,3378213.0,-77.02783,68.1733
464.2,1808219.0,-79.02637,68.1901
1000.0,1074081.0,-78.73787,68.1682
2154.4,519891.4,-85.28433,68.1744
4641.6,248992.6,-81.78686,68.1866
10000.0,119972.1,-91.55943,68.1791
