Frequency,Impedance,Phase Angle,Temperature (Dry Bath)
10.0,4296288.0,-0.390802,65.6529
21.544346900318832,8455132.0,-13.38506,65.6521
46.41588833612777,3702053.0,-31.2,65.6457
100.0,758230.4,-58.50291,65.6363
215.44346900318823,20409.65,48.60723,65.6355
464.15888336127773,968698.0,-150.3246,65.6107
1000.0,502777.3,-117.9819,65.624
2154.4346900318824,378936.6,-95.19844,65.6079
4641.588833612777,167934.1,-80.09111,65.6202
10000.0,72807.74,-82.33845,65.632
