Frequency,Impedance,Phase Angle,Temperature (Dry Bath)
10.0,16796370.0,-7.356957,68.2497
21.5,15579070.0,-43.19057,68.2535
46.4,17639350.0,-47.20364,68.2421
100.0,5973378.0,-47.00997,68.2435
215.4,5817340.0,-106.1659,68.2484
464.2,2472411.0,-87.04794,68.2415
1000.0,1246109.0,-85.44077,68.2496
2154.4,556484.9,-77.24835,68.2521
4641.6,287732.3,-86.15567,68.2514
10000.0,158473.5,-92.18768,68.2378
