Frequency,Impedance,Phase Angle,Temperature (Dry Bath)
10.0,13366640.0,-60.02423,71.2085
21.544346900318832,5024607.0,-5.78002,71.2141
46.41588833612777,4566522.0,-28.05376,71.2127
100.0,406025.8,89.52901,71.223
215.44346900318823,589162.4,-84.68751,71.219
464.15888336127773,2336772.0,-90.9636,71.2319
1000.0,497488.6,-34.59489,71.2246
2154.4346900318824,182263.9,-66.75762,71.2084
4641.588833612777,106476.4,-75.31469,71.1982
10000.0,46493.1,-88.07023,71.2162
