Frequency,Impedance,Phase Angle,Temperature (Dry Bath)
10.0,737008.6,-11.16742,67.9596
21.5,701934.4,-9.672276,67.9691
46.4,665399.9,-11.51091,67.963
100.0,559841.6,-12.34681,67.9608
215.4,555416.5,-14.35616,67.9524
464.2,449363.8,-20.47922,67.9587
1000.0,363563.4,-34.40324,67.9553
2154.4,278180.0,-43.15834,67.9549
4641.6,178813.7,-57.78211,67.9711
10000.0,110688.7,-65.45321,67.9591
