Frequency,Impedance,Phase Angle,Temperature (Dry Bath)
10.0,23833620.0,-29.10112,67.1569
21.5,21045830.0,-44.28522,67.1606
46.4,16647940.0,-36.77386,67.1435
100.0,3368500.0,-78.42735,67.1559
215.4,815434.0,-119.0696,67.1639
464.2,1592581.0,-62.20115,67.1686
1000.0,719909.3,-78.77962,67.1597
2154.4,414406.7,-79.57938,67.1549
4641.6,216524.6,-76.4309,67.1575
10000.0,115470.0,-79.62132,67.1798
