Frequency,Impedance,Phase Angle,Temperature (Dry Bath)
10.0,26816380.0,-36.09706,67.4121
21.5,33892620.0,-36.93915,67.4078
46.4,20790490.0,-44.39498,67.4102
100.0,7242913.0,109.8532,67.4078
215.4,2147160.0,-128.7803,67.3966
464.2,2805764.0,-107.3195,67.3905
1000.0,1170172.0,-87.15967,67.3901
2154.4,651945.9,-91.29042,67.4047
4641.6,278204.9,-89.34925,67.385
10000.0,133243.8,-86.90766,67.4091
