Frequency,Impedance,Phase Angle,Temperature (Dry Bath)
10.0,1505876.0,-7.929974,67.2388
21.5,1396934.0,-9.274583,67.2479
46.4,1325005.0,-11.95912,67.2274
100.0,1185701.0,-2.349133,67.2287
215.4,1023613.0,11.64181,67.2334
464.2,901936.8,-31.06053,67.2273
1000.0,616293.4,-43.46189,67.2231
2154.4,358472.8,-61.22426,67.2313
4641.6,199431.6,-72.07513,67.2235
10000.0,102110.4,-74.80396,67.2485
