Frequency,Impedance,Phase Angle,Temperature (Dry Bath)
10.0,871966.1,-10.74935,66.9807
21.5,807195.0,-11.22856,66.984
46.4,754942.0,-11.996,66.9967
100.0,728835.2,-21.86292,66.9855
215.4,131615.6,48.5872,66.991
464.2,580371.1,-21.10842,67.0154
1000.0,416079.7,-39.47592,66.9899
2154.4,303021.9,-51.77801,66.9969
4641.6,168865.9,-61.04468,67.0025
10000.0,98376.96,-68.60347,67.0108
