Frequency,Impedance,Phase Angle,Temperature (Dry Bath)
10.0,154260.4,-6.385794,68.2157
21.5,148940.8,-5.090042,68.2127
46.4,144294.1,-4.815623,68.2201
100.0,140760.6,-5.098412,68.2268
215.4,137833.8,-4.892161,68.2276
464.2,130908.8,-8.223796,68.2299
1000.0,126420.1,-12.34603,68.2275
2154.4,114389.6,-20.37603,68.2048
4641.6,98553.71,-32.25611,68.2113
10000.0,74093.48,-54.92037,68.2228
