Frequency,Impedance,Phase Angle,Temperature (Dry Bath)
10.0,5769088.0,-28.3464,71.196
21.544346900318832,4858738.0,-23.35383,71.1939
46.41588833612777,6236582.0,-42.60847,71.1877
100.0,654041.4,-76.8311,71.1819
215.44346900318823,480673.9,-27.50047,71.1953
464.15888336127773,803964.9,-25.26243,71.1909
1000.0,1082852.0,-95.10559,71.1831
2154.4346900318824,260245.0,-61.00586,71.1616
4641.588833612777,113138.5,-86.34379,71.1941
10000.0,73288.98,-87.13514,71.1819
