Frequency,Impedance,Phase Angle,Temperature (Dry Bath)
10.0,21427950.0,0.2885074,68.0917
21.5,29920300.0,-15.68275,68.0815
46.4,39664930.0,-39.02809,68.0644
100.0,5442824.0,-4.881154,68.0841
215.4,4083971.0,-67.8852,68.0549
464.2,3522626.0,-91.62134,68.0615
1000.0,1463002.0,-87.60029,68.0527
2154.4,693681.0,-87.48836,68.0604
4641.6,311804.1,-96.00401,68.0662
10000.0,139769.2,-99.29743,68.0381
