Frequency,Impedance,Phase Angle,Temperature (Dry Bath)
10.0,57356710.0,1.121907,67.9939
21.5,49185880.0,-17.52096,67.9782
46.4,34600320.0,-44.44227,67.9956
100.0,6899662.0,-46.29659,67.9719
215.4,10068950.0,-54.25399,67.9989
464.2,3089847.0,-77.31475,67.9718
1000.0,1514757.0,-90.03776,67.9888
2154.4,671802.8,-86.02338,67.9808
4641.6,306620.6,-93.00672,67.9819
10000.0,145089.4,-96.08009,67.9778
