Frequency,Impedance,Phase Angle,Temperature (Dry Bath)
10.0,37074020.0,-16.99361,67.9671
21.5,35218870.0,-48.00815,67.9905
46.4,24234390.0,-57.20134,67.9749
100.0,4027819.0,-45.4873,67.9862
215.4,4221971.0,-96.43223,67.958
464.2,2390333.0,-64.59237,67.9754
1000.0,1052887.0,-84.48063,67.9867
2154.4,486455.9,-82.53143,67.9728
4641.6,238403.6,-88.90086,67.9911
10000.0,116325.9,-91.35858,67.9638
