Frequency,Impedance,Phase Angle,Temperature (Dry Bath)
10.0,132697.4,-16.27025,70.9115
21.544346900318832,118327.8,-15.88392,70.9299
46.41588833612777,104093.5,-16.41265,70.9111
100.0,84161.75,-13.75806,70.9158
215.44346900318823,84772.72,-21.62013,70.9089
464.15888336127773,71873.11,-23.16832,70.9165
1000.0,61189.69,-20.27431,70.9264
2154.4346900318824,52633.8,-25.0177,70.9098
4641.588833612777,43354.16,-38.01015,70.9145
10000.0,29146.73,-45.77197,70.9116
