Frequency,Impedance,Phase Angle,Temperature (Dry Bath)
10.0,19390.68,-19.59249,67.8653
21.5,16666.54,-16.2481,67.8658
46.4,14830.81,-12.75866,67.8495
100.0,13413.45,-9.41999,67.8673
215.4,12889.44,-7.604282,67.8703
464.2,12026.43,-5.395851,67.8499
1000.0,11501.92,-5.687816,67.8592
2154.4,11196.05,-4.397777,67.8643
4641.6,10802.21,-7.128301,67.8495
10000.0,10530.86,-10.77255,67.8526
