Frequency,Impedance,Phase Angle,Temperature (Dry Bath)
10.0,12330.77,-4.249799,67.281
21.5,12050.05,-3.696149,67.2754
46.4,11726.72,-2.934844,67.2616
100.0,11590.71,-3.067818,67.262
215.4,11487.91,-3.095716,67.2759
464.2,11289.72,-3.261208,67.2589
1000.0,11009.88,-3.574121,67.27
2154.4,10800.24,-4.154417,67.2651
4641.6,10575.74,-5.753712,67.2718
10000.0,10341.79,-9.565666,67.273
