Frequency,Impedance,Phase Angle,Temperature (Dry Bath)
10.0,28987250.0,-13.95898,67.8907
21.5,40716160.0,-46.68471,67.9075
46.4,19976430.0,-67.34608,67.914
100.0,4969802.0,-40.57183,67.9003
215.4,4403589.0,-80.72162,67.8924
464.2,1882564.0,-68.07864,67.888
1000.0,1069493.0,-73.44423,67.911
2154.4,517559.1,-74.69643,67.9033
4641.6,274969.5,-80.9045,67.8869
10000.0,143040.2,-86.09728,67.8837
