Frequency,Impedance,Phase Angle,Temperature (Dry Bath)
10.0,23193110.0,6.597784,68.2287
21.5,29829840.0,-34.1192,68.2331
46.4,26598280.0,-57.55856,68.2308
100.0,4509001.0,-33.72532,68.2266
215.4,5927233.0,-71.13908,68.2378
464.2,2657424.0,-88.97749,68.2273
1000.0,1073335.0,-88.14664,68.229
2154.4,540311.5,-83.94752,68.2348
4641.6,273486.7,-85.03522,68.2295
10000.0,143589.7,-88.2643,68.2263
