Frequency,Impedance,Phase Angle,Temperature (Dry Bath)
10.0,130202.2,-6.628449,67.5239
21.5,124532.4,-5.624354,67.5374
46.4,120329.9,-5.328347,67.5328
100.0,115886.4,-6.424928,67.5194
215.4,163412.4,-79.91687,67.5519
464.2,110145.0,-7.197971,67.5276
1000.0,102091.5,-10.33029,67.5228
2154.4,96954.04,-20.04973,67.5308
4641.6,82924.49,-31.59971,67.5311
10000.0,61779.92,-47.20215,67.5235
