Frequency,Impedance,Phase Angle,Temperature (Dry Bath)
10.0,33163080.0,-24.63402,67.3607
21.5,23583680.0,-40.92579,67.3436
46.4,14520740.0,-54.86126,67.3571
100.0,6356007.0,-37.22899,67.3759
215.4,3955228.0,-80.81402,67.3627
464.2,1845516.0,-86.2822,67.3652
1000.0,862867.3,-81.24762,67.3685
2154.4,481170.8,-87.41772,67.3641
4641.6,234491.0,-84.58029,67.36
10000.0,112709.5,-85.13237,67.3615
