Frequency,Impedance,Phase Angle,Temperature (Dry Bath)
10.0,1967576.0,-8.847964,67.2928
21.5,1869966.0,-10.66487,67.2898
46.4,1664622.0,-16.50081,67.3001
100.0,999681.8,-32.14808,67.2985
215.4,219042.8,-173.637,67.3077
464.2,941868.8,-44.02929,67.2984
1000.0,585129.0,-53.2413,67.2973
2154.4,381752.8,-69.33705,67.2981
4641.6,191005.9,-72.16669,67.2985
10000.0,105455.6,-72.37523,67.3078
