Frequency,Impedance,Phase Angle,Temperature (Dry Bath)
10.0,25298150.0,-19.922,68.1561
21.5,20905990.0,-40.36682,68.161
46.4,19882230.0,-58.20315,68.1627
100.0,6101299.0,-17.40097,68.1565
215.4,3170307.0,-73.82991,68.1686
464.2,1539913.0,-77.87767,68.1542
1000.0,936075.1,-75.96296,68.1659
2154.4,516469.5,-78.45252,68.1542
4641.6,272534.0,-81.90205,68.1591
10000.0,136745.1,-94.30666,68.1523
