Frequency,Impedance,Phase Angle,Temperature (Dry Bath)
10.0,126750.2,-24.82079,67.4246
21.5,104644.5,-21.62309,67.428
46.4,90338.4,-18.58692,67.4147
100.0,79541.39,-16.98106,67.4311
215.4,76603.83,-31.20615,67.4108
464.2,66214.42,-13.53377,67.4248
1000.0,60314.15,-14.11068,67.433
2154.4,54951.54,-16.9539,67.427
4641.6,48480.54,-24.79285,67.4273
10000.0,39963.8,-36.05057,67.4226
