Frequency,Impedance,Phase Angle,Temperature (Dry Bath)
10.0,5417348.0,10.46833,71.2409
21.544346900318832,6673719.0,7.678376,71.242
46.41588833612777,3788088.0,-28.868,71.2486
100.0,607396.7,-94.4696,71.2437
215.44346900318823,320451.4,-151.9572,71.253
464.15888336127773,1078256.0,-91.86722,71.2551
1000.0,996521.7,-19.78303,71.2557
2154.4346900318824,225232.2,-83.24115,71.2479
4641.588833612777,108890.1,-85.01183,71.2473
10000.0,66832.97,-77.12938,71.2486
