Frequency,Impedance,Phase Angle,Temperature (Dry Bath)
10.0,45940180.0,10.86185,68.1535
21.5,24348980.0,-37.4864,68.1535
46.4,15009110.0,-47.94485,68.1535
100.0,8956066.0,-67.97897,68.1535
215.4,9064702.0,-66.60725,68.1535
464.2,3601371.0,-82.72611,68.1535
1000.0,1697890.0,-88.35017,68.1535
2154.4,632405.0,-85.48479,68.1535
4641.6,309478.2,-90.1325,68.1535
10000.0,155308.5,-97.32499,68.1535
