Frequency,Impedance,Phase Angle,Temperature (Dry Bath)
10.0,79800.78,-12.14566,71.114
21.544346900318832,72598.31,-9.675553,71.1182
46.41588833612777,67643.16,-8.392676,71.1128
100.0,61498.16,-9.046693,71.1165
215.44346900318823,62178.46,-2.536209,71.1284
464.15888336127773,61993.5,-5.845307,71.1233
1000.0,54063.5,-3.665636,71.1136
2154.4346900318824,53749.2,-9.398741,71.1091
4641.588833612777,45521.81,-12.06414,71.1177
10000.0,47110.76,-32.49834,71.1288
