Frequency,Impedance,Phase Angle,Temperature (Dry Bath)
10.0,1016752.0,-12.34639,68.0601
21.5,934024.5,-11.7118,68.0498
46.4,875894.8,-12.0344,68.0547
100.0,812302.0,-16.84312,68.0447
215.4,704584.4,-21.32092,68.0472
464.2,645772.8,-28.49067,68.0583
1000.0,454830.3,-38.15447,68.0376
2154.4,325730.4,-45.74536,68.0544
4641.6,214482.4,-58.32853,68.0404
10000.0,128716.8,-71.88084,68.0629
