Frequency,Impedance,Phase Angle,Temperature (Dry Bath)
10.0,5375021.0,-12.36361,72.2141
21.544346900318832,5257966.0,-44.0549,72.1988
46.41588833612777,5239640.0,6.78291,72.2221
100.0,367160.3,97.75132,72.2319
215.44346900318823,653881.8,25.15978,72.2219
464.15888336127773,570998.7,-74.26858,72.2363
1000.0,842222.9,-109.4458,72.2057
2154.4346900318824,224633.0,-69.62204,72.2134
4641.588833612777,512543.9,-76.24208,72.2022
10000.0,213360.6,-27.51875,72.2268
