Frequency,Impedance,Phase Angle,Temperature (Dry Bath)
10.0,126425.1,-25.2553,67.5139
21.5,105264.5,-22.1174,67.509
46.4,90483.33,-19.17726,67.4965
100.0,79032.03,-15.93791,67.4918
215.4,67566.75,-68.31619,67.5006
464.2,66089.07,-13.45323,67.4984
1000.0,60273.5,-14.66221,67.5042
2154.4,54165.59,-17.79757,67.4951
4641.6,48553.92,-23.74344,67.4953
10000.0,39802.16,-35.00111,67.4997
