Frequency,Impedance,Phase Angle,Temperature (Dry Bath)
10.0,136369.7,-24.63401,67.4584
21.5,113722.2,-22.17635,67.4385
46.4,98128.28,-19.55283,67.4385
100.0,86256.17,-15.43042,67.4329
215.4,76231.8,-18.30648,67.4357
464.2,71285.15,-14.63141,67.4259
1000.0,63875.71,-15.02923,67.4225
2154.4,58275.54,-18.41703,67.4516
4641.6,51739.45,-24.97878,67.4195
10000.0,41912.94,-36.42599,67.4202
