Frequency,Impedance,Phase Angle,Temperature (Dry Bath)
10.0,56617100.0,-3.735726,68.2167
21.5,32988130.0,-39.00394,68.2357
46.4,27435020.0,-55.83926,68.231
100.0,5078895.0,-59.09277,68.2273
215.4,3109165.0,-88.65248,68.2427
464.2,1985052.0,-81.16613,68.2203
1000.0,980646.4,-80.90365,68.2023
2154.4,515167.0,-81.49325,68.2167
4641.6,240926.5,-84.99762,68.2372
10000.0,123009.4,-90.97727,68.2222
