Frequency,Impedance,Phase Angle,Temperature (Dry Bath)
10.0,3856918.0,-25.44665,65.7156
21.544346900318832,5457886.0,-11.16648,65.7158
46.41588833612777,5055215.0,-30.2361,65.6917
100.0,1648602.0,-132.6706,65.7121
215.44346900318823,20542.29,19.86254,65.7083
464.15888336127773,2265801.0,-3.84142,65.7226
1000.0,388870.2,-102.3267,65.7213
2154.4346900318824,210665.9,-99.37462,65.7042
4641.588833612777,125092.4,-85.50845,65.7167
10000.0,68087.05,-86.13656,65.7135
