Frequency,Impedance,Phase Angle,Temperature (Dry Bath)
10.0,18249470.0,-3.970429,67.7162
21.5,48710810.0,-17.00427,67.737
46.4,29610280.0,-46.59825,67.7302
100.0,4466325.0,-37.59548,67.7395
215.4,6502942.0,-100.1206,67.7468
464.2,4939880.0,-58.78153,67.7496
1000.0,1441911.0,-84.64975,67.7247
2154.4,663083.9,-89.6652,67.7562
4641.6,296931.9,-91.08428,67.7344
10000.0,150377.6,-96.56051,67.7373
