Frequency,Impedance,Phase Angle,Temperature (Dry Bath)
10.0,166211.0,-6.322098,68.1832
21.5,160409.2,-5.190309,68.1851
46.4,154801.9,-4.900762,68.1852
100.0,147054.4,-5.748316,68.1822
215.4,139121.9,-7.289792,68.1831
464.2,140333.2,-5.027353,68.1981
1000.0,133143.5,-14.22312,68.1933
2154.4,122479.8,-21.82032,68.1964
4641.6,102936.3,-34.18303,68.2077
10000.0,71649.24,-57.61171,68.2126
