Frequency,Impedance,Phase Angle,Temperature (Dry Bath)
10.0,34211220.0,-3.484736,66.9972
21.5,30314010.0,-42.12612,67.0131
46.4,14853320.0,-53.58239,67.0138
100.0,13064310.0,-69.04917,66.9956
215.4,5661781.0,-130.2347,67.0116
464.2,2368335.0,-77.47074,67.0231
1000.0,991022.1,-81.79404,67.0161
2154.4,433157.9,-88.23788,67.0023
4641.6,230432.7,-80.48677,67.0257
10000.0,116219.7,-79.32809,67.0287
