Frequency,Impedance,Phase Angle,Temperature (Dry Bath)
10.0,134910.1,-6.248269,67.0342
21.5,129281.1,-5.378711,67.0349
46.4,124657.1,-5.026548,67.0291
100.0,119832.2,-5.429841,67.0103
215.4,116011.7,-4.631014,67.0226
464.2,112933.9,-7.984246,67.0443
1000.0,107543.3,-12.33783,67.0434
2154.4,98257.11,-18.7663,67.036
4641.6,85475.89,-33.4449,67.0206
10000.0,59765.78,-49.99874,67.0092
