Frequency,Impedance,Phase Angle,Temperature (Dry Bath)
10.0,11597.01,-4.892775,67.3408
21.5,11374.38,-3.872012,67.3408
46.4,11023.39,-3.964828,67.3288
100.0,10955.98,-3.988863,67.335
215.4,10860.87,-4.111408,67.3286
464.2,10699.65,-3.973796,67.3177
1000.0,10413.77,-3.974071,67.3337
2154.4,10178.05,-4.335885,67.3396
4641.6,9974.595,-5.76567,67.332
10000.0,9715.303,-9.149013,67.3385
