Frequency,Impedance,Phase Angle,Temperature (Dry Bath)
10.0,43622130.0,4.48955,67.7287
21.5,27408230.0,-44.09581,67.7273
46.4,15264600.0,-59.89082,67.7397
100.0,3494048.0,-75.03196,67.7249
215.4,3060864.0,-95.80494,67.7176
464.2,1951658.0,-70.38225,67.7212
1000.0,1119673.0,-80.60773,67.7353
2154.4,498244.2,-86.88616,67.7169
4641.6,263291.4,-90.22331,67.7302
10000.0,129282.7,-87.87081,67.7261
