Frequency,Impedance,Phase Angle,Temperature (Dry Bath)
10.0,22290570.0,-17.19078,67.3948
21.5,19106670.0,-35.77605,67.3842
46.4,16077380.0,-90.92572,67.3851
100.0,28176320.0,-173.1803,67.3966
215.4,193931.2,-148.684,67.4099
464.2,1179930.0,-79.69056,67.3832
1000.0,781426.3,-74.12934,67.4029
2154.4,438041.1,-75.47834,67.405
4641.6,227103.1,-76.27214,67.408
10000.0,117674.3,-80.0371,67.3887
