Frequency,Impedance,Phase Angle,Temperature (Dry Bath)
10.0,126374.1,-24.99365,67.4125
21.5,104352.5,-21.81204,67.4057
46.4,90851.13,-18.37916,67.4084
100.0,79278.15,-15.42077,67.4106
215.4,45869.31,-15.55724,67.4208
464.2,67277.34,-12.83982,67.4162
1000.0,60591.04,-13.9211,67.4079
2154.4,55125.5,-17.27255,67.4045
4641.6,48790.5,-24.11581,67.4124
10000.0,39995.77,-36.82157,67.3989
