Frequency,Impedance,Phase Angle,Temperature (Dry Bath)
10.0,165520.0,-6.185445,67.6573
21.5,159698.2,-5.252634,67.6577
46.4,154692.3,-4.813898,67.6804
100.0,146475.6,-4.692337,67.6664
215.4,141642.4,-4.052055,67.6718
464.2,139229.4,-9.654149,67.6744
1000.0,132412.9,-12.77592,67.6461
2154.4,123378.7,-20.05851,67.6578
4641.6,109511.8,-36.14144,67.6447
10000.0,74031.92,-57.80528,67.6529
