Frequency,Impedance,Phase Angle,Temperature (Dry Bath)
10.0,134112.0,-25.37745,67.0893
21.5,111217.9,-22.13676,67.0796
46.4,95266.52,-19.03052,67.0798
100.0,80589.4,-16.1905,67.0736
215.4,74687.2,-14.60724,67.0691
464.2,68189.18,-12.93651,67.0963
1000.0,62554.43,-15.44012,67.0935
2154.4,56416.31,-18.81567,67.0822
4641.6,49267.9,-26.01894,67.0932
10000.0,39331.97,-37.99955,67.0958
