Frequency,Impedance,Phase Angle,Temperature (Dry Bath)
10.0,5821357.0,-20.17107,65.7898
21.544346900318832,4015015.0,-7.907479,65.7828
46.41588833612777,4244442.0,11.32149,65.7966
100.0,1641821.0,37.78728,65.7785
215.44346900318823,14409.93,158.8714,65.8047
464.15888336127773,900408.2,-154.9157,65.7947
1000.0,540986.8,-83.48065,65.7847
2154.4346900318824,242514.2,-83.65229,65.7879
4641.588833612777,146042.0,-80.37156,65.7801
10000.0,64064.02,-86.11613,65.7892
