Frequency,Impedance,Phase Angle,Temperature (Dry Bath)
10.0,46339470.0,-15.33437,67.9146
21.5,61418950.0,-16.19526,67.9068
46.4,34920310.0,-48.28162,67.9116
100.0,4377510.0,-70.67353,67.9104
215.4,3716756.0,-97.38977,67.9121
464.2,3821505.0,-86.32674,67.9053
1000.0,1470499.0,-85.36047,67.9276
2154.4,651738.1,-81.18385,67.932
4641.6,327008.0,-85.77069,67.9096
10000.0,153778.6,-97.6669,67.9091
