Frequency,Impedance,Phase Angle,Temperature (Dry Bath)
10.0,21345340.0,-3.330543,67.9863
21.5,28633360.0,-36.95858,67.9785
46.4,24966910.0,-47.67418,67.9915
100.0,6154893.0,-14.81674,67.9744
215.4,9382890.0,-57.92864,67.989
464.2,2800323.0,-97.96693,67.9764
1000.0,1242499.0,-86.20347,67.9854
2154.4,670428.1,-95.56627,67.9901
4641.6,296945.9,-92.49224,67.9857
10000.0,150651.6,-96.41968,67.9796
