Frequency,Impedance,Phase Angle,Temperature (Dry Bath)
10.0,157780.4,-6.313467,67.8982
21.5,151761.9,-5.350702,67.8941
46.4,146175.6,-4.786682,67.9077
100.0,137695.5,-5.32725,67.9049
215.4,137987.7,-6.524242,67.8929
464.2,132671.9,-8.156901,67.9015
1000.0,127962.7,-11.25921,67.9101
2154.4,117073.3,-18.5778,67.9095
4641.6,96918.06,-34.36659,67.8999
10000.0,73347.45,-48.23071,67.9154
