Frequency,Impedance,Phase Angle,Temperature (Dry Bath)
10.0,34193040.0,-13.07972,67.3761
21.5,24456220.0,-25.45054,67.3863
46.4,15532580.0,-25.88078,67.4011
100.0,3105166.0,-31.09245,67.3816
215.4,3605717.0,112.492,67.3829
464.2,2079835.0,-80.5142,67.395
1000.0,1161671.0,-86.05251,67.3851
2154.4,544371.1,-88.96408,67.3685
4641.6,279781.4,-85.21542,67.3755
10000.0,129605.0,-86.02152,67.3939
