Frequency,Impedance,Phase Angle,Temperature (Dry Bath)
10.0,6132204.0,2.906899,71.5091
21.544346900318832,3633929.0,1.015132,71.5357
46.41588833612777,6083394.0,-5.428124,71.5363
100.0,1088056.0,6.833462,71.5107
215.44346900318823,885273.4,-93.07342,71.5053
464.15888336127773,1758652.0,-144.7845,71.505
1000.0,752442.3,-119.9885,71.5211
2154.4346900318824,329135.6,-62.57612,71.4951
4641.588833612777,274011.5,-79.64369,71.5084
10000.0,109217.6,-86.73941,71.5029
