Frequency,Impedance,Phase Angle,Temperature (Dry Bath)
10.0,4558006.0,-0.4165365,66.2582
21.544346900318832,4195635.0,-17.43842,66.2653
46.41588833612777,3977099.0,-29.27491,66.2876
100.0,717412.8,2.954394,66.29
215.44346900318823,659898.0,-146.0977,66.2721
464.15888336127773,617408.4,-154.7912,66.294
1000.0,377226.9,-101.0019,66.2786
2154.4346900318824,308761.3,-88.78432,66.2769
4641.588833612777,125479.5,-75.04679,66.2933
10000.0,64543.48,-87.10313,66.2851
