Frequency,Impedance,Phase Angle,Temperature (Dry Bath)
10.0,4786490.0,-24.83612,71.3421
21.544346900318832,11524060.0,-28.34726,71.3403
46.41588833612777,4688652.0,-37.71796,71.3435
100.0,526501.3,-176.8292,71.3347
215.44346900318823,809672.1,-57.18959,71.3252
464.15888336127773,1108091.0,-62.73845,71.3243
1000.0,661957.8,-131.6618,71.3379
2154.4346900318824,265991.7,-69.90163,71.3302
4641.588833612777,127190.5,-76.58687,71.3454
10000.0,61777.79,-86.47682,71.3371
