Frequency,Impedance,Phase Angle,Temperature (Dry Bath)
10.0,18232670.0,-19.7727,67.9814
21.5,24488830.0,-57.56194,67.9814
46.4,25878980.0,-62.60013,67.9814
100.0,4153992.0,-50.00823,67.9814
215.4,5025981.0,-71.97078,67.9814
464.2,1912057.0,-80.03496,67.9814
1000.0,941043.8,-83.12507,67.9814
2154.4,516247.9,-81.91783,67.9814
4641.6,268535.4,-83.26923,67.9814
10000.0,135638.7,-89.20111,67.9814
