Frequency,Impedance,Phase Angle,Temperature (Dry Bath)
10.0,3997109.0,-21.90418,71.2945
21.544346900318832,4935414.0,-38.70456,71.2843
46.41588833612777,3805920.0,-30.39702,71.2879
100.0,523199.0,-134.8924,71.2971
215.44346900318823,703435.4,60.09756,71.2918
464.15888336127773,1768737.0,58.07149,71.3008
1000.0,460802.2,-70.08933,71.2944
2154.4346900318824,437065.3,-99.67438,71.285
4641.588833612777,146223.1,-86.5839,71.3091
10000.0,67488.97,-91.23676,71.2953
