Frequency,Impedance,Phase Angle,Temperature (Dry Bath)
10.0,1035170.0,-12.02977,68.1949
21.5,964876.0,-9.81767,68.1949
46.4,883243.2,-11.31962,68.1949
100.0,733026.4,-15.12962,68.1949
215.4,748611.6,-17.22723,68.1949
464.2,669380.7,-14.64619,68.1949
1000.0,560657.2,-27.17791,68.1949
2154.4,462584.5,-39.02567,68.1949
4641.6,313824.6,-61.39984,68.1949
10000.0,178140.1,-82.86589,68.1949
