Frequency,Impedance,Phase Angle,Temperature (Dry Bath)
10.0,49085.88,-20.71948,71.1295
21.544346900318832,41649.14,-20.62359,71.1151
46.41588833612777,35332.63,-20.94724,71.1164
100.0,28278.97,-20.19072,71.1226
215.44346900318823,24653.52,-22.8495,71.1232
464.15888336127773,19556.41,-24.29386,71.1221
1000.0,15654.27,-28.0297,71.1089
2154.4346900318824,13346.31,-24.63256,71.1304
4641.588833612777,10449.11,-24.70592,71.1316
10000.0,8473.57,-21.78744,71.1262
