Frequency,Impedance,Phase Angle,Temperature (Dry Bath)
10.0,1522973.0,-8.313539,67.3605
21.5,1411615.0,-9.399155,67.3439
46.4,1315530.0,-12.13223,67.3737
100.0,1150902.0,-32.95746,67.3643
215.4,859239.8,-37.77766,67.3645
464.2,924633.2,-25.34949,67.3578
1000.0,577086.1,-53.4429,67.3555
2154.4,388557.5,-62.99416,67.3645
4641.6,203828.5,-70.92286,67.3668
10000.0,101881.3,-74.24565,67.3501
