Frequency,Impedance,Phase Angle,Temperature (Dry Bath)
10.0,26359330.0,-23.5499,67.9346
21.5,20768330.0,-37.53666,67.922
46.4,25262980.0,-57.9389,67.9385
100.0,7981485.0,-25.41108,67.9373
215.4,5050616.0,-65.86518,67.938
464.2,2318883.0,-87.6201,67.9298
1000.0,1104329.0,-84.22944,67.9316
2154.4,548693.3,-81.23971,67.9389
4641.6,265222.2,-80.44047,67.9285
10000.0,160452.4,-88.12557,67.9211
