Frequency,Impedance,Phase Angle,Temperature (Dry Bath)
10.0,5915684.0,33.6895,71.3659
21.544346900318832,3639223.0,-39.49704,71.3666
46.41588833612777,4023067.0,-38.46646,71.358
100.0,941879.8,82.73525,71.3661
215.44346900318823,804318.8,-92.41698,71.3642
464.15888336127773,822803.0,-16.72887,71.3676
1000.0,386216.2,-98.22794,71.3625
2154.4346900318824,186582.0,-72.93925,71.3657
4641.588833612777,147339.6,-87.50259,71.3736
10000.0,63448.86,-88.25782,71.3654
