Frequency,Impedance,Phase Angle,Temperature (Dry Bath)
10.0,36634.61,-22.45117,71.28
21.544346900318832,30390.54,-22.14972,71.2752
46.41588833612777,25378.57,-21.98406,71.2895
100.0,22736.12,-24.20003,71.2825
215.44346900318823,18003.9,-20.88093,71.2763
464.15888336127773,15054.1,-26.06274,71.2732
1000.0,12136.56,-24.04255,71.2839
2154.4346900318824,9570.628,-25.23555,71.2909
4641.588833612777,7761.76,-23.54649,71.2875
10000.0,6386.956,-22.22334,71.3013
