Frequency,Impedance,Phase Angle,Temperature (Dry Bath)
10.0,12325.16,-4.331961,67.2371
21.5,12036.86,-3.667993,67.2332
46.4,11836.08,-3.543913,67.2001
100.0,11623.4,-3.39838,67.244
215.4,11475.11,-3.406345,67.2199
464.2,11259.2,-3.435206,67.2646
1000.0,11004.03,-3.71401,67.2692
2154.4,10811.22,-4.17619,67.2634
4641.6,10574.86,-5.803794,67.2641
10000.0,10262.82,-9.470363,67.265
