Frequency,Impedance,Phase Angle,Temperature (Dry Bath)
10.0,12355.21,-4.340747,67.2958
21.5,12056.87,-3.733869,67.3035
46.4,11831.5,-3.335799,67.3169
100.0,11637.36,-3.092582,67.3007
215.4,10974.82,-2.169882,67.3079
464.2,11282.0,-3.451995,67.291
1000.0,11011.96,-3.704219,67.3102
2154.4,10832.34,-4.134545,67.297
4641.6,10602.15,-5.816854,67.3088
10000.0,10308.64,-9.545771,67.2958
