Frequency,Impedance,Phase Angle,Temperature (Dry Bath)
10.0,136164.0,-18.69596,66.4196
21.544346900318832,115884.3,-18.74148,66.4208
46.41588833612777,99463.8,-16.71719,66.4109
100.0,90157.15,-20.20952,66.4174
215.44346900318823,61506.75,-22.41263,66.4256
464.15888336127773,63202.74,-18.73421,66.4325
1000.0,55660.44,-18.66808,66.4271
2154.4346900318824,56529.39,-26.1402,66.4167
4641.588833612777,42030.76,-27.70425,66.4202
10000.0,31323.06,-45.48831,66.421
