Frequency,Impedance,Phase Angle,Temperature (Dry Bath)
10.0,31148000.0,-29.58822,67.6933
21.5,25924910.0,-37.24642,67.6765
46.4,24469590.0,-56.81683,67.6945
100.0,9409759.0,-24.44039,67.6895
215.4,3571108.0,-73.38472,67.7021
464.2,1759934.0,-80.30212,67.6928
1000.0,928094.6,-76.49889,67.6907
2154.4,531520.5,-77.75046,67.7139
4641.6,255510.8,-85.07229,67.6989
10000.0,137869.0,-89.83797,67.6984
