Frequency,Impedance,Phase Angle,Temperature (Dry Bath)
10.0,123203.6,-24.79677,67.3732
21.5,102409.6,-21.62373,67.375
46.4,87988.73,-18.39071,67.3716
100.0,78321.62,-16.40783,67.3745
215.4,71949.93,-13.50652,67.3633
464.2,64691.49,-12.87654,67.3775
1000.0,59087.28,-14.02028,67.3702
2154.4,54228.09,-16.46555,67.3714
4641.6,48051.88,-24.42551,67.3798
10000.0,39737.52,-35.95275,67.368
