Frequency,Impedance,Phase Angle,Temperature (Dry Bath)
10.0,11991.12,-4.284228,67.3228
21.5,11734.62,-3.665423,67.3056
46.4,11538.27,-3.539702,67.3067
100.0,11373.81,-3.348153,67.3238
215.4,11013.7,-3.995196,67.3212
464.2,11034.49,-3.733388,67.3134
1000.0,10776.85,-3.671893,67.3316
2154.4,10589.67,-4.139247,67.3147
4641.6,10357.36,-5.700701,67.3336
10000.0,10094.5,-9.267602,67.3158
