Frequency,Impedance,Phase Angle,Temperature (Dry Bath)
10.0,40460210.0,-8.237435,68.042
21.5,23489200.0,-38.51978,68.042
46.4,10661000.0,-56.30146,68.042
100.0,6325417.0,-83.64981,68.042
215.4,7081546.0,-84.91189,68.042
464.2,2441514.0,-77.42522,68.042
1000.0,1132048.0,-86.62955,68.042
2154.4,513139.9,-89.2199,68.042
4641.6,262504.8,-91.40553,68.042
10000.0,124074.6,-91.70585,68.042
