Frequency,Impedance,Phase Angle,Temperature (Dry Bath)
10.0,214565.5,-25.36118,66.1494
21.544346900318832,170557.3,-24.92818,66.1424
46.41588833612777,140722.9,-22.02459,66.1331
100.0,113394.0,-24.55412,66.1288
215.44346900318823,80827.31,-32.2344,66.1371
464.15888336127773,98437.05,-20.08205,66.128
1000.0,71838.35,-16.03121,66.1289
2154.4346900318824,62262.1,-28.03847,66.1296
4641.588833612777,51749.77,-37.80459,66.1364
10000.0,37253.53,-55.10418,66.1116
