Frequency,Impedance,Phase Angle,Temperature (Dry Bath)
10.0,121994.8,-14.05581,65.7583
21.544346900318832,109149.9,-13.63002,65.7402
46.41588833612777,98894.03,-12.25465,65.7572
100.0,87902.56,-19.43261,65.7703
215.44346900318823,91525.16,-23.6859,65.7558
464.15888336127773,81235.1,-12.07831,65.7639
1000.0,62865.14,-14.74176,65.762
2154.4346900318824,60544.49,-25.94494,65.7459
4641.588833612777,52867.62,-36.37736,65.7344
10000.0,37085.6,-43.48558,65.7825
