Frequency,Impedance,Phase Angle,Temperature (Dry Bath)
10.0,279526.2,-9.9381,67.0873
21.5,264406.9,-9.143666,67.0821
46.4,251389.1,-8.698605,67.0758
100.0,235119.1,-8.105818,67.1034
215.4,222945.5,-14.0535,67.0696
464.2,220301.0,-14.94266,67.0998
1000.0,191146.8,-23.97174,67.0836
2154.4,156337.4,-35.09088,67.0847
4641.6,103725.8,-48.1885,67.0746
10000.0,64922.57,-60.05359,67.0763
