Frequency,Impedance,Phase Angle,Temperature (Dry Bath)
10.0,12225.85,-8.268101,67.3315
21.5,11653.77,-4.792648,67.3347
46.4,11508.99,-4.666939,67.3377
100.0,11418.04,-5.180896,67.3455
215.4,11348.95,-5.207461,67.3414
464.2,11157.75,-5.830183,67.3327
1000.0,10837.67,-5.785296,67.339
2154.4,10521.53,-5.999779,67.3486
4641.6,10160.55,-6.977102,67.339
10000.0,9812.832,-9.763985,67.3425
