Frequency,Impedance,Phase Angle,Temperature (Dry Bath)
10.0,23590860.0,-21.71352,68.2641
21.5,27251610.0,-46.07994,68.2566
46.4,16165710.0,-52.0682,68.2608
100.0,11338040.0,-30.70273,68.2484
215.4,4778855.0,-57.15317,68.2363
464.2,1786860.0,-87.7896,68.2518
1000.0,1119179.0,-85.7131,68.2585
2154.4,484054.8,-87.10462,68.2674
4641.6,251656.6,-82.74016,68.2644
10000.0,109377.5,-95.99959,68.2485
