Frequency,Impedance,Phase Angle,Temperature (Dry Bath)
10.0,377568.2,-6.565802,67.1753
21.5,360481.0,-6.309069,67.1769
46.4,343502.4,-6.551055,67.1739
100.0,321543.5,-8.787133,67.1927
215.4,356606.1,-16.36248,67.1664
464.2,307283.1,-12.0333,67.1774
1000.0,274809.8,-18.20025,67.1874
2154.4,242172.9,-32.91957,67.187
4641.6,169894.5,-51.73036,67.1939
10000.0,97561.0,-65.34635,67.1749
