Frequency,Impedance,Phase Angle,Temperature (Dry Bath)
10.0,44522610.0,-19.13178,67.3109
21.5,27949640.0,-27.69845,67.3047
46.4,23290070.0,-49.25615,67.3022
100.0,4321057.0,-2.534846,67.3108
215.4,2623302.0,-45.50293,67.3019
464.2,2678125.0,-94.28488,67.3198
1000.0,1389615.0,-75.7091,67.3162
2154.4,560695.9,-93.87347,67.317
4641.6,285315.3,-89.76998,67.3031
10000.0,131812.1,-88.93614,67.3146
