Frequency,Impedance,Phase Angle,Temperature (Dry Bath)
10.0,27797500.0,-21.9732,67.2203
21.5,26201080.0,-24.05015,67.2414
46.4,18122660.0,-48.07324,67.2289
100.0,5787203.0,-24.90708,67.2063
215.4,11771080.0,-62.69693,67.2184
464.2,1996167.0,-87.12022,67.2152
1000.0,1232837.0,-100.167,67.2217
2154.4,584921.5,-85.50474,67.2295
4641.6,283304.6,-87.15198,67.2343
10000.0,132151.1,-85.45071,67.2308
