Frequency,Impedance,Phase Angle,Temperature (Dry Bath)
10.0,27976490.0,-17.70037,67.0759
21.5,30306910.0,-37.89665,67.0551
46.4,17310730.0,-59.20035,67.0551
100.0,8967767.0,15.84742,67.0661
215.4,213077.5,-139.3409,67.0603
464.2,2282811.0,-84.8958,67.0635
1000.0,1231704.0,-93.82846,67.0407
2154.4,592554.9,-93.08591,67.0644
4641.6,266936.7,-85.81407,67.0517
10000.0,127905.9,-86.09767,67.0757
