Frequency,Impedance,Phase Angle,Temperature (Dry Bath)
10.0,137634.9,-6.072397,67.0757
21.5,132119.0,-5.1379,67.0827
46.4,127806.8,-4.913675,67.068
100.0,127463.5,-4.032767,67.0772
215.4,120197.8,-6.562539,67.0747
464.2,118101.8,-9.059714,67.0766
1000.0,107394.6,-11.70849,67.0774
2154.4,103757.1,-19.3791,67.0803
4641.6,84469.09,-34.03582,67.0823
10000.0,59986.73,-51.93285,67.0809
