Frequency,Impedance,Phase Angle,Temperature (Dry Bath)
10.0,1977234.0,-10.47517,71.848
21.544346900318832,2008341.0,-0.6405518,71.8591
46.41588833612777,2193517.0,-14.97967,71.8552
100.0,325342.2,87.28855,71.8503
215.44346900318823,518737.2,158.6381,71.8585
464.15888336127773,337750.9,-32.35028,71.8409
1000.0,860668.6,30.21524,71.8413
2154.4346900318824,179059.1,-86.42646,71.8457
4641.588833612777,126215.5,-97.27253,71.8471
10000.0,147486.0,-76.3614,71.8302
