Frequency,Impedance,Phase Angle,Temperature (Dry Bath)
10.0,25386010.0,-36.22006,67.2229
21.5,25529830.0,-43.26833,67.2158
46.4,12369660.0,-68.95365,67.232
100.0,5524389.0,-97.88898,67.1984
215.4,315878.4,-158.4172,67.2264
464.2,2253476.0,-88.42525,67.2242
1000.0,936178.2,-75.31128,67.2332
2154.4,470928.7,-81.25229,67.2295
4641.6,227433.1,-83.36305,67.2248
10000.0,110189.2,-82.85029,67.215
