Frequency,Impedance,Phase Angle,Temperature (Dry Bath)
10.0,32930550.0,-13.91669,67.1744
21.5,27538380.0,-38.21761,67.1707
46.4,19575610.0,-51.39927,67.1828
100.0,8956697.0,-160.5089,67.1746
215.4,3513088.0,-47.82286,67.1739
464.2,2495998.0,-89.39223,67.1638
1000.0,1315213.0,-82.34194,67.1697
2154.4,623692.1,-92.61024,67.1657
4641.6,279723.3,-87.05283,67.1763
10000.0,128572.7,-88.87593,67.1618
