Frequency,Impedance,Phase Angle,Temperature (Dry Bath)
10.0,11995110.0,-21.24539,70.9004
21.544346900318832,5511602.0,5.814227,70.9131
46.41588833612777,4023491.0,-32.42943,70.9041
100.0,405271.5,-63.25438,70.8972
215.44346900318823,951971.1,-114.2859,70.9194
464.15888336127773,914121.6,-63.26604,70.8984
1000.0,803190.1,-88.72483,70.8985
2154.4346900318824,274782.6,-77.10596,70.9021
4641.588833612777,102547.0,-101.517,70.9142
10000.0,59254.21,-84.75481,70.9059
