Frequency,Impedance,Phase Angle,Temperature (Dry Bath)
10.0,36931440.0,-2.982959,68.3389
21.5,21543340.0,-25.54289,68.3653
46.4,12527380.0,-54.29042,68.3658
100.0,4292858.0,-21.10806,68.3713
215.4,3858619.0,-85.05313,68.3639
464.2,2501321.0,-87.36401,68.362
1000.0,1097087.0,-79.22797,68.3756
2154.4,490252.7,-80.29676,68.3789
4641.6,263787.8,-75.31429,68.3638
10000.0,141986.2,-89.15277,68.3798
