Frequency,Impedance,Phase Angle,Temperature (Dry Bath)
10.0,137673.6,-25.55091,67.0431
21.5,112611.2,-22.50136,67.024
46.4,96493.84,-19.53589,67.023
100.0,85452.85,-15.12698,67.0369
215.4,179222.6,-56.25919,67.0109
464.2,68462.67,-14.62638,67.0022
1000.0,62828.25,-16.1916,67.0118
2154.4,56773.89,-18.88161,67.0286
4641.6,48887.46,-25.66665,67.0338
10000.0,39321.87,-38.08435,67.0206
