Frequency,Impedance,Phase Angle,Temperature (Dry Bath)
10.0,24404.13,-20.01098,71.334
21.544346900318832,20852.31,-17.79934,71.3659
46.41588833612777,18158.71,-15.65312,71.3596
100.0,16727.82,-13.69848,71.3618
215.44346900318823,14245.53,-10.20666,71.3593
464.15888336127773,13471.38,-9.584423,71.3555
1000.0,12120.19,-10.14544,71.3743
2154.4346900318824,11369.77,-10.00147,71.3722
4641.588833612777,10680.01,-10.28665,71.3792
10000.0,9968.084,-16.31651,71.3686
