Frequency,Impedance,Phase Angle,Temperature (Dry Bath)
10.0,29014690.0,-15.34091,68.0964
21.5,53634440.0,-40.72643,68.0964
46.4,26694500.0,-56.66717,68.0964
100.0,3944291.0,-53.44607,68.0964
215.4,3683155.0,-81.68076,68.0964
464.2,2109805.0,-79.42401,68.0964
1000.0,1085866.0,-85.90761,68.0964
2154.4,507035.0,-83.58755,68.0964
4641.6,230169.0,-87.86639,68.0964
10000.0,114380.1,-92.60201,68.0964
