Frequency,Impedance,Phase Angle,Temperature (Dry Bath)
10.0,1238935.0,-11.35941,68.1144
21.5,1124319.0,-10.6169,68.1218
46.4,1007892.0,-12.46066,68.114
100.0,823215.0,-13.21038,68.1181
215.4,889598.2,-18.6525,68.1337
464.2,686873.6,-29.43033,68.1387
1000.0,507495.8,-40.57269,68.1121
2154.4,346683.6,-49.1306,68.1279
4641.6,216310.1,-55.31567,68.1329
10000.0,128733.2,-74.50184,68.135
