Frequency,Impedance,Phase Angle,Temperature (Dry Bath)
10.0,290505.3,-8.813199,67.078
21.5,274387.0,-7.580847,67.0842
46.4,261770.9,-7.675687,67.0787
100.0,242643.4,-9.516475,67.0764
215.4,250705.1,-12.79671,67.0747
464.2,224749.5,-14.80329,67.0775
1000.0,207061.9,-23.17817,67.0672
2154.4,162483.5,-36.2794,67.0763
4641.6,108456.3,-48.88188,67.0761
10000.0,66402.21,-60.79502,67.0699
