Frequency,Impedance,Phase Angle,Temperature (Dry Bath)
10.0,16880.68,-16.70059,71.2808
21.544346900318832,11218.83,-18.01298,71.2829
46.41588833612777,9789.165,-15.37079,71.2926
100.0,8613.691,-11.8327,71.2922
215.44346900318823,8001.774,-11.06608,71.2814
464.15888336127773,7295.427,-9.899529,71.2837
1000.0,6792.021,-9.466172,71.2871
2154.4346900318824,6384.145,-8.108295,71.2911
4641.588833612777,6000.166,-9.047303,71.29
10000.0,5677.797,-11.07772,71.2957
