Frequency,Impedance,Phase Angle,Temperature (Dry Bath)
10.0,3922434.0,6.277507,65.6929
21.544346900318832,4822271.0,8.047928,65.7037
46.41588833612777,4520357.0,14.97557,65.7127
100.0,623774.4,55.37964,65.6878
215.44346900318823,13084.82,83.33094,65.7092
464.15888336127773,1044523.0,-137.4444,65.7062
1000.0,588730.2,-105.4631,65.6922
2154.4346900318824,273015.2,-99.02721,65.7131
4641.588833612777,170902.1,-101.0129,65.7147
10000.0,72351.97,-92.68946,65.7113
