Frequency,Impedance,Phase Angle,Temperature (Dry Bath)
10.0,3613226.0,-3.292878,70.8675
21.544346900318832,5285020.0,-39.05871,70.8783
46.41588833612777,4093282.0,-17.86629,70.8576
100.0,399045.0,-23.72742,70.8819
215.44346900318823,1941412.0,111.8677,70.8895
464.15888336127773,482933.4,-64.84117,70.8773
1000.0,267516.6,-137.0261,70.8727
2154.4346900318824,263683.5,-66.55096,70.87
4641.588833612777,111177.6,-84.65994,70.8711
10000.0,62445.35,-94.89725,70.8713
