Frequency,Impedance,Phase Angle,Temperature (Dry Bath)
10.0,26494190.0,-28.7372,68.075
21.5,17484770.0,-42.63423,68.0785
46.4,12223190.0,-56.0705,68.0742
100.0,4701147.0,-63.87961,68.0644
215.4,3088658.0,-72.72167,68.0618
464.2,2746993.0,-68.50827,68.052
1000.0,1004237.0,-79.84478,68.0795
2154.4,538881.3,-81.45625,68.0569
4641.6,271522.4,-88.35726,68.0653
10000.0,133958.5,-90.05417,68.057
