Frequency,Impedance,Phase Angle,Temperature (Dry Bath)
10.0,12295.77,-4.785019,67.1466
21.5,12004.6,-4.077323,67.1648
46.4,11783.26,-3.967856,67.1569
100.0,11594.13,-3.321663,67.1577
215.4,11419.76,-3.851089,67.1496
464.2,11256.67,-3.852452,67.1645
1000.0,10963.1,-4.066105,67.1391
2154.4,10739.07,-4.696903,67.1603
4641.6,10487.01,-6.136168,67.1573
10000.0,10192.33,-9.654609,67.1652
