Frequency,Impedance,Phase Angle,Temperature (Dry Bath)
10.0,12323.68,-4.368715,67.0852
21.5,12037.8,-3.758716,67.108
46.4,11826.22,-3.594637,67.0934
100.0,11646.52,-3.233374,67.1047
215.4,11393.82,-5.24571,67.1075
464.2,11264.82,-3.46126,67.1157
1000.0,11010.67,-3.679586,67.1074
2154.4,10761.32,-4.3479,67.1113
4641.6,10558.56,-5.913659,67.1063
10000.0,10268.67,-9.503502,67.0979
