Frequency,Impedance,Phase Angle,Temperature (Dry Bath)
10.0,23803380.0,-23.83053,67.9796
21.5,16817960.0,-35.07552,68.0018
46.4,15015930.0,-54.54372,67.9954
100.0,5474307.0,-46.90081,67.9978
215.4,3637268.0,-96.06862,67.9805
464.2,1947147.0,-71.7549,67.9925
1000.0,1021391.0,-83.74781,67.9835
2154.4,438443.6,-77.81129,68.0141
4641.6,277949.7,-85.478,67.9981
10000.0,131959.5,-92.29067,67.9975
