Frequency,Impedance,Phase Angle,Temperature (Dry Bath)
10.0,25645790.0,-30.3814,67.2498
21.5,19545090.0,-47.65102,67.2289
46.4,15132490.0,-60.41596,67.2426
100.0,2592550.0,-31.57086,67.2538
215.4,5365548.0,-78.95771,67.2428
464.2,2118910.0,-75.69645,67.232
1000.0,1634217.0,-81.00541,67.251
2154.4,528752.4,-83.21777,67.2483
4641.6,240284.8,-80.67185,67.2225
10000.0,113593.8,-84.26394,67.2238
