Frequency,Impedance,Phase Angle,Temperature (Dry Bath)
10.0,12387.55,-8.306586,67.3832
21.5,11815.43,-4.87609,67.361
46.4,11635.05,-4.687732,67.3662
100.0,11561.32,-5.110746,67.3364
215.4,11463.43,-5.375175,67.3496
464.2,11334.01,-5.782502,67.3648
1000.0,10990.46,-5.757511,67.3436
2154.4,10649.58,-5.763857,67.3689
4641.6,10318.06,-6.769001,67.3463
10000.0,9957.548,-9.663525,67.3428
