Frequency,Impedance,Phase Angle,Temperature (Dry Bath)
10.0,164485.5,-6.21788,68.344
21.5,158783.2,-5.171753,68.3548
46.4,153209.9,-4.715058,68.3288
100.0,147612.5,-4.400848,68.3588
215.4,144280.6,-4.381633,68.3463
464.2,133288.5,-7.353843,68.348
1000.0,128807.2,-13.16264,68.3688
2154.4,121239.2,-19.50834,68.3586
4641.6,101150.6,-35.27395,68.3565
10000.0,71522.32,-55.3466,68.3432
