Frequency,Impedance,Phase Angle,Temperature (Dry Bath)
10.0,21636580.0,-15.70428,68.0553
21.5,21029590.0,-34.48459,68.067
46.4,19568390.0,-58.71716,68.0695
100.0,8014325.0,-64.10011,68.0655
215.4,4195514.0,-61.21215,68.077
464.2,2202483.0,-81.1961,68.0717
1000.0,987637.4,-86.43097,68.0719
2154.4,497281.8,-90.13607,68.0641
4641.6,254181.6,-90.81437,68.0793
10000.0,119624.1,-97.52747,68.0477
