Frequency,Impedance,Phase Angle,Temperature (Dry Bath)
10.0,117035.1,-24.72719,67.2584
21.5,96994.96,-21.55234,67.2396
46.4,84100.93,-18.37206,67.2483
100.0,74278.63,-16.16263,67.2479
215.4,63846.58,-7.969933,67.2376
464.2,61064.39,-12.63563,67.2387
1000.0,56171.22,-13.26231,67.2583
2154.4,51788.27,-16.44229,67.2368
4641.6,45771.2,-23.14419,67.2513
10000.0,38371.55,-34.574,67.244
