Frequency,Impedance,Phase Angle,Temperature (Dry Bath)
10.0,5884558.0,-7.56104,70.8998
21.544346900318832,4520447.0,3.505882,70.9248
46.41588833612777,6010696.0,-6.336715,70.9252
100.0,7009516.0,75.78247,70.8962
215.44346900318823,1225524.0,-45.62851,70.9245
464.15888336127773,1316412.0,-94.64472,70.903
1000.0,382969.5,-128.3605,70.9057
2154.4346900318824,280398.9,-69.40928,70.9136
4641.588833612777,135952.4,-98.64627,70.9106
10000.0,54832.69,-92.13005,70.9236
