Frequency,Impedance,Phase Angle,Temperature (Dry Bath)
10.0,152865.9,-6.312211,68.0146
21.5,147126.6,-5.19284,68.0105
46.4,141870.3,-4.615803,68.0067
100.0,133434.0,-5.733147,68.023
215.4,136512.4,-7.105113,67.9992
464.2,131671.9,-7.110623,68.0104
1000.0,122234.9,-9.834955,68.0116
2154.4,110398.6,-20.4584,68.0153
4641.6,99924.56,-33.50114,68.0041
10000.0,76980.95,-52.8792,67.9925
