Frequency,Impedance,Phase Angle,Temperature (Dry Bath)
10.0,103317.6,-14.55717,71.6817
21.544346900318832,92777.68,-13.70011,71.6823
46.41588833612777,83878.98,-11.93775,71.6826
100.0,67634.58,-11.91352,71.6668
215.44346900318823,73966.96,-10.65584,71.6769
464.15888336127773,66220.81,-10.27266,71.668
1000.0,59546.07,-5.749903,71.6768
2154.4346900318824,54226.72,-16.35187,71.6823
4641.588833612777,48170.51,-21.63903,71.6825
10000.0,42576.75,-30.1017,71.6662
