Frequency,Impedance,Phase Angle,Temperature (Dry Bath)
10.0,219178.7,-13.58636,71.0127
21.544346900318832,195872.3,-14.48105,71.0192
46.41588833612777,172816.8,-13.57907,71.0245
100.0,160781.1,-5.444085,71.0167
215.44346900318823,105568.2,-3.288737,71.0207
464.15888336127773,110792.6,-7.78054,71.0113
1000.0,64040.46,-16.18068,71.0096
2154.4346900318824,100323.4,-17.59116,71.01
4641.588833612777,64775.07,-36.56243,71.0072
10000.0,62533.48,-53.35152,71.0099
