Frequency,Impedance,Phase Angle,Temperature (Dry Bath)
10.0,28893540.0,-13.56826,66.982
21.5,24677020.0,-14.23053,66.9868
46.4,20717740.0,-59.47369,66.9836
100.0,2896365.0,-39.69501,66.9731
215.4,300566.5,-108.5936,66.9898
464.2,2187717.0,-65.18531,66.9778
1000.0,1034086.0,-91.08552,66.9801
2154.4,593269.9,-87.99625,66.9602
4641.6,277038.1,-87.55419,66.9881
10000.0,125932.5,-86.53123,66.9728
