Frequency,Impedance,Phase Angle,Temperature (Dry Bath)
10.0,34678030.0,-19.0882,67.2455
21.5,25291940.0,-45.18711,67.2406
46.4,12013930.0,-59.44286,67.2451
100.0,3391775.0,-60.42094,67.243
215.4,440611.3,-150.3379,67.2228
464.2,2094328.0,-75.74262,67.2221
1000.0,944047.6,-85.89172,67.2315
2154.4,429212.4,-85.95983,67.2333
4641.6,228589.7,-83.43989,67.2286
10000.0,110651.0,-83.60393,67.2252
