Frequency,Impedance,Phase Angle,Temperature (Dry Bath)
10.0,26284460.0,-3.209352,68.2316
21.5,18256360.0,-37.13645,68.2419
46.4,11585830.0,-62.8613,68.2407
100.0,6525641.0,-40.22389,68.239
215.4,3200001.0,-97.6074,68.2406
464.2,2372221.0,-66.30584,68.2265
1000.0,1096094.0,-75.56303,68.2389
2154.4,519704.2,-79.28638,68.2488
4641.6,245568.2,-84.71767,68.2393
10000.0,125983.7,-89.04682,68.247
