Frequency,Impedance,Phase Angle,Temperature (Dry Bath)
10.0,4685362.0,-12.63761,65.8585
21.544346900318832,4095683.0,0.170402,65.8634
46.41588833612777,5633184.0,-33.25978,65.8463
100.0,1034333.0,-61.99038,65.8656
215.44346900318823,36422.5,-131.9225,65.8649
464.15888336127773,1513100.0,-80.213,65.8487
1000.0,676501.2,-54.79855,65.8561
2154.4346900318824,252162.4,-68.10552,65.8555
4641.588833612777,142233.9,-78.7709,65.8543
10000.0,69908.33,-81.71567,65.8724
