Frequency,Impedance,Phase Angle,Temperature (Dry Bath)
10.0,12337.1,-4.274459,67.1699
21.5,12057.44,-3.72175,67.1826
46.4,11760.62,-3.011935,67.153
100.0,11641.88,-3.265111,67.17
215.4,11559.11,-4.070048,67.1625
464.2,11274.21,-3.399507,67.1719
1000.0,11029.33,-3.60193,67.1696
2154.4,10804.3,-4.230979,67.1587
4641.6,10580.15,-5.878049,67.1573
10000.0,10306.06,-9.477379,67.1568
