Frequency,Impedance,Phase Angle,Temperature (Dry Bath)
10.0,5201207.0,0.8911643,70.9914
21.544346900318832,10648030.0,-29.64863,70.972
46.41588833612777,4127767.0,-36.67588,70.9894
100.0,306258.3,-15.74097,70.9852
215.44346900318823,399709.0,-64.34414,70.9901
464.15888336127773,1527407.0,152.3686,70.9819
1000.0,355973.8,-53.09272,71.0059
2154.4346900318824,220444.9,-75.7989,70.983
4641.588833612777,116484.7,-93.28139,70.9799
10000.0,57666.74,-78.99669,70.997
