Frequency,Impedance,Phase Angle,Temperature (Dry Bath)
10.0,36628140.0,-29.18688,67.1652
21.5,27710550.0,-36.25952,67.1741
46.4,14274170.0,-71.18148,67.159
100.0,5475843.0,-65.19997,67.1573
215.4,499068.8,9.726013,67.1594
464.2,2571786.0,-72.50019,67.1543
1000.0,1279507.0,-90.153,67.1663
2154.4,629751.1,-91.49529,67.1444
4641.6,296566.1,-87.37225,67.1438
10000.0,132107.4,-85.87836,67.1547
