Frequency,Impedance,Phase Angle,Temperature (Dry Bath)
10.0,23156500.0,-13.70158,67.4648
21.5,22575190.0,-32.98255,67.4551
46.4,27096380.0,22.54406,67.468
100.0,2786384.0,-78.93964,67.4787
215.4,458879.9,137.2578,67.4563
464.2,1453634.0,-67.57136,67.445
1000.0,799883.2,-78.31687,67.4389
2154.4,426212.1,-78.13711,67.4501
4641.6,221078.8,-76.95634,67.4248
10000.0,116816.7,-78.78414,67.4475
