Frequency,Impedance,Phase Angle,Temperature (Dry Bath)
10.0,31313420.0,-38.33257,68.1464
21.5,22103420.0,-49.06183,68.1399
46.4,24264290.0,-44.03357,68.1405
100.0,4045413.0,-29.95129,68.1327
215.4,4709559.0,-73.15437,68.1436
464.2,1821355.0,-72.18596,68.1466
1000.0,949099.1,-76.00728,68.127
2154.4,507267.1,-76.54869,68.1166
4641.6,265179.5,-80.7477,68.1329
10000.0,130327.2,-87.48305,68.1348
