Frequency,Impedance,Phase Angle,Temperature (Dry Bath)
10.0,24555.17,-20.89128,71.3311
21.544346900318832,20845.71,-18.1924,71.3022
46.41588833612777,18160.71,-15.78617,71.3251
100.0,15798.73,-14.96497,71.322
215.44346900318823,13681.56,-10.4074,71.3188
464.15888336127773,13523.09,-9.777743,71.317
1000.0,12531.83,-9.283388,71.3138
2154.4346900318824,11740.74,-9.06306,71.3124
4641.588833612777,11007.09,-11.60547,71.3152
10000.0,10171.84,-15.61706,71.3098
