Frequency,Impedance,Phase Angle,Temperature (Dry Bath)
10.0,20873740.0,-24.96177,68.1536
21.5,20552520.0,-35.44294,68.1666
46.4,24415610.0,-41.82807,68.1401
100.0,6720010.0,-39.01456,68.1616
215.4,5514343.0,-81.25081,68.1618
464.2,4006725.0,-84.90272,68.175
1000.0,1431841.0,-84.45881,68.1588
2154.4,658462.2,-85.7542,68.1502
4641.6,334300.8,-93.62917,68.1764
10000.0,140758.8,-98.17392,68.1582
