Frequency,Impedance,Phase Angle,Temperature (Dry Bath)
10.0,128418.7,-20.70487,67.6947
21.5,111955.3,-18.76711,67.6996
46.4,99318.02,-16.9706,67.7211
100.0,87143.31,-14.43167,67.7035
215.4,81869.75,-14.57084,67.7164
464.2,73266.93,-13.38984,67.6925
1000.0,67292.52,-16.21015,67.6735
2154.4,59263.4,-18.52351,67.6769
4641.6,51869.25,-24.85034,67.6687
10000.0,43598.58,-37.57472,67.7027
