Frequency,Impedance,Phase Angle,Temperature (Dry Bath)
10.0,23314240.0,-36.014,68.2061
21.5,17548030.0,-40.61956,68.2054
46.4,17893900.0,-53.97165,68.2194
100.0,4984804.0,-56.97188,68.2261
215.4,3311575.0,-81.81058,68.2347
464.2,1743711.0,-75.65736,68.2194
1000.0,903404.0,-74.60519,68.2246
2154.4,494924.2,-77.48574,68.2307
4641.6,267217.5,-77.28357,68.2246
10000.0,128694.6,-93.8682,68.2087
