Frequency,Impedance,Phase Angle,Temperature (Dry Bath)
10.0,4940169.0,-13.66696,71.4834
21.544346900318832,7289277.0,-28.70866,71.4928
46.41588833612777,7499959.0,-39.58473,71.4874
100.0,1193039.0,79.08338,71.4893
215.44346900318823,912492.2,-88.91414,71.4917
464.15888336127773,2058858.0,-126.5982,71.4712
1000.0,987306.6,-15.86452,71.4866
2154.4346900318824,707277.2,-95.46147,71.4776
4641.588833612777,214952.7,-70.93865,71.4856
10000.0,129133.7,-82.1509,71.4782
