Frequency,Impedance,Phase Angle,Temperature (Dry Bath)
10.0,1473229.0,-8.449235,67.1583
21.5,1391954.0,-10.06579,67.1799
46.4,1297245.0,-12.21527,67.1563
100.0,1079962.0,-16.99501,67.1451
215.4,976305.5,-23.29276,67.1579
464.2,1046565.0,-43.43708,67.1664
1000.0,546579.1,-49.28672,67.1461
2154.4,354452.5,-64.8115,67.1532
4641.6,192014.9,-71.91279,67.1494
10000.0,103358.9,-75.17928,67.1371
