Frequency,Impedance,Phase Angle,Temperature (Dry Bath)
10.0,28504800.0,-11.86583,67.2635
21.5,22665950.0,-48.61685,67.2378
46.4,17391820.0,-54.12199,67.228
100.0,4737716.0,-91.70273,67.228
215.4,370221.5,86.21288,67.2348
464.2,2120651.0,-72.95439,67.2418
1000.0,937469.2,-73.6218,67.2364
2154.4,460925.6,-80.4467,67.2469
4641.6,232356.5,-82.39496,67.2384
10000.0,119651.6,-80.97091,67.2312
