Frequency,Impedance,Phase Angle,Temperature (Dry Bath)
10.0,195999.1,-25.41193,65.8354
21.544346900318832,155362.5,-25.09284,65.8356
46.41588833612777,128445.6,-22.04637,65.8372
100.0,87544.52,-51.13712,65.84
215.44346900318823,36314.78,174.4288,65.8472
464.15888336127773,83479.11,-15.98382,65.8623
1000.0,72950.05,-24.21823,65.8375
2154.4346900318824,60748.8,-24.88376,65.857
4641.588833612777,48852.06,-31.90864,65.8321
10000.0,35753.37,-45.98697,65.8426
