Frequency,Impedance,Phase Angle,Temperature (Dry Bath)
10.0,22692070.0,-27.74796,17.6203
21.5,26159830.0,-16.14361,17.6209
46.4,33152190.0,-55.41808,17.6148
100.0,7964315.0,-35.24251,17.5951
215.4,3790812.0,-70.06323,17.6033
464.2,1751591.0,-77.7123,17.6151
1000.0,1126886.0,-82.89241,17.6132
2154.4,614960.9,-78.23578,17.6111
4641.6,300776.6,-81.71273,17.6212
10000.0,141394.0,-92.95335,17.624
