Frequency,Impedance,Phase Angle,Temperature (Dry Bath)
10.0,24927140.0,-15.26475,68.1492
21.5,53048220.0,-25.66912,68.1526
46.4,40527730.0,-44.90354,68.1602
100.0,14405830.0,-38.0619,68.1439
215.4,4314904.0,-58.00674,68.1647
464.2,4559899.0,-68.73522,68.1495
1000.0,1408661.0,-90.32703,68.163
2154.4,633896.6,-87.57717,68.1663
4641.6,331360.1,-88.69232,68.1552
10000.0,138142.6,-94.3036,68.1642
