Frequency,Impedance,Phase Angle,Temperature (Dry Bath)
10.0,1406590.0,-7.625957,65.8571
21.544346900318832,1221958.0,-10.54481,65.8527
46.41588833612777,1131952.0,-13.0217,65.841
100.0,482955.2,9.742557,65.8347
215.44346900318823,435057.7,-115.591,65.8342
464.15888336127773,546640.4,-69.12354,65.8546
1000.0,369955.7,-60.99294,65.8386
2154.4346900318824,297314.9,-64.63483,65.8481
4641.588833612777,117558.1,-80.0497,65.8414
10000.0,57847.67,-78.7282,65.8316
