Frequency,Impedance,Phase Angle,Temperature (Dry Bath)
10.0,135702.2,-25.67829,66.9917
21.5,110538.0,-22.66308,66.9794
46.4,94831.11,-19.57038,66.9864
100.0,83992.71,-16.55562,66.9726
215.4,74851.57,-15.25868,66.9877
464.2,67237.11,-14.15306,66.9792
1000.0,61572.97,-15.563,66.9919
2154.4,55993.72,-19.39202,66.9957
4641.6,48693.94,-26.66205,66.985
10000.0,39144.91,-37.57063,66.9737
