Frequency,Impedance,Phase Angle,Temperature (Dry Bath)
10.0,12312.02,-4.668287,67.0449
21.5,11997.36,-3.837588,67.0694
46.4,11776.92,-3.799529,67.0601
100.0,11528.04,-3.244339,67.0646
215.4,11395.43,-3.776788,67.0608
464.2,11236.54,-3.639493,67.0594
1000.0,10930.75,-3.825768,67.0828
2154.4,10733.26,-4.423162,67.0606
4641.6,10482.45,-6.056611,67.0696
10000.0,10211.67,-9.613165,67.0555
