Frequency,Impedance,Phase Angle,Temperature (Dry Bath)
10.0,791037.3,-10.26564,68.0271
21.5,738516.1,-10.03766,68.0131
46.4,705492.6,-11.73294,68.0175
100.0,584270.6,-11.50544,68.0254
215.4,587446.8,-20.15644,68.013
464.2,449891.6,-25.8573,68.0296
1000.0,386799.2,-35.92526,68.0117
2154.4,281136.6,-44.51207,68.0244
4641.6,180491.1,-55.25846,68.0215
10000.0,124109.1,-66.63409,68.0235
