Frequency,Impedance,Phase Angle,Temperature (Dry Bath)
10.0,171985.5,-12.23649,65.6622
21.544346900318832,157438.1,-10.27368,65.6611
46.41588833612777,144677.8,-10.32712,65.6835
100.0,105546.6,-5.43808,65.6662
215.44346900318823,44654.99,31.18118,65.6733
464.15888336127773,121954.6,-17.28267,65.669
1000.0,94795.71,-16.85847,65.674
2154.4346900318824,98058.36,-24.47847,65.6825
4641.588833612777,86297.03,-32.69888,65.6798
10000.0,52992.39,-53.14979,65.6828
