Frequency,Impedance,Phase Angle,Temperature (Dry Bath)
10.0,137658.4,-25.6651,67.0961
21.5,112507.1,-22.46561,67.1025
46.4,97023.28,-19.30484,67.0912
100.0,84766.8,-16.9485,67.082
215.4,74897.35,-15.215,67.0961
464.2,69873.97,-14.52721,67.1065
1000.0,63020.91,-14.98209,67.1038
2154.4,57800.6,-18.87366,67.0837
4641.6,49190.92,-26.51549,67.1013
10000.0,39230.07,-38.44672,67.0818
