Frequency,Impedance,Phase Angle,Temperature (Dry Bath)
10.0,159471.5,-9.359899,71.251
21.544346900318832,145738.4,-8.803905,71.2568
46.41588833612777,139518.1,-8.520347,71.2643
100.0,167793.0,-8.160563,71.2594
215.44346900318823,136871.0,-16.52881,71.2429
464.15888336127773,119804.8,-5.729021,71.2406
1000.0,111083.2,-20.11342,71.2509
2154.4346900318824,100502.7,-25.51934,71.2554
4641.588833612777,65591.72,-47.31781,71.2527
10000.0,45204.46,-61.22261,71.2471
