Frequency,Impedance,Phase Angle,Temperature (Dry Bath)
10.0,8089.918,-31.55724,70.9469
21.544346900318832,6188.874,-29.74336,70.9289
46.41588833612777,4835.747,-27.26702,70.9426
100.0,3873.422,-24.58796,70.9353
215.44346900318823,3195.713,-20.9237,70.9478
464.15888336127773,2719.183,-17.67696,70.9367
1000.0,2371.752,-14.88654,70.9524
2154.4346900318824,2118.698,-12.64199,70.9501
4641.588833612777,1944.764,-11.15962,70.9461
10000.0,1790.344,-10.55027,70.9324
