Frequency,Impedance,Phase Angle,Temperature (Dry Bath)
10.0,139094.4,-5.90145,67.3579
21.5,133546.1,-5.01246,67.3584
46.4,128876.8,-4.715463,67.3457
100.0,124716.6,-6.025622,67.3503
215.4,122592.0,-4.362741,67.335
464.2,117463.2,-8.545952,67.3309
1000.0,111463.2,-12.13756,67.3314
2154.4,104778.9,-20.00578,67.3426
4641.6,86678.11,-34.29063,67.3291
10000.0,61218.26,-51.47217,67.3399
