Frequency,Impedance,Phase Angle,Temperature (Dry Bath)
10.0,20229610.0,-5.799432,67.987
21.5,17335850.0,-24.20495,67.9921
46.4,13314060.0,-61.1477,67.9978
100.0,4804194.0,-40.90518,67.9854
215.4,3457389.0,-83.8779,67.9798
464.2,1955696.0,-91.74269,67.9923
1000.0,1022713.0,-83.51198,67.9866
2154.4,515853.4,-81.18686,68.01
4641.6,256003.2,-83.83615,67.9978
10000.0,131620.4,-92.08285,67.9854
