Frequency,Impedance,Phase Angle,Temperature (Dry Bath)
10.0,3657359.0,-11.68713,68.0426
21.5,3410547.0,-15.39109,68.04
46.4,3359498.0,-22.19022,68.0429
100.0,3066333.0,-13.54769,68.0504
215.4,1998043.0,-39.83178,68.0391
464.2,1556267.0,-61.05221,68.0536
1000.0,739622.2,-69.55345,68.0519
2154.4,397785.9,-76.49014,68.0421
4641.6,207844.6,-81.26814,68.0404
10000.0,126160.9,-85.44857,68.0489
