Frequency,Impedance,Phase Angle,Temperature (Dry Bath)
10.0,4086283.0,-30.21047,66.6
21.544346900318832,5972512.0,0.754617,66.6
46.41588833612777,4842038.0,22.31688,66.6
100.0,468847.0,115.2253,66.6
215.44346900318823,1706634.0,170.6035,66.6
464.15888336127773,2646114.0,177.6246,66.6
1000.0,1226116.0,-8.606827,66.6
2154.4346900318824,485377.6,-17.89959,66.6
4641.588833612777,710617.0,136.9838,66.6
10000.0,1144296.0,-123.7344,66.6
