Frequency,Impedance,Phase Angle,Temperature (Dry Bath)
10.0,161257.9,-9.393806,65.6618
21.544346900318832,146960.3,-7.747773,65.6392
46.41588833612777,143397.6,-7.853834,65.655
100.0,115240.8,-12.6765,65.6747
215.44346900318823,300317.8,13.46883,65.6857
464.15888336127773,142128.7,-2.149525,65.6864
1000.0,112133.0,-19.82923,65.6799
2154.4346900318824,98564.6,-32.48763,65.6916
4641.588833612777,72082.09,-42.13548,65.6693
10000.0,45221.85,-56.58769,65.6707
