Frequency,Impedance,Phase Angle,Temperature (Dry Bath)
10.0,131153.7,-20.72433,71.2362
21.544346900318832,112542.0,-19.74825,71.2184
46.41588833612777,96660.46,-18.81906,71.2392
100.0,75964.7,-15.18168,71.2457
215.44346900318823,104357.3,-18.02745,71.2381
464.15888336127773,64836.89,-19.04392,71.2389
1000.0,57712.44,-18.60514,71.2377
2154.4346900318824,49178.41,-29.3702,71.2461
4641.588833612777,38088.56,-33.11657,71.245
10000.0,27883.46,-45.41501,71.2479
