Frequency,Impedance,Phase Angle,Temperature (Dry Bath)
10.0,378287.4,-25.22375,65.685
21.544346900318832,307458.7,-23.08693,65.6907
46.41588833612777,257037.0,-22.86845,65.6894
100.0,201653.6,-41.6053,65.6894
215.44346900318823,49408.55,124.2927,65.6986
464.15888336127773,172625.0,-34.86265,65.6994
1000.0,126222.0,-35.66057,65.6898
2154.4346900318824,104204.8,-31.07856,65.7008
4641.588833612777,75986.64,-50.08472,65.7042
10000.0,51011.77,-57.53581,65.6948
