Frequency,Impedance,Phase Angle,Temperature (Dry Bath)
10.0,51758.45,-34.28172,71.3999
21.544346900318832,38994.68,-32.45763,71.3962
46.41588833612777,29728.32,-29.85828,71.4037
100.0,22849.03,-24.68108,71.397
215.44346900318823,18862.64,-22.81586,71.3951
464.15888336127773,15955.76,-19.60934,71.3834
1000.0,13491.14,-17.765,71.3885
2154.4346900318824,11815.05,-16.78615,71.3973
4641.588833612777,10763.03,-15.74718,71.3761
10000.0,9733.628,-16.54831,71.3734
