Frequency,Impedance,Phase Angle,Temperature (Dry Bath)
10.0,28472330.0,-19.40619,67.2794
21.5,19557380.0,-38.95772,67.2893
46.4,13874790.0,-60.42925,67.2972
100.0,7853858.0,-61.0723,67.2931
215.4,3294138.0,-83.63409,67.2884
464.2,1980015.0,-70.40126,67.3094
1000.0,922207.3,-77.77833,67.287
2154.4,470858.0,-78.88732,67.2967
4641.6,233301.6,-81.5341,67.2764
10000.0,114234.5,-84.39563,67.2766
