Frequency,Impedance,Phase Angle,Temperature (Dry Bath)
10.0,61167710.0,-18.84282,67.9321
21.5,45495510.0,-33.24037,67.9262
46.4,24652080.0,-49.52015,67.9181
100.0,5084004.0,-73.31241,67.915
215.4,4196877.0,-72.8103,67.9056
464.2,2281167.0,-58.28951,67.9161
1000.0,1050605.0,-79.96448,67.9021
2154.4,541829.8,-79.65892,67.9088
4641.6,268341.8,-81.69834,67.9013
10000.0,145794.2,-90.89439,67.8901
