Frequency,Impedance,Phase Angle,Temperature (Dry Bath)
10.0,1337110.0,-10.47739,67.9746
21.5,1236101.0,-11.57305,67.9569
46.4,1067642.0,-12.5846,67.9829
100.0,875278.9,-14.546,67.9623
215.4,893144.7,-18.4746,67.9741
464.2,725062.4,-27.52904,67.9725
1000.0,547255.7,-39.81848,67.9807
2154.4,405369.3,-53.12536,67.9712
4641.6,239122.3,-62.52159,67.9847
10000.0,145632.2,-74.6856,67.981
