Frequency,Impedance,Phase Angle,Temperature (Dry Bath)
10.0,5277443.0,-12.97768,66.3877
21.544346900318832,6453075.0,6.777634,66.3771
46.41588833612777,4139803.0,-24.93251,66.3858
100.0,673068.6,-39.78492,66.3727
215.44346900318823,620681.6,-42.50392,66.3794
464.15888336127773,952107.6,-10.16295,66.3802
1000.0,507357.2,-76.26821,66.3663
2154.4346900318824,238232.0,-79.0422,66.3918
4641.588833612777,140807.2,-86.26959,66.4021
10000.0,61639.53,-78.44772,66.3945
