Frequency,Impedance,Phase Angle,Temperature (Dry Bath)
10.0,9860.818,-26.85193,70.53
21.544346900318832,7847.354,-26.16239,70.5183
46.41588833612777,6275.174,-24.88387,70.5076
100.0,5155.854,-23.06593,70.5164
215.44346900318823,4238.571,-20.13412,70.5207
464.15888336127773,3623.283,-17.86162,70.5176
1000.0,3132.434,-14.47666,70.514
2154.4346900318824,2839.379,-13.11865,70.5282
4641.588833612777,2548.633,-12.42375,70.5264
10000.0,2353.837,-12.60664,70.5175
