Frequency,Impedance,Phase Angle,Temperature (Dry Bath)
10.0,2002452.0,-9.729248,67.3111
21.5,1833537.0,-11.47053,67.3043
46.4,1675951.0,-13.87273,67.3117
100.0,1097789.0,-19.56078,67.3016
215.4,118586.9,-39.90315,67.3058
464.2,858394.7,-46.35578,67.3154
1000.0,588741.0,-58.27319,67.3072
2154.4,362586.5,-63.00855,67.3202
4641.6,198337.9,-70.72823,67.3063
10000.0,101135.2,-72.69951,67.3054
