Frequency,Impedance,Phase Angle,Temperature (Dry Bath)
10.0,22956.58,-21.41215,66.215
21.544346900318832,19348.74,-18.44929,66.237
46.41588833612777,16781.43,-15.40116,66.225
100.0,14697.3,-13.48078,66.2271
215.44346900318823,12324.7,-14.70137,66.2274
464.15888336127773,12720.14,-9.240806,66.2191
1000.0,11911.38,-7.499359,66.216
2154.4346900318824,11218.35,-7.536642,66.2327
4641.588833612777,10854.52,-10.27542,66.2199
10000.0,10123.53,-15.41663,66.2314
