Frequency,Impedance,Phase Angle,Temperature (Dry Bath)
10.0,9467897.0,-41.53097,71.3648
21.544346900318832,7292105.0,-8.420824,71.3758
46.41588833612777,4017590.0,-22.27928,71.3835
100.0,991366.0,-106.5613,71.3781
215.44346900318823,1083099.0,3.871062,71.3809
464.15888336127773,1017701.0,-68.39098,71.3924
1000.0,892278.8,-92.40973,71.3797
2154.4346900318824,507964.2,-129.5147,71.3779
4641.588833612777,387365.1,-91.82327,71.3835
10000.0,102367.5,-80.33476,71.3704
