Frequency,Impedance,Phase Angle,Temperature (Dry Bath)
10.0,139360.6,-5.813204,67.2903
21.5,134158.7,-4.788764,67.2953
46.4,129874.8,-4.188,67.2994
100.0,120217.8,-3.298912,67.3014
215.4,58788.86,-41.31704,67.2761
464.2,118815.3,-6.315736,67.2899
1000.0,114043.9,-12.13993,67.3023
2154.4,104270.0,-19.21654,67.301
4641.6,89110.29,-33.87882,67.3034
10000.0,61776.67,-51.40029,67.3021
