Frequency,Impedance,Phase Angle,Temperature (Dry Bath)
10.0,4769901.0,-4.478338,71.3187
21.544346900318832,5395934.0,-23.20309,71.3108
46.41588833612777,9005815.0,-73.75764,71.3135
100.0,552972.2,8.380127,71.3154
215.44346900318823,43223.63,-99.76473,71.3118
464.15888336127773,792359.1,-37.95502,71.3252
1000.0,564898.3,-138.2715,71.3002
2154.4346900318824,226801.6,-80.02413,71.3022
4641.588833612777,161412.1,-78.32041,71.3047
10000.0,57350.28,-84.73999,71.3066
