Frequency,Impedance,Phase Angle,Temperature (Dry Bath)
10.0,664779.9,-13.23951,67.9677
21.5,607163.6,-12.56859,67.9677
46.4,559039.4,-12.78844,67.9677
100.0,474134.2,-12.917,67.9677
215.4,437768.5,-15.72082,67.9677
464.2,404173.2,-20.20259,67.9677
1000.0,323691.5,-26.48284,67.9677
2154.4,269725.7,-33.62802,67.9677
4641.6,199924.2,-47.05941,67.9677
10000.0,133671.7,-64.07967,67.9677
