Frequency,Impedance,Phase Angle,Temperature (Dry Bath)
10.0,163792.1,-9.39375,65.8373
21.544346900318832,149374.5,-7.255488,65.8364
46.41588833612777,144402.8,-7.970365,65.8526
100.0,117748.3,2.590346,65.8427
215.44346900318823,8091.458,49.94766,65.8478
464.15888336127773,120729.6,-11.18072,65.8349
1000.0,103669.0,-16.73734,65.8531
2154.4346900318824,97090.64,-24.40146,65.8444
4641.588833612777,72091.61,-37.78246,65.8505
10000.0,48672.42,-58.67051,65.8399
