Frequency,Impedance,Phase Angle,Temperature (Dry Bath)
10.0,3994271.0,-7.545629,70.9265
21.544346900318832,6039566.0,-22.07764,70.9271
46.41588833612777,5606731.0,-18.02525,70.9206
100.0,604546.6,101.988,70.907
215.44346900318823,886497.0,153.3381,70.9169
464.15888336127773,499307.2,-84.89347,70.9084
1000.0,701347.7,-105.6871,70.9051
2154.4346900318824,167861.7,-94.5424,70.9125
4641.588833612777,137330.9,-80.30531,70.9073
10000.0,59730.67,-88.46963,70.9045
