Frequency,Impedance,Phase Angle,Temperature (Dry Bath)
10.0,135686.9,-25.50378,67.0246
21.5,111766.4,-22.51136,67.0437
46.4,95468.67,-19.27991,67.0301
100.0,84200.37,-16.64,67.0245
215.4,74813.98,-15.43028,67.0394
464.2,68951.72,-13.98912,67.0125
1000.0,61839.42,-14.48458,67.0092
2154.4,56070.71,-19.10824,67.0269
4641.6,49574.76,-26.56676,67.0203
10000.0,39934.67,-37.28437,67.0147
