Frequency,Impedance,Phase Angle,Temperature (Dry Bath)
10.0,42539550.0,-16.83318,67.9936
21.5,26917180.0,-32.33856,67.9796
46.4,19938910.0,-59.02396,67.9858
100.0,5782439.0,-24.25367,67.986
215.4,2509553.0,-80.81909,67.9875
464.2,1895992.0,-78.94921,67.9744
1000.0,872972.1,-75.1025,67.9849
2154.4,506058.0,-73.26449,67.9859
4641.6,280624.3,-82.8622,67.9948
10000.0,137903.6,-90.72309,67.9815
