Frequency,Impedance,Phase Angle,Temperature (Dry Bath)
10.0,4931277.0,-22.38173,71.3361
21.544346900318832,5653107.0,-34.20656,71.3291
46.41588833612777,5199626.0,-18.8453,71.3267
100.0,253486.6,-66.59313,71.3272
215.44346900318823,33416.39,144.0889,71.335
464.15888336127773,688404.8,-39.41826,71.3163
1000.0,330512.3,-70.52735,71.3372
2154.4346900318824,258450.5,-66.26702,71.324
4641.588833612777,151496.2,-85.71133,71.3441
10000.0,53155.92,-86.68944,71.3307
