Frequency,Impedance,Phase Angle,Temperature (Dry Bath)
10.0,1270546.0,-13.50554,65.6955
21.544346900318832,1121553.0,-15.97011,65.7085
46.41588833612777,1027851.0,-7.861712,65.7052
100.0,724661.6,-3.787835,65.7062
215.44346900318823,147970.2,-20.7371,65.7211
464.15888336127773,546696.7,-9.439905,65.711
1000.0,294465.2,-55.88797,65.7155
2154.4346900318824,236870.7,-81.01439,65.7088
4641.588833612777,108736.6,-71.83004,65.694
10000.0,68536.23,-77.17903,65.696
