Frequency,Impedance,Phase Angle,Temperature (Dry Bath)
10.0,38536240.0,-21.84362,67.4049
21.5,24387300.0,-19.23569,67.4086
46.4,21748370.0,-56.04568,67.4052
100.0,5591327.0,-56.07658,67.3923
215.4,106671.1,11.82026,67.4012
464.2,2461772.0,-87.37876,67.422
1000.0,1068865.0,-79.58617,67.4081
2154.4,499319.0,-78.90568,67.4188
4641.6,250202.6,-78.06733,67.4066
10000.0,134277.1,-79.66409,67.4112
