Frequency,Impedance,Phase Angle,Temperature (Dry Bath)
10.0,153757.0,-6.364086,67.9727
21.5,147356.3,-5.230736,67.9865
46.4,142772.2,-4.936542,67.9902
100.0,138714.1,-3.389173,67.9788
215.4,133389.2,-4.952304,67.9645
464.2,122560.4,-5.532124,67.9735
1000.0,123030.3,-11.03621,67.9662
2154.4,115645.9,-18.97996,67.9849
4641.6,96820.11,-34.75598,67.9869
10000.0,73705.61,-53.85029,67.9768
