Frequency,Impedance,Phase Angle,Temperature (Dry Bath)
10.0,23755.48,-19.61409,71.1154
21.544346900318832,20427.32,-17.52949,71.1263
46.41588833612777,17758.41,-15.73755,71.1234
100.0,15527.78,-15.08182,71.1281
215.44346900318823,13898.18,-12.17512,71.1197
464.15888336127773,12756.84,-10.69586,71.1185
1000.0,11922.09,-12.83969,71.1354
2154.4346900318824,10760.8,-9.993655,71.1244
4641.588833612777,10249.15,-11.5579,71.1032
10000.0,9340.337,-15.78489,71.1068
