Frequency,Impedance,Phase Angle,Temperature (Dry Bath)
10.0,20274.22,-19.83799,71.0331
21.544346900318832,17408.15,-17.44009,71.0446
46.41588833612777,15167.86,-15.52861,71.0325
100.0,13263.73,-15.38476,71.0403
215.44346900318823,12287.42,-12.79593,71.0396
464.15888336127773,10984.04,-11.17029,71.0311
1000.0,10045.47,-9.774092,71.026
2154.4346900318824,9192.849,-9.831816,71.0236
4641.588833612777,8708.59,-10.2558,71.0346
10000.0,8288.259,-14.36933,71.0522
