Frequency,Impedance,Phase Angle,Temperature (Dry Bath)
10.0,773222.2,-1.279051,67.3
21.544346900318832,780038.6,3.775186,67.3
46.41588833612777,897940.3,-0.8660515,67.3
100.0,1077376.0,2.255122,67.3
215.44346900318823,1136410.0,7.378017,67.3
464.15888336127773,822563.4,-6.519646,67.3
1000.0,763254.5,9.106208,67.3
2154.4346900318824,623052.4,-0.574818,67.3
4641.588833612777,942607.4,-0.8278569,67.3
10000.0,859898.9,-11.06461,67.3
