Frequency,Impedance,Phase Angle,Temperature (Dry Bath)
10.0,6444885.0,5.895922,68.0838
21.5,26036770.0,-24.0695,68.0838
46.4,19396750.0,-57.96456,68.0838
100.0,5226271.0,-26.06728,68.0838
215.4,3867954.0,-89.12713,68.0838
464.2,1740454.0,-83.09017,68.0838
1000.0,957941.8,-72.60515,68.0838
2154.4,581692.5,-74.88746,68.0838
4641.6,273849.6,-83.17304,68.0838
10000.0,147704.7,-89.78783,68.0838
