Frequency,Impedance,Phase Angle,Temperature (Dry Bath)
10.0,115333.0,-27.87421,71.6532
21.544346900318832,93338.71,-27.72242,71.636
46.41588833612777,74367.78,-28.83567,71.641
100.0,55541.84,-34.42936,71.6349
215.44346900318823,49151.08,-32.71294,71.6438
464.15888336127773,38375.76,-32.73705,71.6373
1000.0,24945.02,-30.65195,71.643
2154.4346900318824,20642.19,-29.24133,71.6221
4641.588833612777,16081.98,-27.04429,71.6302
10000.0,13357.38,-23.27809,71.6283
