Frequency,Impedance,Phase Angle,Temperature (Dry Bath)
10.0,4040874.0,-10.2079,70.9654
21.544346900318832,4674816.0,-19.18132,70.9413
46.41588833612777,3799144.0,-10.29887,70.9412
100.0,341099.9,133.4182,70.9555
215.44346900318823,657440.1,114.4135,70.9574
464.15888336127773,335357.5,-49.71505,70.9592
1000.0,1449226.0,-66.11811,70.9596
2154.4346900318824,410277.1,-87.75308,70.9425
4641.588833612777,108906.4,-84.9455,70.9539
10000.0,67859.14,-86.57826,70.9614
