Frequency,Impedance,Phase Angle,Temperature (Dry Bath)
10.0,29958200.0,-8.424945,67.4914
21.5,28683560.0,-20.30336,67.4819
46.4,22697900.0,-57.18054,67.4827
100.0,1335542.0,109.3633,67.4769
215.4,139547.4,-8.691702,67.4753
464.2,2364640.0,-86.81639,67.4934
1000.0,1039791.0,-87.30182,67.4841
2154.4,597504.9,-89.8985,67.4855
4641.6,271814.4,-85.62493,67.4766
10000.0,131715.9,-87.73664,67.474
