Frequency,Impedance,Phase Angle,Temperature (Dry Bath)
10.0,540928.7,-8.389225,66.9802
21.5,506393.6,-8.702441,67.0043
46.4,479667.5,-9.317367,66.9735
100.0,453196.3,-15.95179,67.0071
215.4,408395.1,-12.99521,67.0076
464.2,377382.1,-20.61659,66.9942
1000.0,306015.3,-32.35394,66.9965
2154.4,251116.5,-39.16096,67.0086
4641.6,159522.8,-53.46986,67.0199
10000.0,91212.33,-62.60205,67.0131
