Frequency,Impedance,Phase Angle,Temperature (Dry Bath)
10.0,10189000.0,9.302109,65.7825
21.544346900318832,5438567.0,-3.203542,65.768
46.41588833612777,5430666.0,-26.31375,65.7764
100.0,855556.7,-69.8813,65.7619
215.44346900318823,28087.52,130.8927,65.7691
464.15888336127773,701763.6,-78.1807,65.774
1000.0,1548832.0,-166.8859,65.7601
2154.4346900318824,225541.9,-97.62666,65.7763
4641.588833612777,144301.5,-79.49244,65.7563
10000.0,69989.16,-75.7012,65.743
