Frequency,Impedance,Phase Angle,Temperature (Dry Bath)
10.0,26528210.0,-31.1865,67.8946
21.5,19326440.0,-53.07851,67.8934
46.4,22390690.0,-59.48712,67.8784
100.0,6953388.0,-72.10748,67.8896
215.4,4800340.0,-76.50358,67.8962
464.2,1926450.0,-83.94944,67.9013
1000.0,1059310.0,-88.09118,67.9053
2154.4,519061.9,-83.98202,67.8939
4641.6,259041.4,-89.83763,67.9066
10000.0,119779.0,-88.40704,67.896
