Frequency,Impedance,Phase Angle,Temperature (Dry Bath)
10.0,139837.1,-5.764089,67.1968
21.5,134778.9,-4.752246,67.2007
46.4,131117.9,-4.477292,67.2154
100.0,124707.3,-3.077221,67.1981
215.4,169786.5,25.80155,67.2164
464.2,119212.3,-9.072425,67.215
1000.0,114542.6,-12.59588,67.2095
2154.4,106215.5,-20.35264,67.2117
4641.6,90487.22,-33.71761,67.199
10000.0,64064.96,-51.20412,67.2023
