Frequency,Impedance,Phase Angle,Temperature (Dry Bath)
10.0,23360790.0,1.293227,67.9454
21.5,23781700.0,-35.09385,67.9497
46.4,19957760.0,-50.75967,67.9512
100.0,3516459.0,-83.17847,67.9369
215.4,3750119.0,-89.49342,67.924
464.2,2511974.0,-89.39892,67.9427
1000.0,894207.6,-77.62504,67.9337
2154.4,456814.3,-82.97804,67.9329
4641.6,229471.8,-80.48187,67.924
10000.0,125908.2,-86.64841,67.9304
