Frequency,Impedance,Phase Angle,Temperature (Dry Bath)
10.0,1086605.0,-11.21663,68.0994
21.5,971234.8,-11.30639,68.0903
46.4,902991.5,-12.53532,68.0719
100.0,721061.3,-16.76739,68.0802
215.4,682635.0,-19.03519,68.0925
464.2,616744.4,-25.69911,68.0721
1000.0,458260.2,-36.59963,68.0838
2154.4,330257.9,-48.08087,68.087
4641.6,227063.0,-56.03351,68.0741
10000.0,134995.5,-72.84981,68.1142
