Frequency,Impedance,Phase Angle,Temperature (Dry Bath)
10.0,3014988.0,2.044489,68.3501
21.5,14317580.0,-44.69287,68.3382
46.4,10865180.0,-56.86791,68.3291
100.0,3759941.0,-6.854801,68.3276
215.4,4148092.0,-59.36046,68.3492
464.2,1673026.0,-67.96148,68.3463
1000.0,943468.7,-71.29747,68.3367
2154.4,512182.8,-76.15989,68.3408
4641.6,243726.8,-78.40319,68.3357
10000.0,137652.2,-86.18503,68.3298
