Frequency,Impedance,Phase Angle,Temperature (Dry Bath)
10.0,6741782.0,-30.11076,65.7695
21.544346900318832,9745046.0,-23.05606,65.7844
46.41588833612777,4588906.0,-37.85212,65.7675
100.0,690152.6,41.65365,65.7766
215.44346900318823,13589.17,16.77042,65.7683
464.15888336127773,718935.5,-21.49113,65.7796
1000.0,786642.6,-85.31538,65.7816
2154.4346900318824,215103.8,-96.87413,65.7802
4641.588833612777,138832.0,-87.09187,65.7763
10000.0,64506.86,-80.82396,65.7672
