Frequency,Impedance,Phase Angle,Temperature (Dry Bath)
10.0,158577.3,-6.186619,67.9915
21.5,152544.9,-5.293838,67.9896
46.4,147597.2,-4.848401,67.9785
100.0,140627.4,-6.109408,67.9761
215.4,139513.7,-5.540251,67.9584
464.2,136114.5,-8.739506,67.9829
1000.0,128104.0,-12.6345,67.9756
2154.4,118390.7,-21.05726,67.9764
4641.6,102620.9,-32.21207,67.9669
10000.0,71219.06,-56.35909,67.9749
