Frequency,Impedance,Phase Angle,Temperature (Dry Bath)
10.0,32687140.0,-6.852677,68.1421
21.5,21615870.0,-28.81417,68.1421
46.4,11736580.0,-51.89943,68.1421
100.0,4651839.0,-25.62599,68.1421
215.4,3828990.0,-67.61829,68.1421
464.2,2415169.0,-96.81379,68.1421
1000.0,1091828.0,-84.18289,68.1421
2154.4,580220.4,-86.43205,68.1421
4641.6,247600.6,-89.87739,68.1421
10000.0,114037.7,-93.22794,68.1421
