Frequency,Impedance,Phase Angle,Temperature (Dry Bath)
10.0,19759260.0,-30.63278,68.1759
21.5,22928290.0,-58.39634,68.1773
46.4,32559060.0,-58.41649,68.1616
100.0,6666747.0,-77.65311,68.1759
215.4,4239540.0,-81.26602,68.1643
464.2,2398151.0,-74.75662,68.1759
1000.0,997450.4,-79.91037,68.1695
2154.4,495531.5,-83.31508,68.1708
4641.6,250630.5,-84.76127,68.1678
10000.0,118561.4,-92.19102,68.1526
