Frequency,Impedance,Phase Angle,Temperature (Dry Bath)
10.0,1271878.0,-10.11829,68.1929
21.5,1165862.0,-10.40009,68.165
46.4,1060051.0,-12.86925,68.1738
100.0,903401.3,-15.818,68.1655
215.4,801259.0,-26.13,68.1625
464.2,705404.6,-36.68504,68.1595
1000.0,509167.1,-39.75081,68.166
2154.4,331241.6,-54.36352,68.1656
4641.6,205181.9,-61.18908,68.1656
10000.0,134578.0,-74.0061,68.1642
