Frequency,Impedance,Phase Angle,Temperature (Dry Bath)
10.0,135907.1,-24.46133,67.3935
21.5,114051.0,-22.00639,67.3654
46.4,97446.59,-19.47027,67.3746
100.0,85359.6,-17.09195,67.3816
215.4,77980.68,-14.01019,67.3709
464.2,69825.82,-14.18661,67.378
1000.0,64019.31,-15.08621,67.3781
2154.4,57559.95,-18.86693,67.3548
4641.6,50142.32,-24.34065,67.3592
10000.0,41587.49,-35.78106,67.3667
