Frequency,Impedance,Phase Angle,Temperature (Dry Bath)
10.0,139442.7,-5.800563,67.4073
21.5,134237.0,-4.907598,67.3943
46.4,129765.1,-4.469052,67.3989
100.0,124157.1,-4.533106,67.3996
215.4,82642.6,-25.57503,67.3964
464.2,121717.0,-7.343277,67.3982
1000.0,115409.8,-11.38212,67.3901
2154.4,103687.1,-20.06284,67.3917
4641.6,89040.49,-34.1498,67.3943
10000.0,61623.01,-51.21651,67.4034
