Frequency,Impedance,Phase Angle,Temperature (Dry Bath)
10.0,15600240.0,-12.30664,68.1902
21.5,14430580.0,-32.72886,68.1699
46.4,15241910.0,-61.92816,68.1827
100.0,5905427.0,-29.98001,68.1842
215.4,3712086.0,-84.95871,68.176
464.2,1820237.0,-74.45318,68.1674
1000.0,976746.5,-77.30727,68.1879
2154.4,504064.3,-76.45425,68.1696
4641.6,268263.3,-79.64851,68.1804
10000.0,139519.9,-89.55412,68.1515
