Frequency,Impedance,Phase Angle,Temperature (Dry Bath)
10.0,168673.5,-6.18897,68.1816
21.5,161037.1,-5.105556,68.1607
46.4,156343.8,-4.85595,68.1828
100.0,150660.7,-3.132056,68.1563
215.4,143547.8,-5.939284,68.195
464.2,145851.9,-8.162093,68.163
1000.0,135659.5,-12.67126,68.1692
2154.4,128387.7,-20.9358,68.157
4641.6,105634.2,-36.83932,68.1626
10000.0,77611.37,-58.96246,68.1617
