Frequency,Impedance,Phase Angle,Temperature (Dry Bath)
10.0,138263.8,-5.92265,67.0027
21.5,133009.5,-5.164789,67.0078
46.4,128622.6,-4.790377,66.9976
100.0,121093.2,-5.513284,66.9981
215.4,119205.1,0.9694338,67.0062
464.2,114952.0,-7.082337,66.9979
1000.0,109205.4,-12.92361,67.004
2154.4,100583.9,-20.28654,67.0055
4641.6,85477.06,-34.06088,66.9887
10000.0,59705.23,-51.28634,67.0116
