Frequency,Impedance,Phase Angle,Temperature (Dry Bath)
10.0,330643.4,-7.249959,67.1314
21.5,311308.0,-6.821094,67.1214
46.4,295075.0,-7.076658,67.1363
100.0,277984.4,-4.773346,67.1329
215.4,261295.0,-1.333544,67.1269
464.2,256060.7,-13.20669,67.1382
1000.0,230349.5,-20.1818,67.1307
2154.4,206571.8,-28.90925,67.1302
4641.6,148401.7,-46.77705,67.1246
10000.0,92813.37,-61.5459,67.1442
