Frequency,Impedance,Phase Angle,Temperature (Dry Bath)
10.0,246025.7,-19.08353,71.3543
21.544346900318832,214627.8,-17.39423,71.3383
46.41588833612777,184716.7,-16.94835,71.3536
100.0,224505.3,-11.9238,71.3556
215.44346900318823,124269.5,-30.84663,71.3461
464.15888336127773,122607.9,-17.94019,71.3685
1000.0,114842.2,-42.29816,71.3509
2154.4346900318824,101117.5,-28.24975,71.3639
4641.588833612777,64243.25,-46.25094,71.3625
10000.0,37448.56,-55.27474,71.3624
