Frequency,Impedance,Phase Angle,Temperature (Dry Bath)
10.0,24059910.0,-24.75291,67.4114
21.5,20894000.0,-52.84655,67.4246
46.4,16185120.0,-61.63338,67.4106
100.0,4162682.0,-74.75099,67.4089
215.4,164181.1,67.37307,67.4071
464.2,1370878.0,-86.72095,67.4224
1000.0,910878.3,-75.75594,67.4148
2154.4,469299.1,-77.67115,67.4096
4641.6,229750.7,-81.88445,67.4106
10000.0,110063.2,-83.38247,67.408
