Frequency,Impedance,Phase Angle,Temperature (Dry Bath)
10.0,27488660.0,-8.758853,67.3693
21.5,22013070.0,-42.86607,67.3729
46.4,10750300.0,-62.12669,67.3562
100.0,5221520.0,-4.974746,67.3785
215.4,707436.5,169.7924,67.3749
464.2,2370829.0,-72.72412,67.3658
1000.0,1039923.0,-74.57749,67.3735
2154.4,528787.9,-79.55422,67.3601
4641.6,261049.3,-77.54626,67.3673
10000.0,139049.2,-79.34038,67.3558
