Frequency,Impedance,Phase Angle,Temperature (Dry Bath)
10.0,19374.2,-19.61663,67.9826
21.5,16631.1,-16.25834,67.9717
46.4,14798.66,-12.80565,67.9719
100.0,13549.37,-10.21617,67.9562
215.4,12567.95,-8.167331,67.9693
464.2,12482.14,-5.926959,67.9746
1000.0,11549.85,-5.384824,67.977
2154.4,11289.18,-6.261969,67.9808
4641.6,10953.26,-6.810376,67.9707
10000.0,10525.87,-10.8929,67.9725
