Frequency,Impedance,Phase Angle,Temperature (Dry Bath)
10.0,42881120.0,3.201168,68.0022
21.5,35764070.0,-25.65419,68.0002
46.4,24649540.0,-54.92946,67.9919
100.0,5438349.0,-4.404426,68.0116
215.4,6145702.0,-113.3065,67.995
464.2,2345604.0,-69.0797,67.9903
1000.0,1078507.0,-81.67477,68.0001
2154.4,546369.8,-82.87526,68.0005
4641.6,279105.2,-81.7284,67.9886
10000.0,150585.1,-91.03088,67.9775
