Frequency,Impedance,Phase Angle,Temperature (Dry Bath)
10.0,4309929.0,-24.28357,70.6266
21.544346900318832,6201108.0,14.05018,70.6333
46.41588833612777,3820752.0,-9.369988,70.6333
100.0,1223577.0,-54.94706,70.626
215.44346900318823,835728.6,-156.3093,70.6155
464.15888336127773,512908.6,116.3932,70.6162
1000.0,392311.3,52.90414,70.6177
2154.4346900318824,291311.0,-92.88983,70.6347
4641.588833612777,129765.2,-92.93238,70.6146
10000.0,54255.4,-80.92949,70.6319
