Frequency,Impedance,Phase Angle,Temperature (Dry Bath)
10.0,22521850.0,-10.64241,67.1986
21.5,25473670.0,-30.10859,67.2029
46.4,20109230.0,-53.34023,67.1999
100.0,3715077.0,-37.67642,67.2034
215.4,3839198.0,-102.5753,67.2068
464.2,2610664.0,-85.83236,67.212
1000.0,1094882.0,-83.67994,67.2039
2154.4,591360.9,-88.34457,67.2352
4641.6,271426.8,-86.03323,67.2173
10000.0,128729.8,-86.94379,67.2143
