Frequency,Impedance,Phase Angle,Temperature (Dry Bath)
10.0,4831763.0,15.74794,71.4768
21.544346900318832,8440560.0,-37.17631,71.4832
46.41588833612777,5116347.0,-25.82971,71.4801
100.0,647295.4,34.57677,71.4857
215.44346900318823,5637964.0,-82.00323,71.4826
464.15888336127773,678677.3,-106.7538,71.4745
1000.0,167300.3,-46.32855,71.4878
2154.4346900318824,262190.8,-71.29855,71.4806
4641.588833612777,145556.5,-82.66021,71.4752
10000.0,81331.28,-84.31993,71.4705
