Frequency,Impedance,Phase Angle,Temperature (Dry Bath)
10.0,6471.98,-43.00249,70.9851
21.544346900318832,4603.701,-36.51645,70.983
46.41588833612777,3493.262,-30.09559,70.9837
100.0,2805.529,-24.86432,70.9729
215.44346900318823,2347.557,-20.45658,70.9752
464.15888336127773,2028.15,-17.1332,70.9824
1000.0,1775.081,-14.91208,70.9798
2154.4346900318824,1587.033,-12.94086,70.9824
4641.588833612777,1437.403,-11.13927,70.9628
10000.0,1326.819,-9.908916,70.9797
