Frequency,Impedance,Phase Angle,Temperature (Dry Bath)
10.0,1166147.0,-10.59284,67.9087
21.5,1082307.0,-10.69175,67.9151
46.4,1010155.0,-11.59965,67.9153
100.0,866309.8,-13.6058,67.8996
215.4,841753.4,-15.55873,67.8992
464.2,724888.1,-28.71662,67.9243
1000.0,532061.8,-32.68662,67.9057
2154.4,397592.7,-44.43257,67.9187
4641.6,257749.2,-55.7162,67.9142
10000.0,156060.5,-73.75409,67.9165
