Frequency,Impedance,Phase Angle,Temperature (Dry Bath)
10.0,3708522.0,-14.41164,71.4718
21.544346900318832,5875893.0,-39.79152,71.4648
46.41588833612777,4486569.0,-12.73331,71.4777
100.0,1160601.0,77.43853,71.4814
215.44346900318823,1597459.0,-34.96284,71.4728
464.15888336127773,1693950.0,12.95058,71.4967
1000.0,1512762.0,-74.25115,71.4909
2154.4346900318824,371071.1,-93.71639,71.4749
4641.588833612777,272032.4,-95.77712,71.4809
10000.0,118616.9,-90.02318,71.4842
