Frequency,Impedance,Phase Angle,Temperature (Dry Bath)
10.0,56230.54,-14.76414,70.9406
21.544346900318832,50232.98,-13.34222,70.9252
46.41588833612777,45410.18,-12.43099,70.9372
100.0,40042.9,-9.53401,70.9338
215.44346900318823,39335.45,-14.13069,70.9298
464.15888336127773,35907.63,-15.8405,70.9249
1000.0,31857.16,-13.66603,70.9273
2154.4346900318824,28317.37,-18.91787,70.9209
4641.588833612777,23899.12,-21.45985,70.9271
10000.0,20461.58,-31.67966,70.9241
