Frequency,Impedance,Phase Angle,Temperature (Dry Bath)
10.0,23441.74,-21.18427,66.1643
21.544346900318832,19825.19,-18.27249,66.1792
46.41588833612777,17208.38,-15.56735,66.1758
100.0,15572.91,-13.81684,66.1695
215.44346900318823,13537.66,-7.749456,66.164
464.15888336127773,13201.67,-9.806113,66.1612
1000.0,11973.67,-8.747223,66.1513
2154.4346900318824,11472.52,-8.270402,66.1573
4641.588833612777,10893.2,-10.43019,66.159
10000.0,10135.99,-15.28666,66.1676
