Frequency,Impedance,Phase Angle,Temperature (Dry Bath)
10.0,5304.91,-35.25404,70.4561
21.544346900318832,4021.881,-29.57291,70.4731
46.41588833612777,3229.649,-24.16196,70.4619
100.0,2696.735,-19.69447,70.4467
215.44346900318823,2366.535,-15.94533,70.4649
464.15888336127773,2100.859,-13.61921,70.4635
1000.0,1900.711,-11.37794,70.4879
2154.4346900318824,1745.392,-9.739135,70.4738
4641.588833612777,1631.114,-8.504038,70.4724
10000.0,1542.661,-8.123124,70.4709
