Frequency,Impedance,Phase Angle,Temperature (Dry Bath)
10.0,30453630.0,-14.9021,67.2618
21.5,24650530.0,-32.06583,67.2735
46.4,16067140.0,-56.72019,67.2424
100.0,3705396.0,-97.91061,67.2592
215.4,339667.0,138.5675,67.2643
464.2,2766931.0,-57.35889,67.2659
1000.0,1179322.0,-76.42645,67.2509
2154.4,585411.6,-82.89021,67.2432
4641.6,279604.2,-86.77803,67.2373
10000.0,134681.2,-85.85226,67.2338
