Frequency,Impedance,Phase Angle,Temperature (Dry Bath)
10.0,13921860.0,-9.587506,68.2301
21.5,17847030.0,-21.20843,68.2335
46.4,14492470.0,-35.16845,68.2206
100.0,11397470.0,-14.89908,68.2233
215.4,4362541.0,-60.2337,68.2148
464.2,1893010.0,-74.12192,68.2282
1000.0,867064.9,-79.56251,68.2191
2154.4,424374.5,-80.87319,68.2067
4641.6,234778.7,-79.26937,68.2115
10000.0,117366.9,-87.03253,68.2123
