Frequency,Impedance,Phase Angle,Temperature (Dry Bath)
10.0,22936.58,-21.43643,66.362
21.544346900318832,19308.72,-18.4604,66.3665
46.41588833612777,16764.81,-15.44563,66.3664
100.0,15121.07,-13.70437,66.3807
215.44346900318823,13404.12,-8.310827,66.3685
464.15888336127773,12706.66,-8.854672,66.3624
1000.0,11919.4,-8.541448,66.3653
2154.4346900318824,11309.66,-8.234251,66.3609
4641.588833612777,10823.46,-10.31956,66.3735
10000.0,10313.4,-15.15523,66.3709
