Frequency,Impedance,Phase Angle,Temperature (Dry Bath)
10.0,9957.527,-25.75566,70.61
21.544346900318832,8119.363,-22.5429,70.6083
46.41588833612777,6804.362,-19.62089,70.5923
100.0,5912.599,-17.25968,70.6169
215.44346900318823,5194.115,-14.74092,70.6044
464.15888336127773,4633.147,-12.50888,70.5981
1000.0,4225.472,-11.24915,70.6248
2154.4346900318824,3879.042,-9.955288,70.6127
4641.588833612777,3638.834,-9.097754,70.6032
10000.0,3436.376,-10.42116,70.6124
