Frequency,Impedance,Phase Angle,Temperature (Dry Bath)
10.0,158864.7,-8.090147,67.4486
21.5,150897.7,-7.340398,67.4649
46.4,144266.3,-7.585105,67.4437
100.0,137870.4,-6.758896,67.4506
215.4,134896.5,-9.936313,67.4461
464.2,122179.2,-11.15031,67.4504
1000.0,112030.9,-16.65324,67.4363
2154.4,95502.11,-23.88381,67.4521
4641.6,76193.17,-34.18849,67.4467
10000.0,55018.83,-44.3979,67.4464
