Frequency,Impedance,Phase Angle,Temperature (Dry Bath)
10.0,29503480.0,-18.22059,68.1299
21.5,34413770.0,-58.82255,68.13
46.4,29420850.0,-52.01362,68.1318
100.0,9250703.0,-53.17068,68.1112
215.4,3881045.0,-77.94772,68.1241
464.2,1938700.0,-78.23842,68.1271
1000.0,1234653.0,-80.1461,68.1241
2154.4,496273.6,-78.76411,68.1277
4641.6,254393.8,-85.0124,68.1231
10000.0,118906.0,-90.84636,68.1341
