Frequency,Impedance,Phase Angle,Temperature (Dry Bath)
10.0,2798568.0,-22.14178,71.2162
21.544346900318832,3940716.0,0.4935657,71.207
46.41588833612777,3842851.0,-33.43947,71.2012
100.0,375509.6,147.0116,71.2167
215.44346900318823,2059536.0,-11.42857,71.2097
464.15888336127773,248277.7,-26.32737,71.2076
1000.0,354859.1,-93.38302,71.2099
2154.4346900318824,229025.0,-99.38125,71.2196
4641.588833612777,112488.9,-89.03593,71.2056
10000.0,48305.51,-91.32094,71.2094
