Frequency,Impedance,Phase Angle,Temperature (Dry Bath)
10.0,22460670.0,-7.950493,68.007
21.5,19140930.0,-44.53109,68.007
46.4,16842000.0,-58.1347,68.007
100.0,4832331.0,-37.4841,68.007
215.4,3896246.0,-80.51086,68.007
464.2,1964502.0,-73.96063,68.007
1000.0,988209.1,-82.63196,68.007
2154.4,490663.0,-77.97164,68.007
4641.6,282847.4,-81.58772,68.007
10000.0,133986.3,-90.46399,68.007
