Frequency,Impedance,Phase Angle,Temperature (Dry Bath)
10.0,18133070.0,-8.543524,68.1367
21.5,16998020.0,-23.01844,68.1367
46.4,21662560.0,-52.02547,68.1367
100.0,9458789.0,-68.22693,68.1367
215.4,3948820.0,-76.31678,68.1367
464.2,2001789.0,-84.99401,68.1367
1000.0,1135690.0,-92.59376,68.1367
2154.4,503047.3,-85.87503,68.1367
4641.6,239040.4,-88.09237,68.1367
10000.0,118021.6,-93.37303,68.1367
