Frequency,Impedance,Phase Angle,Temperature (Dry Bath)
10.0,21022200.0,-23.16417,67.3208
21.5,21164760.0,-38.31253,67.3144
46.4,16520310.0,-91.46456,67.2871
100.0,6212011.0,-24.49939,67.3115
215.4,1272098.0,-4.367567,67.3033
464.2,1819485.0,-78.4706,67.3168
1000.0,777335.6,-80.9061,67.2952
2154.4,440482.3,-77.32875,67.3127
4641.6,225523.0,-75.31475,67.3061
10000.0,115734.4,-81.32346,67.3242
