Frequency,Impedance,Phase Angle,Temperature (Dry Bath)
10.0,19822080.0,-26.98362,68.265
21.5,24064510.0,-29.09925,68.253
46.4,14224350.0,-58.56544,68.249
100.0,4221981.0,-75.75907,68.2545
215.4,4540158.0,-72.4856,68.2449
464.2,2592933.0,-88.45147,68.2663
1000.0,1137685.0,-82.21045,68.2486
2154.4,497014.4,-79.02923,68.2371
4641.6,297013.4,-80.936,68.255
10000.0,148264.8,-88.26526,68.2527
