Frequency,Impedance,Phase Angle,Temperature (Dry Bath)
10.0,25738930.0,-15.16442,67.4773
21.5,18200070.0,-39.16825,67.4808
46.4,14634360.0,-64.05906,67.482
100.0,1794709.0,-153.0874,67.4728
215.4,139324.0,80.95049,67.4796
464.2,1541877.0,-71.46289,67.4723
1000.0,880522.5,-74.49196,67.4808
2154.4,472532.4,-84.21935,67.4786
4641.6,232516.2,-81.77246,67.4846
10000.0,109402.0,-84.51198,67.4809
