Frequency,Impedance,Phase Angle,Temperature (Dry Bath)
10.0,6519331.0,11.90285,66.1201
21.544346900318832,4844193.0,-17.75408,66.1286
46.41588833612777,4857135.0,-6.452378,66.1292
100.0,294369.8,27.40651,66.1153
215.44346900318823,287461.1,-102.2802,66.1097
464.15888336127773,759557.1,-68.27867,66.1193
1000.0,505435.6,-89.34973,66.1242
2154.4346900318824,260291.7,-76.26718,66.1214
4641.588833612777,108502.8,-86.31956,66.1235
10000.0,55868.7,-86.73884,66.1232
