Frequency,Impedance,Phase Angle,Temperature (Dry Bath)
10.0,42625790.0,-27.21356,67.9336
21.5,43589310.0,-26.83237,67.9368
46.4,21443090.0,-67.22998,67.9267
100.0,5438876.0,-44.79329,67.9386
215.4,3154031.0,-63.02381,67.9289
464.2,1547246.0,-79.31743,67.9381
1000.0,1026791.0,-78.18828,67.9416
2154.4,539357.1,-80.64023,67.9402
4641.6,289890.4,-87.28569,67.9465
10000.0,139388.7,-87.21747,67.9396
