Frequency,Impedance,Phase Angle,Temperature (Dry Bath)
10.0,4876486.0,-6.450976,71.2728
21.544346900318832,3305797.0,-9.676403,71.2721
46.41588833612777,4631339.0,-32.16906,71.2677
100.0,894550.1,-83.21773,71.2621
215.44346900318823,622829.8,-173.4863,71.2669
464.15888336127773,894316.8,-47.8051,71.2895
1000.0,433893.0,-32.74109,71.2717
2154.4346900318824,213178.6,-84.89278,71.2855
4641.588833612777,127040.4,-80.20501,71.2642
10000.0,58063.72,-90.9483,71.2807
