Frequency,Impedance,Phase Angle,Temperature (Dry Bath)
10.0,127926.2,-24.64359,67.1893
21.5,106365.9,-21.7041,67.1846
46.4,91799.44,-18.57749,67.1898
100.0,80904.85,-15.28434,67.1971
215.4,73340.28,-13.73472,67.1947
464.2,66224.49,-13.12501,67.1849
1000.0,61375.05,-14.53958,67.1833
2154.4,55615.28,-17.44744,67.1855
4641.6,48991.69,-25.10725,67.1727
10000.0,39702.67,-36.73461,67.1836
