Frequency,Impedance,Phase Angle,Temperature (Dry Bath)
10.0,5118506.0,-1.109752,65.6905
21.544346900318832,3282664.0,-22.9363,65.6905
46.41588833612777,6048767.0,-83.05219,65.6969
100.0,1904289.0,-66.19467,65.6917
215.44346900318823,40741.96,83.16476,65.6909
464.15888336127773,1007644.0,-86.90738,65.7026
1000.0,308432.2,-68.00053,65.7036
2154.4346900318824,212660.2,-81.13827,65.6877
4641.588833612777,219244.3,-99.4167,65.707
10000.0,71948.25,-87.54742,65.6826
