Frequency,Impedance,Phase Angle,Temperature (Dry Bath)
10.0,117684.8,-9.458924,67.4018
21.5,110128.3,-8.44218,67.4032
46.4,105741.3,-8.844921,67.4052
100.0,102000.0,-9.334372,67.4069
215.4,108029.5,-15.80177,67.3856
464.2,88729.56,-12.23305,67.4243
1000.0,78065.83,-16.38846,67.4102
2154.4,70378.15,-20.28546,67.4026
4641.6,56542.81,-29.15105,67.416
10000.0,43917.88,-37.86648,67.4165
