Frequency,Impedance,Phase Angle,Temperature (Dry Bath)
10.0,161440.8,-8.683414,65.755
21.544346900318832,151581.1,-6.968066,65.7506
46.41588833612777,144264.1,-7.74402,65.7552
100.0,137686.4,-3.957787,65.7428
215.44346900318823,9131.518,-1.418185,65.7573
464.15888336127773,129271.6,-2.325771,65.7618
1000.0,100646.3,-21.38119,65.7545
2154.4346900318824,89211.91,-22.32148,65.7593
4641.588833612777,70047.77,-46.44643,65.7431
10000.0,48246.24,-64.29898,65.7454
