Frequency,Impedance,Phase Angle,Temperature (Dry Bath)
10.0,23972760.0,-0.8977217,68.176
21.5,22024440.0,-15.57929,68.176
46.4,13286990.0,-50.45267,68.1738
100.0,6680210.0,-44.1512,68.1691
215.4,3586876.0,-71.82969,68.185
464.2,1588352.0,-69.15643,68.1737
1000.0,847170.2,-76.31715,68.1594
2154.4,507795.5,-76.84486,68.1676
4641.6,260120.2,-84.95028,68.1861
10000.0,146562.0,-90.0932,68.1752
