Frequency,Impedance,Phase Angle,Temperature (Dry Bath)
10.0,137003.0,-25.56396,67.0899
21.5,112704.7,-22.48087,67.0635
46.4,96915.27,-19.35625,67.067
100.0,84660.73,-16.38405,67.0959
215.4,75155.15,-15.76311,67.0677
464.2,69113.65,-14.36541,67.0903
1000.0,62216.14,-14.92103,67.0808
2154.4,56851.72,-18.6571,67.0587
4641.6,49067.02,-26.36922,67.0795
10000.0,39396.12,-37.20621,67.066
