Frequency,Impedance,Phase Angle,Temperature (Dry Bath)
10.0,3317599.0,17.25346,66.5
21.544346900318832,3318510.0,-6.631071,66.5
46.41588833612777,4024216.0,-8.73078,66.5
100.0,4556039.0,-70.68716,66.5
215.44346900318823,2667476.0,6.975152,66.5
464.15888336127773,4715221.0,-24.43865,66.5
1000.0,3122528.0,-22.86563,66.5
2154.4346900318824,6859396.0,70.95099,66.5
4641.588833612777,2191238.0,-44.51581,66.5
10000.0,2166034.0,-80.08984,66.5
