Frequency,Impedance,Phase Angle,Temperature (Dry Bath)
10.0,24659920.0,-12.60062,67.0993
21.5,28962270.0,-38.64981,67.1137
46.4,14006620.0,-71.30381,67.1134
100.0,4215906.0,-44.35086,67.0981
215.4,343235.3,29.75468,67.1121
464.2,1575660.0,-71.73455,67.1278
1000.0,1050958.0,-83.04723,67.1161
2154.4,453473.0,-84.98416,67.1322
4641.6,236628.9,-79.51224,67.1154
10000.0,119291.6,-79.57462,67.1298
