Frequency,Impedance,Phase Angle,Temperature (Dry Bath)
10.0,40013790.0,-1.508471,67.2958
21.5,26085540.0,-37.3269,67.306
46.4,21011810.0,-42.52072,67.2906
100.0,9371232.0,-35.10967,67.2952
215.4,2394918.0,-92.46616,67.3152
464.2,2778660.0,-57.74586,67.299
1000.0,1307582.0,-82.35264,67.3145
2154.4,669777.9,-87.51443,67.2735
4641.6,274762.0,-85.89804,67.297
10000.0,132268.6,-88.02283,67.3129
