Frequency,Impedance,Phase Angle,Temperature (Dry Bath)
10.0,15738.9,-29.46685,70.8458
21.544346900318832,12448.44,-26.76262,70.8362
46.41588833612777,10067.41,-24.38041,70.8329
100.0,8380.096,-21.62293,70.8472
215.44346900318823,6933.524,-18.95023,70.8305
464.15888336127773,6038.87,-16.35226,70.8342
1000.0,5454.842,-12.12593,70.834
2154.4346900318824,4913.066,-11.45667,70.8118
4641.588833612777,4603.567,-10.40301,70.833
10000.0,4265.252,-10.84938,70.8302
