Frequency,Impedance,Phase Angle,Temperature (Dry Bath)
10.0,19945970.0,-35.45429,68.2187
21.5,21604750.0,-51.28552,68.2152
46.4,21507640.0,-55.18186,68.2171
100.0,5522017.0,-13.95167,68.1903
215.4,6711812.0,-59.62569,68.2065
464.2,1911616.0,-70.98264,68.2121
1000.0,981638.9,-73.29755,68.2191
2154.4,494498.5,-78.63027,68.2165
4641.6,270214.6,-84.28894,68.2073
10000.0,138563.9,-90.42112,68.2109
