Frequency,Impedance,Phase Angle,Temperature (Dry Bath)
10.0,29978110.0,-27.09278,67.3037
21.5,21463380.0,-38.26312,67.3131
46.4,14160700.0,-62.58095,67.3121
100.0,3692107.0,-79.88399,67.3059
215.4,185729.9,-112.1916,67.3019
464.2,2193475.0,-83.6486,67.3057
1000.0,873259.3,-89.24531,67.2951
2154.4,486095.4,-83.20038,67.2987
4641.6,233432.3,-84.91433,67.3068
10000.0,113875.1,-84.24103,67.3174
