Frequency,Impedance,Phase Angle,Temperature (Dry Bath)
10.0,2637695.0,-13.22757,67.3863
21.5,2473296.0,-10.90681,67.3977
46.4,2340527.0,-16.98147,67.3889
100.0,2364897.0,-10.49465,67.3966
215.4,299870.2,-18.01074,67.3986
464.2,1225656.0,-34.30471,67.3787
1000.0,826304.1,-54.57583,67.3827
2154.4,471540.1,-61.73842,67.3826
4641.6,268644.0,-68.45947,67.3779
10000.0,146608.7,-73.70298,67.3792
