Frequency,Impedance,Phase Angle,Temperature (Dry Bath)
10.0,26231340.0,-29.42315,68.0058
21.5,19393380.0,-37.05809,67.9853
46.4,11238520.0,-62.02931,67.9942
100.0,7323706.0,-37.69059,67.9761
215.4,2812882.0,-65.62894,67.9807
464.2,2037283.0,-70.13533,67.9824
1000.0,860143.1,-78.82308,68.0025
2154.4,530867.9,-76.92784,67.9817
4641.6,273420.9,-80.42673,68.001
10000.0,138267.2,-96.31379,68.008
