Frequency,Impedance,Phase Angle,Temperature (Dry Bath)
10.0,41952240.0,-26.02524,68.0654
21.5,21777420.0,-32.0773,68.0509
46.4,20952570.0,-53.19043,68.0605
100.0,4258439.0,-30.94259,68.0698
215.4,4591139.0,-47.4231,68.0485
464.2,2798326.0,-70.45618,68.0738
1000.0,1085253.0,-81.23369,68.0574
2154.4,505879.6,-83.72733,68.0513
4641.6,265663.0,-84.75994,68.0663
10000.0,119145.8,-91.18935,68.0725
