Frequency,Impedance,Phase Angle,Temperature (Dry Bath)
10.0,5220566.0,-18.28797,65.6704
21.544346900318832,5059739.0,-20.9095,65.6742
46.41588833612777,3549589.0,-15.90149,65.6816
100.0,763397.2,-73.30599,65.6682
215.44346900318823,42773.14,84.46375,65.6721
464.15888336127773,798882.4,-101.1758,65.6522
1000.0,539893.6,-78.61624,65.6675
2154.4346900318824,298064.7,-85.94808,65.6726
4641.588833612777,137260.7,-81.8411,65.6502
10000.0,63493.37,-83.0348,65.6586
