Frequency,Impedance,Phase Angle,Temperature (Dry Bath)
10.0,23787.26,-21.08213,71.3368
21.544346900318832,20120.5,-18.25888,71.3445
46.41588833612777,17457.98,-15.56354,71.3435
100.0,15922.94,-10.35514,71.3503
215.44346900318823,14113.02,-12.12862,71.3395
464.15888336127773,12992.34,-9.973962,71.3284
1000.0,12005.41,-8.637787,71.3359
2154.4346900318824,11385.71,-10.06595,71.3398
4641.588833612777,10845.57,-15.19589,71.3451
10000.0,9836.704,-21.81855,71.345
