Frequency,Impedance,Phase Angle,Temperature (Dry Bath)
10.0,36244320.0,-13.01841,68.1709
21.5,48418880.0,-29.30036,68.168
46.4,14213650.0,-39.66028,68.1653
100.0,7681921.0,-25.0756,68.1568
215.4,5544798.0,-73.27187,68.1578
464.2,4138782.0,-89.50315,68.1676
1000.0,1306687.0,-73.8181,68.1691
2154.4,624631.0,-87.00341,68.1651
4641.6,332643.6,-87.45213,68.1471
10000.0,146543.6,-96.08637,68.1908
