Frequency,Impedance,Phase Angle,Temperature (Dry Bath)
10.0,29655800.0,-31.75891,67.0769
21.5,26037670.0,-45.1886,67.1033
46.4,13090390.0,-60.34048,67.0987
100.0,3481824.0,-54.52434,67.0895
215.4,3250389.0,-68.38901,67.089
464.2,1571254.0,-71.50365,67.1127
1000.0,814607.1,-85.93868,67.093
2154.4,439767.1,-81.66797,67.0999
4641.6,219808.0,-84.83014,67.1012
10000.0,111312.3,-83.72176,67.0975
