Frequency,Impedance,Phase Angle,Temperature (Dry Bath)
10.0,12291.67,-7.88533,66.9123
21.5,11776.53,-4.862923,66.9066
46.4,11602.4,-4.502284,66.9057
100.0,11583.03,-5.422895,66.9163
215.4,11205.97,-9.950651,66.9074
464.2,11247.45,-5.886264,66.9163
1000.0,10879.58,-5.698997,66.9187
2154.4,10550.19,-5.901706,66.9183
4641.6,10251.33,-7.072703,66.9287
10000.0,9924.939,-9.935173,66.9335
