Frequency,Impedance,Phase Angle,Temperature (Dry Bath)
10.0,29602890.0,-6.454675,67.8135
21.5,24188990.0,-45.30407,67.8121
46.4,26675680.0,-60.8325,67.8291
100.0,4782673.0,-60.20028,67.8308
215.4,3332598.0,-56.24016,67.8318
464.2,2332395.0,-71.25527,67.8316
1000.0,1038600.0,-79.30577,67.8482
2154.4,511709.0,-80.60321,67.8397
4641.6,274293.7,-81.21785,67.8341
10000.0,127337.9,-89.56017,67.8305
