Frequency,Impedance,Phase Angle,Temperature (Dry Bath)
10.0,3603146.0,-14.09576,71.2299
21.544346900318832,5162614.0,-0.8653939,71.2368
46.41588833612777,6808705.0,-28.75569,71.2284
100.0,868853.7,-97.4457,71.2321
215.44346900318823,499855.2,-67.90473,71.2371
464.15888336127773,839993.2,-87.16715,71.236
1000.0,553595.5,-80.37836,71.2224
2154.4346900318824,346462.9,-85.34086,71.2249
4641.588833612777,134349.6,-87.21111,71.2218
10000.0,57636.17,-88.67083,71.2084
