Frequency,Impedance,Phase Angle,Temperature (Dry Bath)
10.0,1283924.0,-10.4217,67.7314
21.5,1154271.0,-10.61922,67.7251
46.4,1022673.0,-12.78441,67.7308
100.0,925709.7,-16.39376,67.7185
215.4,810451.9,-21.93799,67.7159
464.2,681594.5,-28.66546,67.7011
1000.0,529646.3,-39.92737,67.7401
2154.4,353057.7,-49.21676,67.7147
4641.6,213715.0,-63.17503,67.7331
10000.0,137596.6,-73.52967,67.7294
