Frequency,Impedance,Phase Angle,Temperature (Dry Bath)
10.0,130777.2,-20.46877,67.8462
21.5,112963.2,-18.51913,67.8593
46.4,101119.2,-16.93646,67.8565
100.0,88769.82,-15.13067,67.8565
215.4,83764.47,-15.33843,67.8525
464.2,76324.18,-14.57847,67.8596
1000.0,69793.05,-16.12588,67.8565
2154.4,61563.15,-19.13633,67.8495
4641.6,53750.2,-25.24647,67.8529
10000.0,44786.52,-37.61808,67.8678
