Frequency,Impedance,Phase Angle,Temperature (Dry Bath)
10.0,20670690.0,-21.85017,17.6186
21.5,25896770.0,-36.2314,17.6071
46.4,22685940.0,-54.10413,17.5808
100.0,7069955.0,-83.16791,17.6121
215.4,4127216.0,-69.50481,17.6058
464.2,2059590.0,-69.13717,17.6159
1000.0,1177571.0,-78.53937,17.6193
2154.4,590709.7,-84.39133,17.6275
4641.6,289977.9,-86.42399,17.604
10000.0,145589.9,-95.02299,17.6
