Frequency,Impedance,Phase Angle,Temperature (Dry Bath)
10.0,582959.7,-11.60189,68.3078
21.5,541384.6,-11.28288,68.2949
46.4,495344.0,-11.70922,68.3072
100.0,421855.3,-14.16201,68.288
215.4,400130.5,-17.26226,68.2986
464.2,351345.7,-22.14905,68.3048
1000.0,292064.9,-29.83322,68.3024
2154.4,226695.5,-37.57266,68.3081
4641.6,163367.7,-49.01359,68.3049
10000.0,105286.3,-60.07805,68.306
