Frequency,Impedance,Phase Angle,Temperature (Dry Bath)
10.0,12266.05,-8.204584,67.376
21.5,11688.98,-4.792719,67.384
46.4,11535.05,-4.692565,67.3656
100.0,11435.24,-4.878467,67.3821
215.4,11985.97,-3.187027,67.3894
464.2,11195.43,-5.749777,67.3901
1000.0,10847.48,-5.747368,67.3931
2154.4,10513.22,-5.855793,67.3766
4641.6,10176.44,-6.709088,67.3846
10000.0,9856.411,-9.73685,67.3881
