Frequency,Impedance,Phase Angle,Temperature (Dry Bath)
10.0,4100777.0,-14.76982,71.2147
21.544346900318832,3834862.0,-21.09027,71.2139
46.41588833612777,5424995.0,-14.45414,71.2404
100.0,705444.5,20.9367,71.2258
215.44346900318823,417936.0,-59.32908,71.2494
464.15888336127773,797269.7,-99.87192,71.2269
1000.0,397684.0,-89.32472,71.2524
2154.4346900318824,278981.8,-70.79964,71.2463
4641.588833612777,136174.2,-91.74938,71.2407
10000.0,62570.38,-90.12273,71.2609
