Frequency,Impedance,Phase Angle,Temperature (Dry Bath)
10.0,10908.87,-25.78934,71.4657
21.544346900318832,8886.626,-22.80825,71.4548
46.41588833612777,7421.239,-20.02462,71.4313
100.0,6416.698,-16.94152,71.4496
215.44346900318823,5541.083,-15.27013,71.448
464.15888336127773,4989.958,-13.12935,71.4481
1000.0,4471.627,-11.31985,71.4582
2154.4346900318824,4124.265,-9.985539,71.4459
4641.588833612777,3834.65,-9.016935,71.4497
10000.0,3654.933,-10.62468,71.4547
