Frequency,Impedance,Phase Angle,Temperature (Dry Bath)
10.0,5963363.0,17.08547,71.2502
21.544346900318832,4113264.0,-15.82833,71.2589
46.41588833612777,3423370.0,-52.43047,71.2605
100.0,381323.5,-97.88346,71.2396
215.44346900318823,12096.5,5.664605,71.2422
464.15888336127773,553582.8,-66.79093,71.242
1000.0,608466.4,-77.79026,71.2472
2154.4346900318824,228660.2,-72.89089,71.2546
4641.588833612777,121396.6,-82.04098,71.247
10000.0,61025.96,-81.45128,71.2459
