Frequency,Impedance,Phase Angle,Temperature (Dry Bath)
10.0,163544.9,-9.928091,66.2494
21.544346900318832,152777.3,-8.382508,66.242
46.41588833612777,143491.4,-8.13742,66.2462
100.0,98974.36,3.797908,66.2348
215.44346900318823,121047.1,-5.666404,66.2502
464.15888336127773,84062.71,-14.88731,66.2383
1000.0,126184.7,-2.249069,66.2351
2154.4346900318824,99636.65,-20.91835,66.2477
4641.588833612777,83324.07,-44.68993,66.2322
10000.0,42742.03,-60.77021,66.2385
