Frequency,Impedance,Phase Angle,Temperature (Dry Bath)
10.0,19338.95,-19.66649,67.9937
21.5,16635.17,-16.24945,67.9991
46.4,14776.45,-12.86735,67.9995
100.0,13236.04,-10.29217,68.0002
215.4,12659.16,-7.225746,68.0204
464.2,12073.53,-5.816051,67.9996
1000.0,11505.94,-5.871365,68.0069
2154.4,11456.95,-5.411243,67.9873
4641.6,10766.19,-7.482536,68.0019
10000.0,10340.97,-10.71252,68.017
