Frequency,Impedance,Phase Angle,Temperature (Dry Bath)
10.0,140377.7,-5.788202,67.2296
21.5,135147.4,-4.665354,67.2147
46.4,131625.9,-4.106277,67.2406
100.0,126044.9,-4.986864,67.2408
215.4,175731.1,-13.76835,67.2341
464.2,120443.0,-7.127444,67.2404
1000.0,115758.6,-12.26754,67.2382
2154.4,107669.5,-19.72254,67.2386
4641.6,90654.21,-34.8194,67.2469
10000.0,62983.44,-50.94436,67.2329
