Frequency,Impedance,Phase Angle,Temperature (Dry Bath)
10.0,8010723.0,12.0382,71.3447
21.544346900318832,4159648.0,-13.58709,71.345
46.41588833612777,4242019.0,-25.04465,71.3472
100.0,573487.0,32.03226,71.3461
215.44346900318823,819685.2,-81.20792,71.3527
464.15888336127773,1354043.0,-51.66666,71.3525
1000.0,608020.6,-104.1702,71.3626
2154.4346900318824,221816.3,-79.35675,71.3412
4641.588833612777,140293.1,-79.63129,71.351
10000.0,62098.91,-87.14822,71.3577
