Frequency,Impedance,Phase Angle,Temperature (Dry Bath)
10.0,355709.2,-24.09632,71.1923
21.544346900318832,288605.2,-23.65735,71.1975
46.41588833612777,247140.7,-20.41192,71.1925
100.0,220257.0,-24.95544,71.1894
215.44346900318823,201247.3,-31.22996,71.1723
464.15888336127773,180642.7,-20.4747,71.2008
1000.0,126216.3,-27.10017,71.1912
2154.4346900318824,105069.0,-35.01155,71.1919
4641.588833612777,66314.0,-48.03669,71.1973
10000.0,46365.46,-67.79806,71.1847
