Frequency,Impedance,Phase Angle,Temperature (Dry Bath)
10.0,576311.9,-11.181,68.1511
21.5,532779.1,-10.89646,68.1548
46.4,495595.0,-11.66889,68.1245
100.0,430561.3,-13.19643,68.1282
215.4,400276.2,-17.83443,68.1261
464.2,350070.2,-21.79595,68.1301
1000.0,280009.0,-30.02753,68.1293
2154.4,227332.8,-37.17085,68.1317
4641.6,162574.0,-47.68908,68.1306
10000.0,111698.0,-59.81661,68.1308
