Frequency,Impedance,Phase Angle,Temperature (Dry Bath)
10.0,156328.7,-6.415816,68.0301
21.5,150340.4,-5.297572,68.024
46.4,145669.3,-4.90722,68.0489
100.0,137614.5,-4.666164,68.0361
215.4,134149.2,-7.324345,68.0397
464.2,130088.1,-9.390675,68.0531
1000.0,125128.0,-13.60356,68.0327
2154.4,116292.4,-20.47664,68.029
4641.6,98134.68,-32.18631,68.0295
10000.0,72989.78,-54.17086,68.0308
