Frequency,Impedance,Phase Angle,Temperature (Dry Bath)
10.0,46199860.0,-38.43559,67.8526
21.5,59922520.0,-37.79218,67.8452
46.4,27520210.0,-59.72633,67.8476
100.0,4141385.0,-54.25461,67.8382
215.4,4421109.0,-94.91197,67.8435
464.2,2064172.0,-82.68603,67.8463
1000.0,1087722.0,-83.1416,67.8511
2154.4,586023.1,-88.73252,67.8406
4641.6,291243.4,-79.28509,67.8489
10000.0,149679.7,-87.61596,67.8499
