Frequency,Impedance,Phase Angle,Temperature (Dry Bath)
10.0,277995.1,-9.162146,67.1509
21.5,262334.2,-7.843102,67.1567
46.4,250751.6,-8.075226,67.1667
100.0,239845.0,-8.513813,67.1455
215.4,179322.1,13.86972,67.1508
464.2,212974.2,-13.81625,67.1622
1000.0,193723.7,-21.06183,67.1495
2154.4,156565.9,-35.6061,67.1359
4641.6,107182.8,-48.87774,67.1456
10000.0,63653.12,-59.95528,67.1437
