Frequency,Impedance,Phase Angle,Temperature (Dry Bath)
10.0,22057880.0,-14.66465,67.9674
21.5,18916940.0,-39.89094,67.983
46.4,24354520.0,-48.85399,67.9879
100.0,6194296.0,-34.36124,67.9809
215.4,5273498.0,-74.92888,67.9705
464.2,4058182.0,-81.84467,67.9503
1000.0,1455034.0,-82.30022,67.9743
2154.4,632720.1,-89.68908,67.9732
4641.6,307882.5,-91.76776,67.9922
10000.0,153253.6,-101.0311,67.9671
