Frequency,Impedance,Phase Angle,Temperature (Dry Bath)
10.0,2679621.0,-4.093345,28.8617
21.544346900318832,2972342.0,-22.27595,28.8476
46.41588833612777,2386212.0,-19.96111,28.7849
100.0,451945.4,20.04105,28.84
215.44346900318823,1220992.0,-31.70547,28.7997
464.15888336127773,359884.8,-165.9585,28.9511
1000.0,403360.3,-100.7834,28.873
2154.4346900318824,615518.1,-100.6601,28.9628
4641.588833612777,253091.9,-62.37416,28.8351
10000.0,94567.77,-84.47483,29.0154
