Frequency,Impedance,Phase Angle,Temperature (Dry Bath)
10.0,154855.3,-10.80177,71.4108
21.544346900318832,146928.2,-9.005308,71.4028
46.41588833612777,138284.8,-7.767068,71.414
100.0,114841.5,-2.397069,71.4167
215.44346900318823,14197.82,20.13565,71.4193
464.15888336127773,106583.2,-10.8204,71.4044
1000.0,103048.2,-20.02587,71.4162
2154.4346900318824,96530.62,-26.58833,71.4217
4641.588833612777,68934.39,-50.27932,71.4131
10000.0,45671.65,-61.48096,71.4183
