Frequency,Impedance,Phase Angle,Temperature (Dry Bath)
10.0,6233436.0,-6.835644,65.7129
21.544346900318832,4318611.0,-14.36981,65.7119
46.41588833612777,3896585.0,-15.16298,65.7242
100.0,628191.3,-104.6153,65.7
215.44346900318823,48809.13,82.96258,65.71
464.15888336127773,1268436.0,-118.9266,65.7137
1000.0,286518.3,-100.0205,65.7149
2154.4346900318824,255694.3,-94.58284,65.723
4641.588833612777,153270.8,-82.78975,65.7097
10000.0,70286.18,-87.39306,65.7134
