Frequency,Impedance,Phase Angle,Temperature (Dry Bath)
10.0,222946.9,-10.39359,66.6
21.544346900318832,212341.8,-12.11567,66.6
46.41588833612777,193407.0,-12.71105,66.6
100.0,234244.8,-13.90195,66.6
215.44346900318823,124891.0,-13.67459,66.6
464.15888336127773,131091.0,-18.83592,66.6
1000.0,139484.6,-21.84507,66.6
2154.4346900318824,122595.8,-10.42211,66.6
4641.588833612777,136908.7,-30.88068,66.6
10000.0,77254.67,-28.5813,66.6
