Frequency,Impedance,Phase Angle,Temperature (Dry Bath)
10.0,12277.3,-4.658268,67.0287
21.5,11964.68,-3.946468,67.0384
46.4,11659.17,-3.232891,67.0184
100.0,11507.44,-3.451467,67.0354
215.4,11451.16,-3.724368,67.0245
464.2,11224.2,-3.608495,67.028
1000.0,10937.12,-3.885001,67.0286
2154.4,10719.75,-4.52885,67.0085
4641.6,10481.82,-6.165585,67.0174
10000.0,10173.48,-9.709687,66.9949
