Frequency,Impedance,Phase Angle,Temperature (Dry Bath)
10.0,6734.472,-25.41987,70.3962
21.544346900318832,5517.553,-22.33846,70.3887
46.41588833612777,4654.748,-19.49967,70.3937
100.0,3992.127,-16.85652,70.3709
215.44346900318823,3536.0,-14.42448,70.3735
464.15888336127773,3182.188,-12.59235,70.3845
1000.0,2822.683,-11.12715,70.3639
2154.4346900318824,2672.803,-9.177337,70.3765
4641.588833612777,2494.434,-8.664853,70.374
10000.0,2359.976,-8.848199,70.367
