Frequency,Impedance,Phase Angle,Temperature (Dry Bath)
10.0,3646143.0,-19.44333,71.45
21.544346900318832,4210818.0,0.7282278,71.4551
46.41588833612777,4528906.0,-38.63638,71.4446
100.0,792464.7,-150.7905,71.4469
215.44346900318823,2374026.0,-90.68842,71.4386
464.15888336127773,675334.7,-60.42331,71.4444
1000.0,288574.5,-91.31963,71.4452
2154.4346900318824,298406.8,-111.8777,71.4407
4641.588833612777,105005.6,-94.6933,71.4461
10000.0,54355.19,-89.05561,71.4377
