Frequency,Impedance,Phase Angle,Temperature (Dry Bath)
10.0,6457432.0,-12.45148,70.5668
21.544346900318832,5027298.0,-32.71572,70.5549
46.41588833612777,4378409.0,-26.6108,70.5653
100.0,550110.4,130.971,70.5689
215.44346900318823,525568.8,-98.48481,70.5606
464.15888336127773,401234.4,-90.16656,70.5557
1000.0,552155.6,-148.5168,70.5549
2154.4346900318824,330185.5,-75.3703,70.5517
4641.588833612777,132142.6,-86.6266,70.5411
10000.0,60661.66,-81.80252,70.5411
