Frequency,Impedance,Phase Angle,Temperature (Dry Bath)
10.0,150941.5,-6.413749,68.0147
21.5,144685.1,-5.305496,68.0147
46.4,139868.9,-4.855075,68.0147
100.0,132109.6,-4.97315,68.0147
215.4,129620.2,-6.364435,68.0147
464.2,129447.1,-6.509512,68.0147
1000.0,122188.5,-11.18391,68.0147
2154.4,114355.1,-19.60964,68.0147
4641.6,97341.78,-29.67013,68.0147
10000.0,70880.91,-50.14437,68.0147
