Frequency,Impedance,Phase Angle,Temperature (Dry Bath)
10.0,1858669.0,-18.7166,66.2572
21.544346900318832,1786796.0,-10.20844,66.2577
46.41588833612777,1641735.0,-24.91917,66.2564
100.0,339343.0,-57.73352,66.2587
215.44346900318823,217218.1,-23.46857,66.2635
464.15888336127773,2810655.0,-23.27521,66.2491
1000.0,455034.8,-9.730947,66.2566
2154.4346900318824,244634.2,-71.89583,66.2538
4641.588833612777,117910.9,-75.07849,66.2711
10000.0,61990.35,-86.59014,66.252
