Frequency,Impedance,Phase Angle,Temperature (Dry Bath)
10.0,34360170.0,-34.41146,67.351
21.5,28952260.0,-39.26661,67.3656
46.4,16887730.0,-52.52167,67.3729
100.0,4678269.0,-85.55118,67.3791
215.4,2579250.0,-70.11419,67.3776
464.2,2244169.0,-81.47925,67.3733
1000.0,1015653.0,-83.28059,67.3817
2154.4,490123.6,-82.84138,67.3882
4641.6,235577.0,-79.8498,67.3979
10000.0,117575.0,-78.10867,67.384
