Frequency,Impedance,Phase Angle,Temperature (Dry Bath)
10.0,234060.5,-16.51857,71.3061
21.544346900318832,202493.8,-14.31983,71.3043
46.41588833612777,182041.2,-14.27919,71.2971
100.0,160356.2,-1.524652,71.3125
215.44346900318823,123577.9,-21.41713,71.2961
464.15888336127773,197196.6,-33.75929,71.2974
1000.0,125651.6,-25.74161,71.3057
2154.4346900318824,119728.5,-27.5595,71.3125
4641.588833612777,75806.34,-38.71691,71.2994
10000.0,59538.12,-58.30944,71.3026
