Frequency,Impedance,Phase Angle,Temperature (Dry Bath)
10.0,1119286.0,-12.5077,65.7842
21.544346900318832,1034868.0,-16.1263,65.7674
46.41588833612777,1109436.0,-14.00223,65.7827
100.0,683092.4,-2.215506,65.7686
215.44346900318823,325419.9,-62.99154,65.7479
464.15888336127773,1544516.0,-9.635757,65.7323
1000.0,819991.3,-49.80886,65.7481
2154.4346900318824,220327.1,-74.01512,65.7421
4641.588833612777,107110.6,-68.30823,65.7498
10000.0,60629.6,-80.36675,65.7553
