Frequency,Impedance,Phase Angle,Temperature (Dry Bath)
10.0,117857.7,-24.67768,67.1321
21.5,97839.98,-21.47304,67.1036
46.4,84527.0,-18.28238,67.1212
100.0,73907.01,-15.52205,67.1106
215.4,68459.19,-13.80572,67.1181
464.2,61719.13,-12.6115,67.1043
1000.0,55575.65,-13.73026,67.0944
2154.4,51997.0,-16.07188,67.1053
4641.6,46508.61,-22.73324,67.0955
10000.0,38758.93,-35.15338,67.0918
