Frequency,Impedance,Phase Angle,Temperature (Dry Bath)
10.0,126764.4,-24.82544,67.2993
21.5,105016.4,-21.54392,67.2876
46.4,90378.55,-18.47906,67.2908
100.0,79521.29,-16.01527,67.2701
215.4,83788.22,6.891916,67.2868
464.2,65516.13,-12.61534,67.2776
1000.0,59791.5,-13.59112,67.2859
2154.4,55005.34,-17.72737,67.2839
4641.6,48527.66,-23.91265,67.301
10000.0,40132.03,-36.42196,67.2853
