Frequency,Impedance,Phase Angle,Temperature (Dry Bath)
10.0,2003390.0,-11.14465,67.2664
21.5,1853222.0,-12.13937,67.2576
46.4,1697403.0,-14.11524,67.2617
100.0,1573902.0,-11.38716,67.2477
215.4,157178.0,-31.09829,67.253
464.2,1014413.0,-45.87652,67.2407
1000.0,603095.8,-51.54158,67.2504
2154.4,370166.7,-64.32166,67.243
4641.6,184058.1,-72.57622,67.2323
10000.0,101857.0,-72.95615,67.2477
