Frequency,Impedance,Phase Angle,Temperature (Dry Bath)
10.0,7032884.0,-4.281479,71.4699
21.544346900318832,4638941.0,-33.26467,71.4811
46.41588833612777,5126877.0,-8.627835,71.4834
100.0,494515.2,-168.6881,71.4902
215.44346900318823,1975259.0,-128.6339,71.4809
464.15888336127773,2308221.0,-111.2604,71.477
1000.0,236208.0,-78.56293,71.4896
2154.4346900318824,352629.5,-63.89892,71.4861
4641.588833612777,96825.68,-72.12512,71.4784
10000.0,55665.63,-85.093,71.4877
