Frequency,Impedance,Phase Angle,Temperature (Dry Bath)
10.0,12203.07,-7.428229,66.9698
21.5,11765.09,-4.709904,66.9647
46.4,11559.98,-4.298482,66.9666
100.0,11534.99,-5.106317,66.9812
215.4,11109.16,-3.778863,66.9646
464.2,11259.84,-5.496759,66.9845
1000.0,10871.23,-5.60681,66.9703
2154.4,10547.14,-5.639462,66.9882
4641.6,10239.22,-6.685928,66.9829
10000.0,9908.801,-9.965693,66.9799
