Frequency,Impedance,Phase Angle,Temperature (Dry Bath)
10.0,23084140.0,-11.18855,67.4149
21.5,23907700.0,-38.96584,67.4005
46.4,14617960.0,-57.69969,67.4049
100.0,4887604.0,-88.2731,67.3846
215.4,546177.0,130.7249,67.4138
464.2,2310947.0,-79.90234,67.404
1000.0,890874.6,-89.13516,67.384
2154.4,433475.4,-85.65638,67.3813
4641.6,232723.6,-83.28023,67.3908
10000.0,111921.7,-82.75695,67.3874
