Frequency,Impedance,Phase Angle,Temperature (Dry Bath)
10.0,2543388.0,-0.7410143,68.2796
21.5,2478323.0,0.5066759,68.2796
46.4,3590858.0,-3.113996,68.2796
100.0,2540740.0,-25.92237,68.2796
215.4,3221906.0,-78.4316,68.2796
464.2,1902020.0,-72.54956,68.2796
1000.0,980977.7,-74.06338,68.2796
2154.4,527068.3,-73.39482,68.2796
4641.6,285097.2,-75.7955,68.2796
10000.0,131411.4,-84.91257,68.2796
