Frequency,Impedance,Phase Angle,Temperature (Dry Bath)
10.0,19681470.0,-24.11502,68.1499
21.5,19091160.0,-40.04773,68.1663
46.4,18373770.0,-48.40118,68.1555
100.0,6360555.0,-67.407,68.1424
215.4,4595251.0,-59.50422,68.1688
464.2,2434088.0,-90.36337,68.1769
1000.0,1061165.0,-88.69945,68.1613
2154.4,431458.4,-82.11934,68.1692
4641.6,217938.6,-80.41858,68.1571
10000.0,116455.0,-91.7142,68.1631
