Frequency,Impedance,Phase Angle,Temperature (Dry Bath)
10.0,8671365.0,-36.826,71.022
21.544346900318832,5081712.0,-14.61933,71.0314
46.41588833612777,4962030.0,-4.036886,71.0155
100.0,449882.0,132.7014,71.0489
215.44346900318823,861982.2,28.13939,71.0288
464.15888336127773,691288.2,-120.8273,71.025
1000.0,342364.8,-130.4096,71.0189
2154.4346900318824,1068143.0,-43.665,71.0465
4641.588833612777,271107.3,-51.87045,71.0269
10000.0,190286.4,-91.24135,71.0307
