Frequency,Impedance,Phase Angle,Temperature (Dry Bath)
10.0,163249.3,-6.209461,67.766
21.5,156760.4,-5.315435,67.7766
46.4,151882.4,-4.777105,67.7785
100.0,140402.8,-5.004192,67.7686
215.4,139819.5,-6.877823,67.7547
464.2,135264.6,-8.336904,67.747
1000.0,128443.4,-12.26814,67.7725
2154.4,126043.2,-20.84268,67.771
4641.6,98729.8,-35.12808,67.7757
10000.0,77578.63,-57.5999,67.7536
