Frequency,Impedance,Phase Angle,Temperature (Dry Bath)
10.0,156693.6,-6.387968,68.16
21.5,150479.6,-5.224102,68.1514
46.4,145497.3,-4.692626,68.163
100.0,138910.5,-5.890016,68.1653
215.4,138350.4,-6.54977,68.1403
464.2,134999.8,-8.267018,68.1607
1000.0,126234.0,-11.48646,68.1414
2154.4,114613.0,-19.84483,68.1458
4641.6,102376.6,-32.39706,68.1521
10000.0,72073.36,-52.98654,68.1459
