Frequency,Impedance,Phase Angle,Temperature (Dry Bath)
10.0,167497.9,-6.139039,68.1571
21.5,161031.6,-5.190025,68.1591
46.4,155893.2,-4.911007,68.1742
100.0,147868.7,-4.879634,68.1504
215.4,149139.4,-3.526146,68.1528
464.2,138290.3,-9.581954,68.1646
1000.0,133678.5,-12.3513,68.1654
2154.4,123941.1,-21.66213,68.1612
4641.6,112711.0,-37.5613,68.1707
10000.0,76814.26,-57.63347,68.1669
