Frequency,Impedance,Phase Angle,Temperature (Dry Bath)
10.0,138991.0,-5.958278,67.4136
21.5,133802.4,-4.821494,67.4141
46.4,130148.1,-4.381363,67.4184
100.0,124758.4,-4.353063,67.4253
215.4,118164.4,-9.952764,67.4101
464.2,117929.3,-7.997024,67.4213
1000.0,112451.3,-11.82242,67.4125
2154.4,106001.6,-20.2509,67.4089
4641.6,90046.43,-32.17192,67.4245
10000.0,63186.42,-50.23887,67.4166
