Frequency,Impedance,Phase Angle,Temperature (Dry Bath)
10.0,21532440.0,-10.39083,68.1395
21.5,16895330.0,-28.88868,68.1544
46.4,11868350.0,-53.68866,68.1553
100.0,4233773.0,-54.12546,68.1484
215.4,6285973.0,-91.92681,68.146
464.2,3183970.0,-80.29771,68.1452
1000.0,927125.1,-86.63886,68.1356
2154.4,536632.8,-84.15964,68.1312
4641.6,254701.0,-81.94902,68.1511
10000.0,140183.7,-87.05976,68.1453
