Frequency,Impedance,Phase Angle,Temperature (Dry Bath)
10.0,32768.92,-22.53719,71.0861
21.544346900318832,27187.03,-22.09877,71.0985
46.41588833612777,22703.78,-22.17243,71.089
100.0,19045.67,-23.09167,71.0958
215.44346900318823,16267.64,-22.46908,71.1087
464.15888336127773,13011.71,-21.5788,71.0971
1000.0,10801.99,-20.9331,71.0884
2154.4346900318824,8786.651,-24.04756,71.0964
4641.588833612777,7174.117,-23.5891,71.0865
10000.0,5816.266,-21.04906,71.0931
