Frequency,Impedance,Phase Angle,Temperature (Dry Bath)
10.0,20151440.0,6.642025,68.0161
21.5,17669720.0,-46.69526,68.0084
46.4,21160670.0,-49.82798,68.0272
100.0,12289500.0,-36.3248,68.0451
215.4,4372438.0,-93.06196,68.0161
464.2,1775209.0,-87.68311,68.0175
1000.0,918773.4,-80.75965,68.0212
2154.4,434211.2,-81.83861,68.0161
4641.6,217755.4,-83.48567,68.0058
10000.0,110030.7,-92.85236,68.0199
