Frequency,Impedance,Phase Angle,Temperature (Dry Bath)
10.0,23150.33,-21.28529,66.3318
21.544346900318832,19524.02,-18.34538,66.3219
46.41588833612777,16926.31,-15.44948,66.3312
100.0,14952.61,-12.66149,66.3403
215.44346900318823,14257.07,-9.570468,66.3416
464.15888336127773,13068.79,-9.602752,66.344
1000.0,12032.72,-7.911945,66.3211
2154.4346900318824,11378.57,-7.83731,66.3339
4641.588833612777,11065.27,-10.20379,66.3549
10000.0,10246.24,-14.48158,66.3456
