Frequency,Impedance,Phase Angle,Temperature (Dry Bath)
10.0,52907.41,-11.87822,70.3399
21.544346900318832,48359.03,-9.97285,70.3595
46.41588833612777,44693.98,-8.950781,70.36
100.0,44578.09,-4.816547,70.3575
215.44346900318823,38292.88,-9.351322,70.3637
464.15888336127773,39337.66,-5.870142,70.3473
1000.0,34897.53,-12.16771,70.3452
2154.4346900318824,32444.26,-10.04588,70.344
4641.588833612777,34091.03,-11.96152,70.3439
10000.0,29838.57,-20.81074,70.355
