Frequency,Impedance,Phase Angle,Temperature (Dry Bath)
10.0,3982155.0,25.42033,67.1
21.544346900318832,2958804.0,1.411915,67.1
46.41588833612777,4386237.0,14.13595,67.1
100.0,8318961.0,-28.19878,67.1
215.44346900318823,7364448.0,33.85946,67.1
464.15888336127773,4290463.0,8.999893,67.1
1000.0,3227988.0,9.494289,67.1
2154.4346900318824,9443830.0,-7.074229,67.1
4641.588833612777,3413254.0,-24.63256,67.1
10000.0,2102501.0,-76.31565,67.1
