Frequency,Impedance,Phase Angle,Temperature (Dry Bath)
10.0,12459110.0,17.71564,70.985
21.544346900318832,4359223.0,-27.23354,71.0042
46.41588833612777,3903478.0,-16.88498,70.9838
100.0,235764.7,12.97715,70.9887
215.44346900318823,879886.8,52.17236,70.9816
464.15888336127773,1027493.0,-133.4153,70.9972
1000.0,266113.0,-116.6247,70.9917
2154.4346900318824,231004.3,-59.88535,70.9735
4641.588833612777,112717.6,-87.40535,70.9916
10000.0,52008.62,-87.85795,70.9749
