Frequency,Impedance,Phase Angle,Temperature (Dry Bath)
10.0,315720.3,-9.078074,71.3693
21.544346900318832,92423.98,30.52374,71.3647
46.41588833612777,9876.702,-15.41028,71.373
100.0,8892.205,-13.70473,71.3709
215.44346900318823,7921.428,-14.0266,71.3705
464.15888336127773,7289.365,-9.401959,71.3651
1000.0,6893.614,-9.330385,71.3789
2154.4346900318824,6414.799,-8.320441,71.3664
4641.588833612777,6615.578,-8.898438,71.3644
10000.0,56238.18,-63.62413,71.3682
