Frequency,Impedance,Phase Angle,Temperature (Dry Bath)
10.0,19087170.0,-29.02969,67.2621
21.5,17469270.0,-39.61038,67.2652
46.4,8717450.0,-61.03619,67.2697
100.0,5193809.0,-87.03692,67.2598
215.4,740042.5,127.9064,67.2724
464.2,1278396.0,-82.24794,67.2674
1000.0,718218.6,-73.95091,67.2717
2154.4,440180.2,-77.73434,67.273
4641.6,224407.6,-77.18446,67.264
10000.0,116895.9,-80.07191,67.2825
