Frequency,Impedance,Phase Angle,Temperature (Dry Bath)
10.0,22632.92,-21.57381,65.7936
21.544346900318832,19026.64,-18.4791,65.7981
46.41588833612777,16564.01,-15.2272,65.7911
100.0,14987.76,-12.42647,65.8118
215.44346900318823,9714.439,-76.74473,65.7976
464.15888336127773,12666.2,-8.233529,65.7976
1000.0,11963.21,-8.395697,65.793
2154.4346900318824,11435.25,-7.575178,65.7956
4641.588833612777,10929.76,-8.346994,65.8033
10000.0,10371.26,-13.20875,65.806
