Frequency,Impedance,Phase Angle,Temperature (Dry Bath)
10.0,1996007.0,-8.734343,67.3986
21.5,1877044.0,-11.67627,67.4247
46.4,1693088.0,-15.39622,67.4122
100.0,1533353.0,-7.79257,67.4185
215.4,89736.72,135.0523,67.4136
464.2,850974.8,-34.18273,67.4345
1000.0,575191.5,-53.4898,67.4164
2154.4,362199.8,-64.70592,67.4133
4641.6,198330.6,-71.50384,67.4146
10000.0,102168.6,-72.86227,67.4135
