Frequency,Impedance,Phase Angle,Temperature (Dry Bath)
10.0,658897.9,-10.90346,68.2557
21.5,628154.5,-10.32519,68.2463
46.4,580704.6,-11.34576,68.2463
100.0,518890.0,-13.01028,68.2572
215.4,487262.6,-16.91094,68.2565
464.2,421433.6,-22.34718,68.2585
1000.0,350286.5,-31.81298,68.2341
2154.4,249656.6,-40.81356,68.2516
4641.6,186704.7,-50.00399,68.2506
10000.0,118942.3,-65.36571,68.2463
