Frequency,Impedance,Phase Angle,Temperature (Dry Bath)
10.0,22513550.0,-18.54964,67.8934
21.5,17020380.0,-36.81675,67.8918
46.4,19979210.0,-57.09806,67.9002
100.0,4393526.0,-60.80915,67.8916
215.4,3772885.0,-74.1767,67.8909
464.2,1723249.0,-78.40157,67.8814
1000.0,952198.6,-71.44083,67.8914
2154.4,527422.6,-81.55105,67.913
4641.6,268926.3,-83.98224,67.8836
10000.0,138692.9,-91.82233,67.8832
