Frequency,Impedance,Phase Angle,Temperature (Dry Bath)
10.0,4308512.0,-2.857649,65.8254
21.544346900318832,3874631.0,-24.41795,65.8262
46.41588833612777,4686737.0,-38.49508,65.8403
100.0,302867.1,-47.25341,65.8391
215.44346900318823,4504.554,-89.89517,65.8342
464.15888336127773,379745.7,-64.67153,65.8404
1000.0,766612.8,-93.35742,65.8176
2154.4346900318824,260884.4,-97.93621,65.8383
4641.588833612777,151782.6,-68.24685,65.8205
10000.0,63945.06,-89.75876,65.8315
