Frequency,Impedance,Phase Angle,Temperature (Dry Bath)
10.0,44817460.0,-12.74973,67.8786
21.5,42945200.0,-37.18509,67.9
46.4,19103880.0,-52.93915,67.8899
100.0,4211808.0,-72.9187,67.8899
215.4,4106917.0,-84.24566,67.8903
464.2,1750429.0,-84.27275,67.8968
1000.0,1007943.0,-80.19315,67.9017
2154.4,510887.5,-89.61482,67.9004
4641.6,231816.9,-89.43674,67.9013
10000.0,118206.6,-87.7077,67.9001
