Frequency,Impedance,Phase Angle,Temperature (Dry Bath)
10.0,123277.8,-13.5106,70.4
21.544346900318832,116050.0,-13.48817,70.4
46.41588833612777,103724.6,-12.84115,70.4
100.0,93090.06,-11.05469,70.4
215.44346900318823,85363.29,-12.75186,70.4
464.15888336127773,79968.14,-10.03099,70.4
1000.0,73450.71,-13.76424,70.4
2154.4346900318824,66541.45,-10.76373,70.4
4641.588833612777,62063.79,-15.71311,70.4
10000.0,56125.09,-24.62208,70.4
