Frequency,Impedance,Phase Angle,Temperature (Dry Bath)
10.0,12582.81,-27.91865,70.9628
21.544346900318832,10042.07,-25.01239,70.9699
46.41588833612777,8224.578,-21.95682,70.9799
100.0,6981.195,-18.69234,70.989
215.44346900318823,6029.247,-16.3051,70.9663
464.15888336127773,5361.329,-13.36865,70.9564
1000.0,4846.959,-12.71089,70.9811
2154.4346900318824,4363.238,-11.16195,70.9849
4641.588833612777,4078.429,-11.52855,70.9744
10000.0,3742.53,-12.04597,70.9858
