Frequency,Impedance,Phase Angle,Temperature (Dry Bath)
10.0,35423460.0,-31.7076,67.2973
21.5,23926350.0,-23.80828,67.2951
46.4,14430980.0,-54.72367,67.3114
100.0,5509403.0,-17.15837,67.3083
215.4,1303819.0,-119.7945,67.3028
464.2,2216876.0,-84.88871,67.3068
1000.0,934152.8,-78.9013,67.2957
2154.4,469603.6,-88.45222,67.3042
4641.6,227991.2,-83.39648,67.3055
10000.0,112151.3,-80.74733,67.2926
