Frequency,Impedance,Phase Angle,Temperature (Dry Bath)
10.0,42584010.0,-12.98049,67.3697
21.5,21850930.0,-44.98159,67.3582
46.4,14445930.0,-57.19483,67.35
100.0,2179783.0,-50.29574,67.3555
215.4,6964084.0,-139.1579,67.3429
464.2,1941492.0,-91.36029,67.3396
1000.0,923058.8,-92.11205,67.353
2154.4,490422.2,-80.90557,67.3581
4641.6,233716.3,-81.64514,67.3595
10000.0,119008.7,-79.03094,67.341
