Frequency,Impedance,Phase Angle,Temperature (Dry Bath)
10.0,1038191.0,-9.942653,68.0326
21.5,956231.3,-10.29558,68.0326
46.4,886976.8,-11.32472,68.0326
100.0,743892.3,-8.108915,68.0326
215.4,784444.3,-14.65362,68.0326
464.2,647806.5,-21.15354,68.0326
1000.0,560602.7,-25.71307,68.0326
2154.4,470183.4,-37.94443,68.0326
4641.6,315875.3,-59.4073,68.0326
10000.0,167519.1,-76.99748,68.0326
