Frequency,Impedance,Phase Angle,Temperature (Dry Bath)
10.0,3772942.0,-0.5193337,71.1248
21.544346900318832,6432080.0,-10.753,71.1354
46.41588833612777,5190891.0,-15.9017,71.1246
100.0,360684.2,-48.86194,71.1467
215.44346900318823,887710.1,-130.7765,71.1405
464.15888336127773,725538.8,-175.8854,71.1364
1000.0,497409.3,-79.93738,71.1506
2154.4346900318824,192989.6,-117.0224,71.1353
4641.588833612777,152358.3,-77.4576,71.1357
10000.0,56099.96,-81.63422,71.1483
