Frequency,Impedance,Phase Angle,Temperature (Dry Bath)
10.0,130953.6,-25.28885,67.1751
21.5,108856.5,-22.02132,67.1838
46.4,92315.19,-18.8692,67.1743
100.0,80813.36,-15.62505,67.1676
215.4,72876.62,-14.62355,67.1703
464.2,67096.49,-13.77085,67.1722
1000.0,61154.17,-13.55407,67.1638
2154.4,55821.82,-17.68673,67.1601
4641.6,49122.35,-25.34055,67.1695
10000.0,39810.43,-37.37801,67.1535
