Frequency,Impedance,Phase Angle,Temperature (Dry Bath)
10.0,139284.6,-5.78235,67.1613
21.5,134143.5,-4.84264,67.1669
46.4,129808.7,-4.513365,67.1757
100.0,123921.1,-3.589651,67.1802
215.4,123424.9,-3.648235,67.1872
464.2,115710.0,-7.681588,67.1811
1000.0,112205.0,-11.54951,67.1802
2154.4,104053.3,-20.3827,67.1809
4641.6,87534.3,-34.79462,67.1856
10000.0,60237.11,-51.4385,67.1938
