Frequency,Impedance,Phase Angle,Temperature (Dry Bath)
10.0,1429850.0,-4.398428,65.8751
21.544346900318832,1196523.0,-8.498542,65.8645
46.41588833612777,1115751.0,-13.35718,65.8731
100.0,1053040.0,-68.24023,65.886
215.44346900318823,19441.5,-153.9751,65.8916
464.15888336127773,967583.5,-9.366573,65.8729
1000.0,1731310.0,-44.90101,65.8631
2154.4346900318824,266642.3,-54.13374,65.8656
4641.588833612777,129914.4,-74.34833,65.8724
10000.0,68553.89,-76.06537,65.8723
