Frequency,Impedance,Phase Angle,Temperature (Dry Bath)
10.0,17262470.0,-16.88218,68.1135
21.5,19007980.0,-30.39939,68.1076
46.4,16304430.0,-51.69444,68.1022
100.0,12985700.0,-69.27808,68.0887
215.4,6338566.0,-28.42244,68.1053
464.2,2618821.0,-71.08552,68.1088
1000.0,1584363.0,-89.46741,68.0924
2154.4,729215.4,-89.2545,68.1115
4641.6,313712.0,-93.73125,68.0867
10000.0,150112.2,-97.47132,68.0984
