Frequency,Impedance,Phase Angle,Temperature (Dry Bath)
10.0,30560950.0,-12.32059,67.4393
21.5,29560680.0,-32.50739,67.4432
46.4,16549410.0,-57.54963,67.444
100.0,3106198.0,-50.04168,67.4449
215.4,1886939.0,-113.8576,67.4355
464.2,2053297.0,-92.58757,67.4586
1000.0,1000833.0,-73.14916,67.4461
2154.4,457485.2,-80.35016,67.4431
4641.6,234430.8,-83.86527,67.4369
10000.0,114865.1,-84.32419,67.4453
