Frequency,Impedance,Phase Angle,Temperature (Dry Bath)
10.0,6357523.0,10.32286,65.8603
21.544346900318832,3731918.0,-19.29738,65.8808
46.41588833612777,4881337.0,-17.83034,65.8705
100.0,1211339.0,-87.07926,65.8648
215.44346900318823,6861.256,-61.78333,65.8615
464.15888336127773,1822763.0,-118.8359,65.8664
1000.0,460227.9,-86.17782,65.878
2154.4346900318824,413299.2,-63.37476,65.8645
4641.588833612777,117505.6,-90.51016,65.8664
10000.0,73135.05,-91.97049,65.8735
