Frequency,Impedance,Phase Angle,Temperature (Dry Bath)
10.0,136461.5,-25.61897,67.1464
21.5,113795.6,-22.4715,67.1536
46.4,95957.82,-19.34749,67.1551
100.0,88016.06,-11.75763,67.1457
215.4,76143.13,-14.80006,67.1528
464.2,69258.74,-13.9302,67.1339
1000.0,62588.2,-15.37809,67.147
2154.4,56527.7,-18.89027,67.1427
4641.6,49310.73,-25.72223,67.1425
10000.0,39892.27,-37.39852,67.1489
