Frequency,Impedance,Phase Angle,Temperature (Dry Bath)
10.0,191840.6,-20.077,65.8576
21.544346900318832,163430.0,-18.14512,65.8622
46.41588833612777,140977.8,-16.59521,65.8337
100.0,110113.8,-33.18069,65.8411
215.44346900318823,6266.137,-117.6033,65.8444
464.15888336127773,105850.4,-22.93019,65.8573
1000.0,92264.91,-20.1035,65.8323
2154.4346900318824,70397.7,-28.34927,65.8499
4641.588833612777,54507.77,-34.56032,65.8346
10000.0,37890.8,-48.5342,65.8523
