Frequency,Impedance,Phase Angle,Temperature (Dry Bath)
10.0,34415300.0,-36.0559,67.3971
21.5,23253400.0,-25.93538,67.4262
46.4,16998320.0,-52.42414,67.4064
100.0,6533388.0,-57.94007,67.4215
215.4,140170.0,-171.3941,67.4218
464.2,2809075.0,-52.30647,67.4243
1000.0,1046971.0,-80.24601,67.4247
2154.4,558889.5,-86.40545,67.4119
4641.6,283491.4,-88.33414,67.4185
10000.0,131740.9,-86.84131,67.4218
