Frequency,Impedance,Phase Angle,Temperature (Dry Bath)
10.0,4903877.0,-10.61143,66.3024
21.544346900318832,5574201.0,3.534611,66.2882
46.41588833612777,5420106.0,-7.423251,66.2868
100.0,1500124.0,-116.2193,66.2789
215.44346900318823,238792.9,-0.996609,66.2976
464.15888336127773,580223.4,16.94776,66.2978
1000.0,428087.3,-78.17547,66.2971
2154.4346900318824,306431.6,-87.97942,66.2956
4641.588833612777,163153.6,-94.75587,66.2725
10000.0,58284.36,-88.40575,66.2772
