Frequency,Impedance,Phase Angle,Temperature (Dry Bath)
10.0,116836.2,-9.58713,67.4589
21.5,109624.8,-8.801065,67.4497
46.4,104922.1,-8.98855,67.4467
100.0,98012.43,-8.593925,67.4548
215.4,96637.05,-8.468251,67.4451
464.2,87215.11,-12.2416,67.4415
1000.0,78106.91,-15.79917,67.449
2154.4,69256.19,-22.59922,67.4589
4641.6,56925.37,-28.173,67.4441
10000.0,43954.9,-38.13795,67.4365
