Frequency,Impedance,Phase Angle,Temperature (Dry Bath)
10.0,1505752.0,-5.747677,66.3985
21.544346900318832,1357090.0,-9.639015,66.4171
46.41588833612777,1318417.0,-13.12997,66.4038
100.0,346832.2,-11.85028,66.4004
215.44346900318823,466512.0,-115.6987,66.4078
464.15888336127773,577607.9,-41.33024,66.3892
1000.0,588509.0,-45.03973,66.4
2154.4346900318824,207276.1,-83.27788,66.3991
4641.588833612777,110564.0,-88.68162,66.3996
10000.0,56334.24,-75.42514,66.3853
