Frequency,Impedance,Phase Angle,Temperature (Dry Bath)
10.0,17527220.0,-17.89637,67.9922
21.5,17236160.0,-34.5896,67.9842
46.4,16139690.0,-55.95821,67.9933
100.0,4849654.0,-26.86668,67.9956
215.4,7946007.0,-75.6641,68.0033
464.2,2179439.0,-77.6112,68.0009
1000.0,962454.6,-80.15664,68.0
2154.4,568595.3,-83.39221,67.995
4641.6,296468.2,-79.80891,67.9906
10000.0,155623.8,-89.84614,67.9965
