Frequency,Impedance,Phase Angle,Temperature (Dry Bath)
10.0,255895.4,-23.71789,71.2771
21.544346900318832,210267.9,-21.46154,71.279
46.41588833612777,179478.8,-20.33071,71.279
100.0,139449.4,-7.787962,71.2742
215.44346900318823,128841.0,-28.04839,71.2593
464.15888336127773,126983.8,-15.83333,71.2657
1000.0,76409.17,-33.93084,71.2721
2154.4346900318824,91021.89,-35.17797,71.2773
4641.588833612777,67398.75,-49.57438,71.2771
10000.0,43053.46,-56.39268,71.2552
