Frequency,Impedance,Phase Angle,Temperature (Dry Bath)
10.0,38587690.0,-20.31194,67.2741
21.5,24550300.0,-45.12532,67.2543
46.4,17345730.0,-38.56502,67.2787
100.0,4387449.0,-0.3333481,67.277
215.4,259744.4,126.4058,67.2761
464.2,2052425.0,-84.62401,67.2583
1000.0,1000434.0,-81.02698,67.2713
2154.4,478735.0,-82.80176,67.2736
4641.6,241057.6,-80.8112,67.2718
10000.0,124938.4,-78.45345,67.2723
