Frequency,Impedance,Phase Angle,Temperature (Dry Bath)
10.0,6755958.0,-23.62082,70.8952
21.544346900318832,4437470.0,-19.61799,70.8826
46.41588833612777,5192027.0,-25.56088,70.8889
100.0,526697.4,-62.30966,70.9008
215.44346900318823,607302.5,-85.01053,70.8844
464.15888336127773,1005719.0,-121.8416,70.8705
1000.0,234966.4,-103.9752,70.8772
2154.4346900318824,305536.1,-77.18591,70.8947
4641.588833612777,105255.2,-94.6946,70.8761
10000.0,54086.78,-87.64996,70.893
