Frequency,Impedance,Phase Angle,Temperature (Dry Bath)
10.0,3773922.0,-19.42738,67.1
21.544346900318832,3619593.0,-10.80978,67.1
46.41588833612777,3218519.0,-16.62586,67.1
100.0,12221470.0,68.57776,67.1
215.44346900318823,636878.2,46.52167,67.1
464.15888336127773,960477.7,114.5672,67.1
1000.0,969041.1,-55.16893,67.1
2154.4346900318824,1820609.0,-51.30566,67.1
4641.588833612777,454987.5,-73.0495,67.1
10000.0,343279.1,-78.49654,67.1
