Frequency,Impedance,Phase Angle,Temperature (Dry Bath)
10.0,63056.3,-15.13958,71.513
21.544346900318832,56220.0,-13.40176,71.5063
46.41588833612777,50985.58,-12.38973,71.5076
100.0,44602.13,-16.74394,71.5128
215.44346900318823,44406.08,-11.81171,71.5063
464.15888336127773,37960.72,-5.871223,71.5155
1000.0,36861.08,-14.34736,71.5041
2154.4346900318824,36297.45,-10.62101,71.5138
4641.588833612777,29531.99,-15.92819,71.5166
10000.0,28206.07,-23.68462,71.5106
