Frequency,Impedance,Phase Angle,Temperature (Dry Bath)
10.0,766065.5,-9.323682,67.8833
21.5,726185.9,-9.95473,67.8986
46.4,685281.5,-11.11026,67.9119
100.0,581854.4,-17.58438,67.9135
215.4,536415.5,-20.19499,67.9161
464.2,477024.0,-25.14967,67.9172
1000.0,379000.2,-32.31958,67.9356
2154.4,269922.9,-41.95285,67.9098
4641.6,193793.7,-55.1896,67.9222
10000.0,121928.9,-67.69469,67.9098
