Frequency,Impedance,Phase Angle,Temperature (Dry Bath)
10.0,31132200.0,0.1272902,67.2209
21.5,26666900.0,-33.20262,67.225
46.4,26803560.0,-47.89888,67.2299
100.0,8893407.0,-107.2546,67.2488
215.4,413506.6,69.159,67.2318
464.2,2174981.0,-82.96566,67.2323
1000.0,998863.1,-81.82883,67.2289
2154.4,523914.1,-79.37547,67.24
4641.6,254286.6,-80.12935,67.2466
10000.0,137992.1,-79.80696,67.2391
