Frequency,Impedance,Phase Angle,Temperature (Dry Bath)
10.0,29393710.0,-7.783054,67.4178
21.5,24768590.0,-32.79714,67.4174
46.4,20829230.0,-52.75928,67.4103
100.0,6630629.0,104.5143,67.4062
215.4,4047964.0,-107.7778,67.4122
464.2,2012476.0,-61.20206,67.4061
1000.0,1199288.0,-81.08337,67.4303
2154.4,576530.3,-84.55157,67.4344
4641.6,266947.4,-86.90481,67.4198
10000.0,131087.1,-87.02728,67.4254
