Frequency,Impedance,Phase Angle,Temperature (Dry Bath)
10.0,745286.9,-11.91405,67.9814
21.5,685384.2,-11.01548,67.9814
46.4,638976.4,-11.96238,67.9814
100.0,538928.3,-14.41438,67.9814
215.4,541132.9,-15.17575,67.9814
464.2,472989.1,-19.6111,67.9814
1000.0,382976.9,-26.60608,67.9814
2154.4,317645.5,-34.39544,67.9814
4641.6,246014.2,-51.99612,67.9814
10000.0,157170.5,-70.13191,67.9814
