Frequency,Impedance,Phase Angle,Temperature (Dry Bath)
10.0,199860.4,-26.36149,66.3931
21.544346900318832,157502.8,-24.54219,66.3837
46.41588833612777,128394.6,-22.76311,66.4069
100.0,102427.1,-4.695485,66.3781
215.44346900318823,109121.4,-12.93136,66.3969
464.15888336127773,76175.82,-18.5354,66.3935
1000.0,68080.71,-21.19336,66.3945
2154.4346900318824,53790.08,-26.59652,66.3901
4641.588833612777,54307.08,-39.14054,66.3951
10000.0,33173.54,-47.88286,66.3876
