Frequency,Impedance,Phase Angle,Temperature (Dry Bath)
10.0,11570.61,-4.70281,67.3152
21.5,11270.49,-3.982272,67.3022
46.4,11164.67,-3.878815,67.2994
100.0,11077.19,-3.811221,67.3141
215.4,10974.99,-3.930875,67.3199
464.2,10803.09,-4.042622,67.3066
1000.0,10528.32,-3.966617,67.3251
2154.4,10294.97,-4.391683,67.3077
4641.6,10058.03,-5.647692,67.3112
10000.0,9773.847,-9.127711,67.3173
