Frequency,Impedance,Phase Angle,Temperature (Dry Bath)
10.0,1233313.0,-8.704087,65.8601
21.544346900318832,1152008.0,-17.20449,65.8677
46.41588833612777,1072984.0,-14.979,65.8694
100.0,671514.8,-42.21734,65.869
215.44346900318823,14696.36,154.1672,65.8732
464.15888336127773,594819.3,-38.51757,65.8887
1000.0,836496.3,-48.31374,65.8588
2154.4346900318824,272190.0,-48.46749,65.8652
4641.588833612777,121693.9,-87.94849,65.8652
10000.0,61765.99,-79.72298,65.8574
