Frequency,Impedance,Phase Angle,Temperature (Dry Bath)
10.0,19944210.0,-12.61876,68.1811
21.5,38074060.0,-41.13096,68.1893
46.4,25509250.0,-53.39331,68.1959
100.0,8144385.0,-20.69055,68.1801
215.4,3077877.0,-77.21866,68.182
464.2,2242291.0,-80.7985,68.196
1000.0,1000967.0,-83.88563,68.1796
2154.4,566686.9,-83.45259,68.1861
4641.6,265400.0,-82.15284,68.1652
10000.0,140133.9,-87.80303,68.1849
