Frequency,Impedance,Phase Angle,Temperature (Dry Bath)
10.0,153329.4,-6.360885,68.1723
21.5,147874.3,-4.960766,68.1827
46.4,143064.3,-4.785804,68.181
100.0,141597.7,-5.678813,68.1701
215.4,133913.1,-6.457067,68.183
464.2,128587.4,-8.3758,68.1613
1000.0,124734.3,-13.51062,68.1705
2154.4,113575.8,-20.03935,68.1745
4641.6,98332.9,-31.34883,68.1646
10000.0,74219.01,-50.57221,68.1946
