Frequency,Impedance,Phase Angle,Temperature (Dry Bath)
10.0,130476.5,-25.28693,67.1459
21.5,108178.2,-21.95914,67.1535
46.4,92606.18,-18.80805,67.1571
100.0,80234.84,-15.46915,67.1552
215.4,99252.01,-0.5265216,67.1552
464.2,67139.35,-12.86782,67.1536
1000.0,60664.14,-14.31765,67.1534
2154.4,56108.9,-18.34911,67.1641
4641.6,48405.51,-25.07106,67.1573
10000.0,39489.52,-37.2601,67.1275
