Frequency,Impedance,Phase Angle,Temperature (Dry Bath)
10.0,9964.215,-22.91214,70.932
21.544346900318832,8453.594,-18.85449,70.9324
46.41588833612777,7384.198,-15.63762,70.9173
100.0,6611.262,-12.9425,70.9321
215.44346900318823,6009.939,-11.1933,70.9313
464.15888336127773,5441.22,-9.736474,70.9231
1000.0,5024.805,-8.752367,70.9175
2154.4346900318824,4787.509,-7.386882,70.9245
4641.588833612777,4503.21,-7.073218,70.9271
10000.0,4348.792,-9.194933,70.9254
