Frequency,Impedance,Phase Angle,Temperature (Dry Bath)
10.0,151849.5,-6.233102,67.9457
21.5,146355.8,-5.415152,67.9457
46.4,141240.3,-4.770132,67.9457
100.0,133728.4,-4.386814,67.9457
215.4,133131.4,-5.32975,67.9457
464.2,129414.4,-6.608306,67.9457
1000.0,123182.7,-11.35893,67.9457
2154.4,114132.0,-21.41868,67.9457
4641.6,97822.1,-31.37942,67.9457
10000.0,69973.78,-52.16741,67.9457
