Frequency,Impedance,Phase Angle,Temperature (Dry Bath)
10.0,156732.7,-6.308852,68.4125
21.5,150318.7,-5.361225,68.4297
46.4,145506.1,-4.667624,68.4371
100.0,137949.3,-4.411911,68.4129
215.4,135853.9,-5.559046,68.4185
464.2,133331.4,-7.156791,68.43
1000.0,127088.8,-12.45403,68.4292
2154.4,115807.7,-20.97764,68.4355
4641.6,103461.8,-33.92076,68.4375
10000.0,73767.47,-57.13193,68.4342
