Frequency,Impedance,Phase Angle,Temperature (Dry Bath)
10.0,112502.6,-24.93656,68.2022
21.5,95193.17,-21.88075,68.2014
46.4,82084.49,-18.90184,68.178
100.0,70726.16,-15.47904,68.1964
215.4,64080.03,-13.58687,68.1993
464.2,59190.82,-13.53986,68.1944
1000.0,53859.7,-15.00535,68.1808
2154.4,50042.08,-14.73095,68.192
4641.6,45744.32,-22.96242,68.204
10000.0,39174.44,-33.71387,68.2032
