Frequency,Impedance,Phase Angle,Temperature (Dry Bath)
10.0,102507.1,-24.06031,67.7924
21.5,86303.52,-21.3341,67.7978
46.4,75619.04,-18.75699,67.8028
100.0,64790.3,-15.15157,67.7881
215.4,59256.06,-14.16859,67.7783
464.2,54907.78,-12.09374,67.7853
1000.0,51858.69,-13.471,67.7879
2154.4,47258.39,-16.04482,67.797
4641.6,43417.96,-21.2141,67.7885
10000.0,36295.81,-32.88709,67.7872
