Frequency,Impedance,Phase Angle,Temperature (Dry Bath)
10.0,12389.22,-8.572463,67.3205
21.5,11809.63,-4.949996,67.3054
46.4,11631.34,-4.564688,67.3059
100.0,11531.48,-5.260717,67.3067
215.4,11489.98,-5.522742,67.3027
464.2,11338.33,-5.984961,67.2949
1000.0,10971.07,-5.865769,67.2919
2154.4,10631.17,-5.901027,67.305
4641.6,10296.94,-6.910533,67.3027
10000.0,9944.25,-9.677958,67.311
