Frequency,Impedance,Phase Angle,Temperature (Dry Bath)
10.0,1290876.0,-11.16034,68.2415
21.5,1214600.0,-10.27551,68.233
46.4,1101787.0,-12.45101,68.2551
100.0,903991.6,-18.36138,68.2433
215.4,741540.1,-24.29753,68.2425
464.2,690247.3,-25.25268,68.231
1000.0,526175.0,-40.86448,68.2322
2154.4,361504.4,-51.94321,68.2479
4641.6,223027.1,-64.89626,68.2346
10000.0,129837.1,-72.61489,68.2439
