Frequency,Impedance,Phase Angle,Temperature (Dry Bath)
10.0,908602.1,-9.181916,67.9126
21.5,845672.4,-9.805029,67.8773
46.4,780965.5,-9.967165,67.8975
100.0,699722.9,-10.4929,67.886
215.4,639260.2,-15.99118,67.8878
464.2,560817.1,-26.87225,67.8934
1000.0,458957.4,-39.37345,67.908
2154.4,283857.6,-48.66357,67.8958
4641.6,195338.8,-60.92285,67.9089
10000.0,109824.8,-73.7231,67.9026
