Frequency,Impedance,Phase Angle,Temperature (Dry Bath)
10.0,26421830.0,-38.78931,67.4981
21.5,19388880.0,-33.39516,67.4947
46.4,13750010.0,-68.05988,67.4948
100.0,3272703.0,-39.81913,67.4654
215.4,213345.6,85.93281,67.4906
464.2,1558299.0,-86.50695,67.4729
1000.0,763000.5,-74.24987,67.4909
2154.4,441862.2,-73.71453,67.4819
4641.6,235321.1,-76.62975,67.492
10000.0,118622.7,-80.79325,67.4927
