Frequency,Impedance,Phase Angle,Temperature (Dry Bath)
10.0,25049060.0,-22.90557,68.1421
21.5,18887370.0,-43.76635,68.1421
46.4,10687120.0,-51.57518,68.1421
100.0,2846060.0,-49.34051,68.1421
215.4,3188355.0,-54.53225,68.1421
464.2,2188136.0,-80.62772,68.1421
1000.0,902740.4,-90.57912,68.1421
2154.4,464305.0,-86.86491,68.1421
4641.6,240874.3,-84.90002,68.1421
10000.0,122783.8,-85.61871,68.1421
