Frequency,Impedance,Phase Angle,Temperature (Dry Bath)
10.0,23010700.0,-31.02395,68.0816
21.5,20345690.0,-50.7184,68.0805
46.4,18806380.0,-56.45002,68.0527
100.0,3138028.0,-59.17706,68.0713
215.4,3410679.0,-68.27168,68.0721
464.2,1819138.0,-76.45777,68.0499
1000.0,983517.3,-80.18521,68.0916
2154.4,485410.0,-74.30657,68.0799
4641.6,266738.1,-79.73166,68.079
10000.0,140379.7,-88.45611,68.0718
