Frequency,Impedance,Phase Angle,Temperature (Dry Bath)
10.0,2249794.0,-10.48917,67.2043
21.5,2100731.0,-12.29452,67.2018
46.4,2034761.0,-10.83152,67.2023
100.0,1410445.0,-20.44376,67.203
215.4,2701949.0,-11.79305,67.1978
464.2,988934.9,-38.50523,67.193
1000.0,639685.3,-61.18201,67.2004
2154.4,366125.0,-66.03213,67.2
4641.6,199520.5,-72.96753,67.196
10000.0,110851.2,-73.26393,67.199
