Frequency,Impedance,Phase Angle,Temperature (Dry Bath)
10.0,133095.3,-6.697096,66.9507
21.5,127391.4,-5.666681,66.964
46.4,122634.8,-5.39498,66.9718
100.0,119853.4,-6.823377,66.9738
215.4,109637.5,-10.23107,66.9612
464.2,112062.3,-9.77424,66.9664
1000.0,104360.1,-12.88965,66.9604
2154.4,97988.42,-20.0114,66.9584
4641.6,82734.46,-31.88467,66.9531
10000.0,58494.6,-49.10397,66.9622
