Frequency,Impedance,Phase Angle,Temperature (Dry Bath)
10.0,238612.8,-9.178932,67.3206
21.5,226965.0,-8.721291,67.3378
46.4,214614.0,-8.605918,67.3309
100.0,194894.0,-10.67938,67.3499
215.4,195189.7,-8.599517,67.3337
464.2,176255.4,-15.51018,67.3553
1000.0,153851.3,-20.01601,67.3442
2154.4,134022.0,-30.02476,67.3458
4641.6,95238.78,-40.66148,67.3345
10000.0,63664.86,-51.92335,67.341
