Frequency,Impedance,Phase Angle,Temperature (Dry Bath)
10.0,1234522.0,-10.72662,68.12
21.5,1153550.0,-10.47756,68.106
46.4,1051621.0,-12.79945,68.1028
100.0,1027572.0,-9.826933,68.1159
215.4,818918.8,-24.41366,68.0929
464.2,647110.4,-26.92389,68.1022
1000.0,507825.6,-42.84083,68.1051
2154.4,338943.7,-51.87422,68.1245
4641.6,208454.6,-62.332,68.0926
10000.0,129060.4,-74.36048,68.1054
