Frequency,Impedance,Phase Angle,Temperature (Dry Bath)
10.0,7097.755,-28.07483,70.7541
21.544346900318832,5620.577,-26.06296,70.7592
46.41588833612777,4550.634,-23.60137,70.7679
100.0,3759.714,-20.89725,70.7636
215.44346900318823,3228.641,-18.17019,70.7623
464.15888336127773,2798.526,-15.44088,70.739
1000.0,2479.553,-13.52188,70.7583
2154.4346900318824,2252.306,-11.25997,70.7534
4641.588833612777,2098.322,-10.45636,70.7502
10000.0,1945.131,-10.78758,70.7627
