Frequency,Impedance,Phase Angle,Temperature (Dry Bath)
10.0,29711860.0,-29.59239,67.4849
21.5,17366310.0,-41.29426,67.485
46.4,37897390.0,-77.76202,67.5098
100.0,3080846.0,-29.93102,67.4945
215.4,192969.1,-139.2217,67.4889
464.2,1451360.0,-72.90981,67.4945
1000.0,713352.9,-75.10517,67.5027
2154.4,430158.0,-75.82443,67.4949
4641.6,237207.0,-76.52118,67.4993
10000.0,118359.7,-81.08472,67.4926
