Frequency,Impedance,Phase Angle,Temperature (Dry Bath)
10.0,301205.1,-9.994278,67.5453
21.5,282632.1,-9.644791,67.5706
46.4,265775.3,-9.648121,67.555
100.0,238808.3,-12.97474,67.5718
215.4,152652.2,-179.6881,67.5439
464.2,214908.1,-15.79374,67.5641
1000.0,182986.0,-24.61048,67.5486
2154.4,143352.2,-33.56676,67.5425
4641.6,102258.5,-45.5109,67.5539
10000.0,66596.67,-55.08615,67.5493
