Frequency,Impedance,Phase Angle,Temperature (Dry Bath)
10.0,29157060.0,-5.156856,67.2223
21.5,24287810.0,-30.31521,67.2391
46.4,26617360.0,-58.81829,67.2233
100.0,5210201.0,19.58916,67.2439
215.4,337249.8,67.40223,67.2355
464.2,2953482.0,-80.29763,67.2283
1000.0,1346742.0,-84.04554,67.2404
2154.4,629957.5,-88.33048,67.2307
4641.6,278228.4,-90.77853,67.2249
10000.0,129583.4,-87.32827,67.2283
