Frequency,Impedance,Phase Angle,Temperature (Dry Bath)
10.0,5137720.0,-17.06536,71.177
21.544346900318832,5572897.0,-15.28115,71.1573
46.41588833612777,5657027.0,-3.95227,71.1761
100.0,613550.7,-33.20784,71.1764
215.44346900318823,1414218.0,-95.96147,71.1622
464.15888336127773,1467409.0,-52.13721,71.1686
1000.0,2821799.0,9.503796,71.1657
2154.4346900318824,704916.0,-67.34252,71.1669
4641.588833612777,242992.5,-100.3923,71.1734
10000.0,166872.8,-81.30232,71.176
