Frequency,Impedance,Phase Angle,Temperature (Dry Bath)
10.0,17713.75,-23.73558,71.3631
21.544346900318832,14347.62,-25.20108,71.3929
46.41588833612777,11446.29,-26.15594,71.3837
100.0,8963.797,-26.0867,71.3906
215.44346900318823,7259.367,-25.20296,71.3799
464.15888336127773,5825.374,-23.1928,71.3858
1000.0,4787.709,-21.57536,71.3758
2154.4346900318824,4023.349,-19.22871,71.3851
4641.588833612777,3476.876,-17.30476,71.3728
10000.0,3026.041,-16.62376,71.3834
