Frequency,Impedance,Phase Angle,Temperature (Dry Bath)
10.0,5849641.0,-17.18285,71.3121
21.544346900318832,3167894.0,-8.075557,71.304
46.41588833612777,4223433.0,-30.7839,71.3072
100.0,6537764.0,34.31381,71.2961
215.44346900318823,912404.3,151.4252,71.3116
464.15888336127773,1497521.0,-61.22398,71.3045
1000.0,1519837.0,68.90499,71.3153
2154.4346900318824,246455.4,-75.72925,71.3227
4641.588833612777,132649.7,-104.9784,71.3046
10000.0,56198.87,-86.25609,71.2992
