Frequency,Impedance,Phase Angle,Temperature (Dry Bath)
10.0,21247.12,-21.5047,71.4915
21.544346900318832,17741.28,-20.8564,71.4854
46.41588833612777,14851.52,-19.85585,71.4951
100.0,12352.62,-18.02327,71.488
215.44346900318823,10822.49,-16.42147,71.4929
464.15888336127773,9614.93,-13.94222,71.488
1000.0,8536.825,-11.92624,71.487
2154.4346900318824,7841.936,-11.37238,71.4702
4641.588833612777,7322.079,-11.43524,71.4831
10000.0,6867.988,-11.27267,71.4962
