Frequency,Impedance,Phase Angle,Temperature (Dry Bath)
10.0,22570.95,-21.71841,65.6503
21.544346900318832,19010.1,-18.51931,65.6429
46.41588833612777,16475.83,-15.28656,65.6452
100.0,14516.06,-14.00485,65.6457
215.44346900318823,7504.796,-16.42311,65.6563
464.15888336127773,12506.71,-8.171402,65.6368
1000.0,12177.41,-6.874007,65.6431
2154.4346900318824,11377.45,-7.625024,65.6423
4641.588833612777,10491.44,-10.30818,65.6461
10000.0,10152.81,-14.99943,65.6492
