Frequency,Impedance,Phase Angle,Temperature (Dry Bath)
10.0,1303851.0,-11.00714,67.9989
21.5,1181892.0,-10.8147,68.0014
46.4,1056093.0,-12.43922,68.0057
100.0,893279.7,-15.85371,67.9914
215.4,834885.5,-23.00636,68.0171
464.2,694794.9,-31.17144,67.9994
1000.0,511971.0,-39.71203,68.0016
2154.4,346150.8,-47.64333,67.9954
4641.6,220982.0,-60.19331,67.9915
10000.0,136293.2,-76.00683,67.9988
