Frequency,Impedance,Phase Angle,Temperature (Dry Bath)
10.0,138262.3,-25.72844,67.116
21.5,113935.4,-22.40444,67.1036
46.4,97028.45,-19.45838,67.0847
100.0,85786.39,-17.30842,67.0997
215.4,77849.77,-14.19472,67.1279
464.2,69899.55,-13.54576,67.1185
1000.0,62878.27,-15.75048,67.1182
2154.4,56863.74,-19.21112,67.1176
4641.6,49639.25,-26.10469,67.1251
10000.0,39263.93,-38.26067,67.1091
