Frequency,Impedance,Phase Angle,Temperature (Dry Bath)
10.0,26287430.0,30.09079,72.2165
21.544346900318832,6221912.0,-30.3903,72.2239
46.41588833612777,4595743.0,-23.18615,72.2189
100.0,627363.3,-147.9524,72.2349
215.44346900318823,3097404.0,84.98135,72.2306
464.15888336127773,346209.0,-0.6970909,72.2212
1000.0,465729.3,-11.27418,72.2346
2154.4346900318824,699898.0,24.23204,72.2184
4641.588833612777,153272.7,-77.851,72.2252
10000.0,137563.5,-67.48411,72.2084
