Frequency,Impedance,Phase Angle,Temperature (Dry Bath)
10.0,34291040.0,-38.55028,67.7243
21.5,27261790.0,-42.25063,67.7441
46.4,34406850.0,-55.47967,67.7188
100.0,14080840.0,-52.23515,67.721
215.4,5704294.0,-83.05937,67.7205
464.2,2985939.0,-84.56295,67.7249
1000.0,1040169.0,-82.1528,67.7301
2154.4,547060.8,-83.78858,67.7445
4641.6,285943.8,-80.53188,67.7401
10000.0,146381.7,-90.42113,67.742
