Frequency,Impedance,Phase Angle,Temperature (Dry Bath)
10.0,196278.0,-18.97086,65.7194
21.544346900318832,166746.1,-17.56403,65.7029
46.41588833612777,144724.2,-15.82614,65.7202
100.0,142703.5,-25.00854,65.6992
215.44346900318823,17078.2,38.05655,65.7056
464.15888336127773,97485.04,-15.06439,65.7113
1000.0,86211.94,-17.6626,65.7129
2154.4346900318824,73186.24,-24.52372,65.7319
4641.588833612777,64522.47,-41.76418,65.7285
10000.0,41185.44,-51.60413,65.7097
