Frequency,Impedance,Phase Angle,Temperature (Dry Bath)
10.0,29922450.0,-25.92284,66.9668
21.5,22314150.0,-46.15192,66.9841
46.4,16925010.0,-53.38162,66.9662
100.0,8785172.0,-63.55822,66.9698
215.4,273245.5,-41.2553,66.978
464.2,2277967.0,-67.5899,66.9687
1000.0,828658.7,-77.87053,66.975
2154.4,462370.5,-84.79884,66.9598
4641.6,216264.8,-83.17074,66.9753
10000.0,108477.9,-83.7445,66.9781
