Frequency,Impedance,Phase Angle,Temperature (Dry Bath)
10.0,21051570.0,-27.79747,68.0052
21.5,24311830.0,-54.47808,68.0315
46.4,26469750.0,-62.84642,68.0217
100.0,4944329.0,-41.91178,68.0128
215.4,3568727.0,-63.98087,67.9998
464.2,1860240.0,-69.78306,68.0245
1000.0,1120075.0,-89.24939,68.0162
2154.4,508937.3,-84.03254,68.0029
4641.6,246775.4,-90.06598,68.0115
10000.0,116783.4,-98.47888,68.0137
