Frequency,Impedance,Phase Angle,Temperature (Dry Bath)
10.0,26893.52,-21.43502,71.08
21.544346900318832,22202.87,-22.81478,71.0761
46.41588833612777,18150.71,-24.19914,71.075
100.0,15421.07,-23.49535,71.0691
215.44346900318823,11634.2,-28.29142,71.0665
464.15888336127773,9159.169,-26.10447,71.091
1000.0,7310.161,-25.57814,71.0713
2154.4346900318824,5926.249,-24.95628,71.0731
4641.588833612777,4755.942,-23.6604,71.0637
10000.0,3916.938,-20.97757,71.0985
