Frequency,Impedance,Phase Angle,Temperature (Dry Bath)
10.0,12292.88,-4.655952,66.9606
21.5,11890.37,-3.776519,66.9515
46.4,11770.53,-3.768835,66.9527
100.0,11559.16,-3.556692,66.9581
215.4,11419.33,-3.63373,66.9669
464.2,11223.24,-3.710711,66.9597
1000.0,10937.09,-3.848678,66.9646
2154.4,10717.18,-4.570366,66.941
4641.6,10450.5,-6.098977,66.9434
10000.0,10181.23,-9.733952,66.947
