Frequency,Impedance,Phase Angle,Temperature (Dry Bath)
10.0,340090.1,-24.71894,71.1935
21.544346900318832,283970.0,-21.87357,71.1896
46.41588833612777,235072.5,-19.39861,71.1902
100.0,134908.6,-9.861519,71.1809
215.44346900318823,176245.8,-18.32132,71.1989
464.15888336127773,143638.4,-30.22574,71.1824
1000.0,113358.4,-31.84113,71.2066
2154.4346900318824,117879.1,-31.10309,71.2054
4641.588833612777,64244.88,-54.77271,71.1846
10000.0,43331.53,-60.75583,71.2095
