Frequency,Impedance,Phase Angle,Temperature (Dry Bath)
10.0,133332.5,-25.47861,67.1771
21.5,110364.0,-22.18102,67.1625
46.4,93811.22,-19.14707,67.1562
100.0,80858.03,-16.5472,67.1521
215.4,74651.31,-15.17588,67.145
464.2,67896.45,-14.72995,67.1665
1000.0,61575.97,-15.63875,67.181
2154.4,55638.79,-18.52593,67.1516
4641.6,49312.84,-25.5773,67.1634
10000.0,39807.42,-37.79892,67.1642
