Frequency,Impedance,Phase Angle,Temperature (Dry Bath)
10.0,44804.41,-11.8361,70.6827
21.544346900318832,41029.39,-10.21981,70.6893
46.41588833612777,38020.3,-9.227297,70.6793
100.0,34955.45,-10.08596,70.7043
215.44346900318823,33303.33,-6.45412,70.718
464.15888336127773,31355.89,-6.299536,70.7109
1000.0,29195.02,-7.106428,70.7374
2154.4346900318824,29020.41,-11.53887,70.7351
4641.588833612777,25787.39,-13.50269,70.7498
10000.0,22898.86,-21.12294,70.7693
