Frequency,Impedance,Phase Angle,Temperature (Dry Bath)
10.0,18867.21,-20.20239,71.069
21.544346900318832,16170.61,-17.57367,71.077
46.41588833612777,14161.92,-15.4351,71.0624
100.0,12528.0,-12.78031,71.0635
215.44346900318823,11379.29,-13.50985,71.0646
464.15888336127773,10255.36,-11.04055,71.0634
1000.0,9544.168,-10.33595,71.0798
2154.4346900318824,8701.166,-9.703066,71.0861
4641.588833612777,8283.311,-11.02701,71.0703
10000.0,7729.993,-14.5248,71.077
