Frequency,Impedance,Phase Angle,Temperature (Dry Bath)
10.0,205587.7,-8.282178,67.3882
21.5,195448.7,-8.020067,67.3856
46.4,186622.6,-8.066799,67.4041
100.0,178915.1,-10.66094,67.399
215.4,162160.2,-12.76318,67.3893
464.2,151496.2,-13.57424,67.3973
1000.0,144145.9,-18.6418,67.3855
2154.4,117687.5,-28.84071,67.3775
4641.6,88646.76,-39.34597,67.3842
10000.0,60204.89,-50.09664,67.3826
