Frequency,Impedance,Phase Angle,Temperature (Dry Bath)
10.0,126310.1,-25.19622,67.5008
21.5,104748.5,-22.18798,67.4977
46.4,89906.35,-19.08953,67.5051
100.0,81102.3,-16.42381,67.5219
215.4,71983.68,-14.77294,67.5188
464.2,65404.8,-13.95004,67.5181
1000.0,59580.36,-14.78698,67.5015
2154.4,53815.75,-17.6831,67.5091
4641.6,47705.54,-23.32486,67.5155
10000.0,39473.91,-34.55461,67.5007
