Frequency,Impedance,Phase Angle,Temperature (Dry Bath)
10.0,231496.4,-17.55583,68.0021
21.5,202299.7,-16.39974,67.9885
46.4,183782.8,-16.00522,68.0036
100.0,169384.2,-14.61857,68.0072
215.4,160484.6,-16.32298,68.0045
464.2,139539.6,-17.721,68.0124
1000.0,131607.3,-21.76768,68.0129
2154.4,111877.7,-25.1703,68.0192
4641.6,90935.55,-36.36411,68.0179
10000.0,65020.75,-48.66947,68.0093
