Frequency,Impedance,Phase Angle,Temperature (Dry Bath)
10.0,29536300.0,-20.93909,66.9942
21.5,32116230.0,-34.62308,66.9877
46.4,17182290.0,-51.36927,66.9735
100.0,4397070.0,16.82003,66.9769
215.4,3611485.0,-81.25203,66.9814
464.2,2695898.0,-91.22931,66.9591
1000.0,1012959.0,-81.81723,66.9866
2154.4,492200.3,-86.14381,66.9841
4641.6,228036.6,-81.46433,66.9689
10000.0,114887.4,-78.98671,66.9929
