Frequency,Impedance,Phase Angle,Temperature (Dry Bath)
10.0,1103872.0,-13.40418,65.7972
21.544346900318832,1098556.0,-6.936192,65.7841
46.41588833612777,908657.7,-20.63533,65.786
100.0,881531.5,55.94841,65.7828
215.44346900318823,50701.41,-140.6634,65.7847
464.15888336127773,557223.3,-24.63832,65.7772
1000.0,417092.7,-43.02262,65.7831
2154.4346900318824,160797.6,-78.45344,65.778
4641.588833612777,139020.2,-84.67859,65.7652
10000.0,65375.0,-92.3476,65.7688
