Frequency,Impedance,Phase Angle,Temperature (Dry Bath)
10.0,82261.6,-14.42897,69.5833
21.544346900318832,72703.49,-13.80051,69.5832
46.41588833612777,64859.72,-14.47452,69.5711
100.0,56986.14,-12.20089,69.5556
215.44346900318823,52379.12,-15.89006,69.588
464.15888336127773,44253.46,-19.93527,69.5682
1000.0,38667.75,-22.25896,69.5792
2154.4346900318824,39973.77,-15.52763,69.5878
4641.588833612777,30714.16,-24.25081,69.5903
10000.0,22690.01,-38.26003,69.5786
