Frequency,Impedance,Phase Angle,Temperature (Dry Bath)
10.0,30381720.0,-9.715612,68.1535
21.5,14351540.0,-33.67912,68.1535
46.4,9329251.0,-50.82341,68.1535
100.0,3156966.0,-30.52414,68.1535
215.4,5164218.0,-89.15124,68.1535
464.2,2215270.0,-66.16029,68.1535
1000.0,925020.9,-80.69848,68.1535
2154.4,450142.8,-84.55545,68.1535
4641.6,237589.8,-88.77203,68.1535
10000.0,111394.3,-87.63178,68.1535
