Frequency,Impedance,Phase Angle,Temperature (Dry Bath)
10.0,17100620.0,-19.6917,68.0147
21.5,16309030.0,-31.60618,68.0147
46.4,14138880.0,-52.20274,68.0147
100.0,5953809.0,-39.51633,68.0147
215.4,4492202.0,-80.44569,68.0147
464.2,1786036.0,-71.6849,68.0147
1000.0,824684.3,-77.25245,68.0147
2154.4,483469.9,-82.46377,68.0147
4641.6,230378.0,-84.16606,68.0147
10000.0,112827.7,-88.16576,68.0147
