Frequency,Impedance,Phase Angle,Temperature (Dry Bath)
10.0,24353810.0,-15.54745,68.114
21.5,27808880.0,-43.69092,68.1037
46.4,25260810.0,-54.62832,68.1182
100.0,7584566.0,-20.36577,68.1164
215.4,3991089.0,-85.91972,68.1163
464.2,2025424.0,-77.221,68.1181
1000.0,983756.4,-81.49938,68.1025
2154.4,535098.8,-81.35783,68.1274
4641.6,257381.9,-85.24816,68.1298
10000.0,120336.5,-91.64473,68.1095
