Frequency,Impedance,Phase Angle,Temperature (Dry Bath)
10.0,24684690.0,-22.00596,67.6317
21.5,28527100.0,-49.10501,67.6456
46.4,20004540.0,-63.74247,67.6573
100.0,8891990.0,-49.50783,67.642
215.4,3731189.0,-78.31648,67.6536
464.2,1674327.0,-64.44017,67.6465
1000.0,907311.8,-80.02853,67.6537
2154.4,550064.0,-75.66989,67.6678
4641.6,254846.1,-85.30954,67.6463
10000.0,131808.8,-91.53573,67.6571
