Frequency,Impedance,Phase Angle,Temperature (Dry Bath)
10.0,38061040.0,-43.98655,67.3167
21.5,28069430.0,-34.77808,67.2921
46.4,15638930.0,-55.02716,67.3076
100.0,6500351.0,-102.7624,67.2997
215.4,3407990.0,-57.23851,67.3068
464.2,1904746.0,-75.47073,67.2982
1000.0,908407.2,-79.71695,67.3034
2154.4,432761.6,-81.95941,67.3027
4641.6,225703.6,-82.29533,67.317
10000.0,111538.7,-83.77869,67.294
