Frequency,Impedance,Phase Angle,Temperature (Dry Bath)
10.0,98952.12,-14.82396,71.4959
21.544346900318832,88855.44,-13.41698,71.4859
46.41588833612777,80252.73,-12.1485,71.485
100.0,67401.67,-10.36557,71.4876
215.44346900318823,68218.27,-11.6733,71.5048
464.15888336127773,62301.76,-8.441842,71.4851
1000.0,56584.99,-9.626362,71.4947
2154.4346900318824,54618.6,-15.1486,71.4906
4641.588833612777,46632.18,-13.05925,71.5033
10000.0,41278.08,-26.62387,71.4924
