Frequency,Impedance,Phase Angle,Temperature (Dry Bath)
10.0,24739130.0,-10.17927,17.603
21.5,21707520.0,-28.51913,17.6029
46.4,27456500.0,-40.90733,17.6198
100.0,4076351.0,-27.66435,17.601
215.4,7335884.0,-82.24565,17.6049
464.2,2865969.0,-92.08672,17.6289
1000.0,1422927.0,-82.0704,17.6102
2154.4,630803.0,-85.47683,17.6059
4641.6,302514.3,-89.7127,17.6083
10000.0,143536.0,-100.1415,17.6076
