Frequency,Impedance,Phase Angle,Temperature (Dry Bath)
10.0,568620.9,-11.80179,68.0159
21.5,526814.7,-10.61163,68.0101
46.4,486762.5,-11.60815,68.0197
100.0,430189.7,-13.1444,68.0193
215.4,401198.4,-16.67477,68.0121
464.2,350784.9,-20.48327,68.008
1000.0,289163.3,-28.10538,68.0114
2154.4,220242.4,-37.16928,68.014
4641.6,161256.7,-45.75976,68.0116
10000.0,109268.8,-60.30553,68.0124
