Frequency,Impedance,Phase Angle,Temperature (Dry Bath)
10.0,2787634.0,3.275438,28.4049
21.544346900318832,2263288.0,-14.43456,28.2941
46.41588833612777,2146445.0,-9.292068,28.4156
100.0,860364.1,-23.70751,28.4161
215.44346900318823,2121921.0,74.85291,28.4539
464.15888336127773,957983.7,-27.56615,28.4087
1000.0,9112977.0,-51.77219,28.4122
2154.4346900318824,408745.5,-68.5704,28.4348
4641.588833612777,162299.4,-89.02518,28.4649
10000.0,107199.9,-78.67826,28.5349
