Frequency,Impedance,Phase Angle,Temperature (Dry Bath)
10.0,5511249.0,-1.236789,65.853
21.544346900318832,5276836.0,-6.103521,65.8441
46.41588833612777,4187008.0,-19.11487,65.8458
100.0,249418.9,69.23707,65.8448
215.44346900318823,28407.24,113.0319,65.8563
464.15888336127773,1141735.0,-134.3978,65.8426
1000.0,805025.9,-95.0266,65.8672
2154.4346900318824,298447.3,-96.94183,65.8563
4641.588833612777,128107.7,-77.91999,65.8631
10000.0,61561.05,-87.9959,65.8417
