Frequency,Impedance,Phase Angle,Temperature (Dry Bath)
10.0,3248190.0,-9.240234,68.2499
21.5,2624529.0,-11.61816,68.2499
46.4,2398590.0,-15.62255,68.2499
100.0,2176772.0,-23.81567,68.2499
215.4,2253984.0,-38.58361,68.2499
464.2,1368338.0,-50.71664,68.2499
1000.0,874671.8,-58.70037,68.2499
2154.4,498639.7,-65.6371,68.2499
4641.6,286802.3,-79.66163,68.2499
10000.0,142329.5,-88.51384,68.2499
