Frequency,Impedance,Phase Angle,Temperature (Dry Bath)
10.0,22199190.0,-13.90077,68.1458
21.5,34070460.0,-27.30392,68.1505
46.4,25958530.0,-40.4241,68.131
100.0,6773805.0,53.48157,68.1452
215.4,7679751.0,-83.33409,68.1566
464.2,3053974.0,-97.69935,68.1568
1000.0,1576102.0,-84.12912,68.1618
2154.4,694951.1,-85.16549,68.1524
4641.6,303034.9,-90.64644,68.1402
10000.0,156327.3,-93.10485,68.1479
