Frequency,Impedance,Phase Angle,Temperature (Dry Bath)
10.0,22434890.0,-20.97706,68.2499
21.5,18282740.0,-48.10581,68.2499
46.4,11147860.0,-47.71709,68.2499
100.0,4282204.0,-31.08564,68.2499
215.4,4858188.0,-64.34171,68.2499
464.2,1742635.0,-89.01785,68.2499
1000.0,1023525.0,-74.98932,68.2499
2154.4,448087.8,-84.64602,68.2499
4641.6,252902.5,-82.87517,68.2499
10000.0,120498.8,-86.62684,68.2499
