Frequency,Impedance,Phase Angle,Temperature (Dry Bath)
10.0,5016156.0,37.10358,71.298
21.544346900318832,5934647.0,12.08239,71.2998
46.41588833612777,5201797.0,-22.21715,71.2964
100.0,598418.4,49.81203,71.3031
215.44346900318823,1313420.0,-100.689,71.3032
464.15888336127773,475089.4,78.33531,71.292
1000.0,359763.2,-141.0093,71.2935
2154.4346900318824,1009354.0,-121.623,71.3125
4641.588833612777,218117.6,-49.96826,71.3044
10000.0,143472.4,-84.41195,71.3075
