Frequency,Impedance,Phase Angle,Temperature (Dry Bath)
10.0,213054.6,-9.081345,67.8804
21.5,200896.1,-9.065419,67.8853
46.4,188218.5,-8.688123,67.8828
100.0,178078.0,-8.136804,67.8791
215.4,164385.9,-10.99616,67.8905
464.2,161808.5,-13.59548,67.8747
1000.0,152336.1,-19.287,67.8746
2154.4,134780.5,-25.93996,67.889
4641.6,107257.4,-39.02283,67.8928
10000.0,75399.77,-55.70831,67.8823
