Frequency,Impedance,Phase Angle,Temperature (Dry Bath)
10.0,3684469.0,30.38893,71.3418
21.544346900318832,6123337.0,-12.884,71.3586
46.41588833612777,6054828.0,-21.03982,71.322
100.0,1489715.0,23.98018,71.3234
215.44346900318823,844741.4,54.81608,71.3266
464.15888336127773,913835.0,-20.3856,71.3365
1000.0,584236.2,-108.0604,71.3183
2154.4346900318824,360290.3,-43.07968,71.3147
4641.588833612777,257649.6,-75.92581,71.3226
10000.0,98784.05,-84.41835,71.3183
