Frequency,Impedance,Phase Angle,Temperature (Dry Bath)
10.0,4476920.0,-11.66604,65.7893
21.544346900318832,4711663.0,-2.051336,65.7992
46.41588833612777,4037210.0,-23.83056,65.7907
100.0,1290980.0,86.53951,65.7936
215.44346900318823,6628.17,118.9625,65.7906
464.15888336127773,930122.3,-29.43559,65.795
1000.0,503230.8,-83.19311,65.792
2154.4346900318824,265473.1,-78.70696,65.8052
4641.588833612777,130274.2,-88.73614,65.7912
10000.0,68760.3,-86.67623,65.8024
