Frequency,Impedance,Phase Angle,Temperature (Dry Bath)
10.0,153220.4,-6.401463,67.8882
21.5,147364.3,-5.27117,67.8939
46.4,141581.4,-4.74428,67.8799
100.0,136736.1,-6.247853,67.8777
215.4,134021.9,-7.772332,67.8791
464.2,128139.9,-7.837055,67.8668
1000.0,123465.5,-12.3051,67.885
2154.4,110932.5,-17.82039,67.8809
4641.6,99387.79,-31.60982,67.8783
10000.0,68919.07,-54.41512,67.8927
