Frequency,Impedance,Phase Angle,Temperature (Dry Bath)
10.0,37528130.0,-15.08969,67.7147
21.5,24116300.0,-47.8781,67.7093
46.4,25657340.0,-54.25812,67.7226
100.0,5379369.0,-57.08307,67.7063
215.4,2951088.0,-100.1994,67.7389
464.2,1514463.0,-74.10134,67.7117
1000.0,1039590.0,-83.11033,67.6992
2154.4,513126.2,-84.45924,67.7178
4641.6,239747.9,-89.53017,67.7066
10000.0,121746.4,-88.65662,67.6974
