Frequency,Impedance,Phase Angle,Temperature (Dry Bath)
10.0,4698345.0,-8.078834,70.9114
21.544346900318832,4083520.0,0.1518949,70.8903
46.41588833612777,4952558.0,-19.17754,70.8987
100.0,803745.5,-36.52657,70.891
215.44346900318823,980603.4,12.77361,70.9012
464.15888336127773,755458.0,-45.80844,70.8811
1000.0,391292.5,-57.19453,70.8894
2154.4346900318824,248355.4,-109.4196,70.8862
4641.588833612777,114400.5,-87.85363,70.9007
10000.0,63369.87,-86.78909,70.9013
