Frequency,Impedance,Phase Angle,Temperature (Dry Bath)
10.0,21508.16,-29.03318,70.601
21.544346900318832,16988.91,-26.69659,70.5982
46.41588833612777,13660.15,-24.60541,70.5907
100.0,11259.98,-23.07972,70.5963
215.44346900318823,9460.631,-18.77898,70.5972
464.15888336127773,8132.66,-16.77324,70.5824
1000.0,7224.654,-15.57535,70.5949
2154.4346900318824,6602.545,-11.26543,70.5948
4641.588833612777,5984.574,-11.10829,70.5963
10000.0,5630.25,-14.22183,70.5931
