Frequency,Impedance,Phase Angle,Temperature (Dry Bath)
10.0,17763000.0,-10.01483,68.1005
21.5,15931870.0,-31.32839,68.0998
46.4,12105220.0,-63.14023,68.0974
100.0,10491690.0,-60.2188,68.0913
215.4,3520730.0,-88.87154,68.0957
464.2,2324432.0,-81.48976,68.0971
1000.0,1014193.0,-82.85095,68.0734
2154.4,515248.1,-84.7359,68.0798
4641.6,261674.8,-84.84127,68.0708
10000.0,120248.7,-91.91857,68.0763
