Frequency,Impedance,Phase Angle,Temperature (Dry Bath)
10.0,19701920.0,-29.19589,68.1634
21.5,16771390.0,-43.24087,68.1625
46.4,21177500.0,-59.34188,68.169
100.0,5104691.0,-43.61243,68.1807
215.4,3985486.0,-87.63734,68.1595
464.2,1858445.0,-78.73535,68.1638
1000.0,1013397.0,-77.53004,68.1727
2154.4,543200.5,-75.9558,68.1685
4641.6,275017.8,-80.866,68.1795
10000.0,129790.9,-90.49124,68.1744
