Frequency,Impedance,Phase Angle,Temperature (Dry Bath)
10.0,4591935.0,2.151015,65.8515
21.544346900318832,6151981.0,-4.11014,65.8432
46.41588833612777,3800329.0,-15.78053,65.853
100.0,818747.9,-28.82208,65.8477
215.44346900318823,14667.86,-99.397,65.8583
464.15888336127773,953566.5,-82.38375,65.8431
1000.0,359100.1,-91.17076,65.8477
2154.4346900318824,345610.8,-104.2421,65.8591
4641.588833612777,175098.6,-86.92187,65.85
10000.0,68205.5,-82.86983,65.8595
