Frequency,Impedance,Phase Angle,Temperature (Dry Bath)
10.0,27993880.0,-14.75974,68.0492
21.5,35804690.0,-13.2859,68.0454
46.4,32149370.0,-47.44488,68.0546
100.0,8599457.0,13.7846,68.0488
215.4,4592457.0,-78.13639,68.0549
464.2,3862932.0,-68.11068,68.0697
1000.0,1413704.0,-81.88947,68.0575
2154.4,637793.8,-87.3918,68.0692
4641.6,313255.6,-88.60439,68.054
10000.0,143657.7,-91.54771,68.0423
