Frequency,Impedance,Phase Angle,Temperature (Dry Bath)
10.0,134880.3,-6.353241,67.1204
21.5,129325.5,-5.392972,67.1417
46.4,124587.4,-5.024351,67.1196
100.0,116031.9,-1.641682,67.1309
215.4,114657.0,-9.940264,67.1285
464.2,112737.0,-8.720369,67.1474
1000.0,110979.8,-12.65956,67.1434
2154.4,100124.2,-20.81137,67.1496
4641.6,82216.51,-33.08003,67.1423
10000.0,58587.16,-50.03935,67.1236
