Frequency,Impedance,Phase Angle,Temperature (Dry Bath)
10.0,22415.75,-21.62279,65.7243
21.544346900318832,18854.17,-18.52083,65.7218
46.41588833612777,16374.83,-15.39279,65.7
100.0,14811.41,-11.91886,65.723
215.44346900318823,8937.296,-56.58108,65.7135
464.15888336127773,12729.73,-8.293303,65.7262
1000.0,11554.94,-7.287178,65.722
2154.4346900318824,11272.82,-8.456833,65.7282
4641.588833612777,10877.54,-10.49087,65.7064
10000.0,10168.21,-14.05334,65.7132
