Frequency,Impedance,Phase Angle,Temperature (Dry Bath)
10.0,23322070.0,-31.61155,68.2081
21.5,29615310.0,-42.90124,68.216
46.4,23928240.0,-57.4116,68.2157
100.0,7545343.0,-48.37754,68.1842
215.4,5853195.0,-90.25497,68.2179
464.2,2305974.0,-82.29683,68.2202
1000.0,1031353.0,-83.87308,68.202
2154.4,556414.4,-86.19367,68.2065
4641.6,250433.4,-88.22382,68.2135
10000.0,113471.2,-95.16827,68.1927
