Frequency,Impedance,Phase Angle,Temperature (Dry Bath)
10.0,13527.85,-19.95518,70.906
21.544346900318832,11623.61,-17.19872,70.9118
46.41588833612777,10204.05,-15.12,70.9219
100.0,9213.863,-13.00641,70.9123
215.44346900318823,8314.47,-11.41952,70.9185
464.15888336127773,7360.293,-9.78747,70.9154
1000.0,7064.527,-9.302973,70.8939
2154.4346900318824,6417.546,-9.745776,70.91
4641.588833612777,6038.898,-9.857833,70.9037
10000.0,5576.492,-12.48705,70.9145
