Frequency,Impedance,Phase Angle,Temperature (Dry Bath)
10.0,1092854.0,-10.95635,68.2407
21.5,1001892.0,-10.40966,68.2407
46.4,906801.0,-10.7973,68.2407
100.0,817574.4,-11.31494,68.2407
215.4,736562.8,-14.60653,68.2407
464.2,663888.0,-19.20009,68.2407
1000.0,557269.9,-28.2784,68.2407
2154.4,462653.1,-39.16459,68.2407
4641.6,327618.3,-58.3467,68.2407
10000.0,180256.5,-81.19707,68.2407
