Frequency,Impedance,Phase Angle,Temperature (Dry Bath)
10.0,12799.33,-23.19191,70.9493
21.544346900318832,10746.55,-19.62513,70.9519
46.41588833612777,9290.289,-16.66834,70.9437
100.0,8316.881,-14.00118,70.9533
215.44346900318823,7497.379,-12.49381,70.9461
464.15888336127773,6796.647,-11.47409,70.9525
1000.0,6141.993,-9.469822,70.95
2154.4346900318824,5796.973,-8.824486,70.9413
4641.588833612777,5395.052,-10.00082,70.9515
10000.0,5143.688,-10.80179,70.9549
