Frequency,Impedance,Phase Angle,Temperature (Dry Bath)
10.0,131782.0,-6.555349,67.4475
21.5,125637.8,-5.391577,67.4364
46.4,121781.2,-5.199393,67.4336
100.0,114019.2,-5.17997,67.4399
215.4,113206.1,-5.265155,67.4447
464.2,110950.3,-8.061455,67.4271
1000.0,103908.0,-12.64742,67.4279
2154.4,98839.3,-18.21922,67.4349
4641.6,84762.62,-30.76479,67.4455
10000.0,60819.15,-48.19881,67.4334
