Frequency,Impedance,Phase Angle,Temperature (Dry Bath)
10.0,3991333.0,-26.27489,71.0312
21.544346900318832,6247261.0,6.262589,71.0289
46.41588833612777,4363326.0,-42.82329,71.0294
100.0,382664.1,131.1175,71.0292
215.44346900318823,1180076.0,-56.67645,71.0187
464.15888336127773,792248.7,-62.21375,71.0286
1000.0,684831.1,-110.7427,71.025
2154.4346900318824,281947.0,-98.03664,71.0281
4641.588833612777,110961.6,-70.30355,71.0305
10000.0,60812.0,-83.02063,71.0293
