Frequency,Impedance,Phase Angle,Temperature (Dry Bath)
10.0,1291651.0,-11.88556,67.998
21.5,1186297.0,-10.70997,67.9841
46.4,1061029.0,-13.01693,67.9801
100.0,889836.8,-16.0406,67.9777
215.4,894808.0,-20.48352,67.9739
464.2,688155.7,-30.40401,67.976
1000.0,542834.5,-41.26044,67.9754
2154.4,370348.0,-48.10715,67.971
4641.6,233164.3,-58.37739,67.9933
10000.0,137033.1,-75.26885,67.9765
