Frequency,Impedance,Phase Angle,Temperature (Dry Bath)
10.0,8740.613,-28.01903,70.7222
21.544346900318832,6895.623,-26.98615,70.7238
46.41588833612777,5490.578,-25.35563,70.7236
100.0,4449.61,-22.81584,70.7167
215.44346900318823,3681.154,-20.39708,70.7337
464.15888336127773,3137.559,-17.53234,70.7164
1000.0,2739.799,-13.91924,70.7385
2154.4346900318824,2468.042,-12.78464,70.7396
4641.588833612777,2257.584,-11.7854,70.7326
10000.0,2072.762,-11.81349,70.7384
