Frequency,Impedance,Phase Angle,Temperature (Dry Bath)
10.0,46803.01,-15.50133,70.5736
21.544346900318832,41695.7,-13.61881,70.5533
46.41588833612777,37669.45,-12.84553,70.5582
100.0,33037.21,-17.40264,70.5563
215.44346900318823,30594.36,-12.92142,70.5547
464.15888336127773,29505.44,-13.93786,70.5651
1000.0,25367.58,-16.10815,70.561
2154.4346900318824,23016.42,-16.86879,70.5471
4641.588833612777,20799.8,-21.82796,70.5532
10000.0,17890.34,-28.77981,70.5556
