Frequency,Impedance,Phase Angle,Temperature (Dry Bath)
10.0,27626120.0,-17.50852,68.2813
21.5,24882300.0,-42.56622,68.2813
46.4,11488660.0,-47.60234,68.2813
100.0,11007580.0,-30.92238,68.2813
215.4,4935247.0,-76.4101,68.2813
464.2,2080079.0,-75.20658,68.2813
1000.0,1086477.0,-85.67916,68.2813
2154.4,488923.3,-82.28355,68.2813
4641.6,243704.5,-78.28002,68.2813
10000.0,125688.2,-94.92382,68.2813
