Frequency,Impedance,Phase Angle,Temperature (Dry Bath)
10.0,20823830.0,-17.33205,67.8791
21.5,20738540.0,-23.04543,67.915
46.4,27802170.0,-53.40721,67.8993
100.0,13696990.0,-50.57838,67.8955
215.4,9978851.0,-61.31857,67.9082
464.2,1942437.0,-88.88437,67.9056
1000.0,1067647.0,-84.67395,67.8927
2154.4,552376.6,-79.33228,67.8983
4641.6,279568.8,-84.05463,67.8853
10000.0,138179.5,-83.9438,67.9001
