Frequency,Impedance,Phase Angle,Temperature (Dry Bath)
10.0,3689190.0,0.7118105,68.0147
21.5,4762288.0,2.657945,68.0147
46.4,5457719.0,0.1687335,68.0147
100.0,4308051.0,-32.14257,68.0147
215.4,3979878.0,-44.69936,68.0147
464.2,2066244.0,-65.96295,68.0147
1000.0,1017222.0,-72.93407,68.0147
2154.4,530020.8,-72.50883,68.0147
4641.6,250349.7,-80.27957,68.0147
10000.0,138647.4,-84.84634,68.0147
