Frequency,Impedance,Phase Angle,Temperature (Dry Bath)
10.0,5679750.0,17.75371,67.9814
21.5,9366723.0,19.06702,67.9814
46.4,12176100.0,5.705775,67.9814
100.0,4865297.0,-30.52992,67.9814
215.4,4041494.0,-32.72949,67.9814
464.2,2166866.0,-71.35986,67.9814
1000.0,957220.0,-79.96005,67.9814
2154.4,504981.8,-73.70854,67.9814
4641.6,266275.6,-84.77397,67.9814
10000.0,140050.2,-89.24037,67.9814
