Frequency,Impedance,Phase Angle,Temperature (Dry Bath)
10.0,742271.9,-9.24568,67.0321
21.5,690257.8,-10.48817,67.0362
46.4,635987.2,-12.46983,67.0331
100.0,553421.7,-9.488073,67.0433
215.4,550104.2,-25.86463,67.0281
464.2,431071.4,-24.613,67.0361
1000.0,368185.6,-33.74487,67.0457
2154.4,271153.9,-47.22382,67.0512
4641.6,167250.2,-58.31019,67.0534
10000.0,93640.96,-65.16896,67.0514
