Frequency,Impedance,Phase Angle,Temperature (Dry Bath)
10.0,19411.77,-18.90667,67.6755
21.5,16826.31,-15.53403,67.6868
46.4,15049.25,-12.37072,67.6788
100.0,14099.63,-10.61637,67.6662
215.4,13264.75,-7.727163,67.6762
464.2,12211.85,-6.748623,67.6716
1000.0,11750.94,-5.316863,67.6715
2154.4,11372.95,-6.147358,67.6711
4641.6,11093.95,-6.48669,67.6814
10000.0,10805.57,-12.68047,67.6633
