Frequency,Impedance,Phase Angle,Temperature (Dry Bath)
10.0,24752560.0,-20.86728,68.0096
21.5,18183230.0,-29.59097,68.0131
46.4,21783290.0,-46.67574,68.0148
100.0,5002664.0,-130.5732,67.9985
215.4,4973601.0,-60.13143,67.9886
464.2,2052603.0,-72.02996,68.0084
1000.0,965467.1,-91.34502,68.0158
2154.4,495065.5,-84.94905,68.0134
4641.6,222531.1,-85.55138,68.002
10000.0,112702.2,-89.82282,68.0006
