Frequency,Impedance,Phase Angle,Temperature (Dry Bath)
10.0,6835.627,-25.44112,70.6585
21.544346900318832,5597.796,-22.35828,70.6426
46.41588833612777,4719.396,-19.5274,70.654
100.0,4044.421,-17.75521,70.6485
215.44346900318823,3581.83,-14.97404,70.6622
464.15888336127773,3210.725,-12.34765,70.6638
1000.0,2903.856,-11.30651,70.6663
2154.4346900318824,2684.553,-9.272674,70.6581
4641.588833612777,2521.565,-8.275497,70.6401
10000.0,2389.481,-8.8108,70.6488
