Frequency,Impedance,Phase Angle,Temperature (Dry Bath)
10.0,4760448.0,-25.92218,71.2485
21.544346900318832,5023022.0,-29.72851,71.2572
46.41588833612777,4186118.0,-26.20437,71.2573
100.0,1440464.0,-100.3067,71.2432
215.44346900318823,558833.7,1.017116,71.2455
464.15888336127773,767739.5,-63.58915,71.2629
1000.0,2005201.0,83.23747,71.2487
2154.4346900318824,351299.3,-82.95863,71.2391
4641.588833612777,142895.1,-88.74803,71.2434
10000.0,62861.32,-76.07941,71.2476
