Frequency,Impedance,Phase Angle,Temperature (Dry Bath)
10.0,188452.2,-18.91755,65.8662
21.544346900318832,161297.4,-18.96538,65.8788
46.41588833612777,142710.2,-16.53672,65.8643
100.0,66768.56,-50.10367,65.8663
215.44346900318823,18309.99,1.694684,65.8641
464.15888336127773,106814.5,-15.15756,65.8689
1000.0,87111.03,-21.19588,65.8753
2154.4346900318824,67499.03,-24.91689,65.8671
4641.588833612777,56395.79,-35.62652,65.8624
10000.0,38915.25,-49.35008,65.8639
