Frequency,Impedance,Phase Angle,Temperature (Dry Bath)
10.0,567246.0,-11.33211,68.1356
21.5,526907.8,-10.87148,68.1547
46.4,480176.5,-11.60683,68.1461
100.0,419243.7,-11.2944,68.1319
215.4,378222.0,-18.81906,68.1393
464.2,347328.1,-21.91688,68.1194
1000.0,282991.9,-26.72788,68.1354
2154.4,220883.3,-35.81587,68.1244
4641.6,167345.1,-45.8251,68.1312
10000.0,110170.5,-62.21492,68.1455
