Frequency,Impedance,Phase Angle,Temperature (Dry Bath)
10.0,181999.1,-19.32024,71.3626
21.544346900318832,160324.5,-18.49306,71.3532
46.41588833612777,138046.7,-16.71651,71.3644
100.0,114269.4,-22.10564,71.3631
215.44346900318823,21109.74,107.2148,71.3671
464.15888336127773,90703.48,-25.27661,71.3761
1000.0,69901.88,-33.52101,71.3505
2154.4346900318824,74231.94,-26.76488,71.3687
4641.588833612777,50013.81,-43.99572,71.3663
10000.0,33018.13,-50.42265,71.3777
