Frequency,Impedance,Phase Angle,Temperature (Dry Bath)
10.0,250019.1,-10.28641,71.3559
21.544346900318832,228494.5,-13.22545,71.346
46.41588833612777,203891.9,-14.32028,71.3531
100.0,210649.5,-31.2695,71.3651
215.44346900318823,68394.27,-132.9015,71.3565
464.15888336127773,125225.8,-13.34949,71.3495
1000.0,117028.4,-24.40361,71.3597
2154.4346900318824,85733.76,-35.43041,71.3559
4641.588833612777,74228.13,-53.93195,71.3481
10000.0,48510.0,-63.52009,71.3655
