Frequency,Impedance,Phase Angle,Temperature (Dry Bath)
10.0,7828643.0,-9.736957,70.3432
21.544346900318832,6432681.0,11.7813,70.3172
46.41588833612777,4410039.0,1.597324,70.3401
100.0,659027.6,-122.7015,70.3311
215.44346900318823,972336.9,-70.55035,70.3159
464.15888336127773,764446.8,136.8833,70.3117
1000.0,607995.7,56.57802,70.3313
2154.4346900318824,598136.3,-40.82454,70.3056
4641.588833612777,359073.4,-81.38709,70.3152
10000.0,126340.4,-76.7641,70.3229
