Frequency,Impedance,Phase Angle,Temperature (Dry Bath)
10.0,37943110.0,-5.516671,68.1087
21.5,42397760.0,-37.49884,68.0987
46.4,26784180.0,-50.18259,68.1021
100.0,6297814.0,-32.82657,68.1173
215.4,4434638.0,-84.84267,68.1133
464.2,2134970.0,-85.19392,68.1219
1000.0,987361.4,-88.95572,68.1096
2154.4,536996.0,-84.89568,68.1102
4641.6,245934.4,-79.54999,68.1143
10000.0,138793.8,-90.16455,68.1207
