Frequency,Impedance,Phase Angle,Temperature (Dry Bath)
10.0,22653980.0,-25.42703,68.1625
21.5,18142850.0,-37.81995,68.1413
46.4,20099540.0,-54.32609,68.1332
100.0,6312127.0,-20.82212,68.157
215.4,3108317.0,-69.87754,68.1546
464.2,1629923.0,-84.94835,68.1366
1000.0,867772.1,-76.31236,68.1527
2154.4,513143.0,-78.20925,68.1546
4641.6,260265.5,-87.14566,68.151
10000.0,127257.8,-90.74829,68.1324
