Frequency,Impedance,Phase Angle,Temperature (Dry Bath)
10.0,4988949.0,-36.08767,70.6105
21.544346900318832,2367370.0,-23.27095,70.5869
46.41588833612777,2568451.0,-19.5712,70.5959
100.0,1946062.0,26.9903,70.6008
215.44346900318823,770918.5,-94.12719,70.6003
464.15888336127773,419567.2,-101.0736,70.5873
1000.0,429847.6,-53.90819,70.5745
2154.4346900318824,268077.1,-61.14718,70.6092
4641.588833612777,106652.5,-88.45216,70.6074
10000.0,51857.88,-88.25115,70.6029
