Frequency,Impedance,Phase Angle,Temperature (Dry Bath)
10.0,113949.6,-22.20432,67.3279
21.5,95507.74,-20.26149,67.3129
46.4,84534.63,-18.48224,67.3055
100.0,78198.78,-16.52529,67.3096
215.4,67813.22,-14.60661,67.3148
464.2,64298.74,-15.26473,67.3052
1000.0,58912.66,-16.06396,67.3164
2154.4,53534.26,-19.2255,67.3107
4641.6,46589.33,-24.98115,67.3293
10000.0,38873.06,-35.48414,67.3245
