Frequency,Impedance,Phase Angle,Temperature (Dry Bath)
10.0,14620100.0,-23.55162,67.864
21.5,19999560.0,-34.43859,67.8572
46.4,28923110.0,-55.38855,67.8473
100.0,9112424.0,-33.64999,67.864
215.4,5706599.0,-77.04056,67.8642
464.2,2038259.0,-89.16798,67.8424
1000.0,1135767.0,-78.95773,67.8557
2154.4,490211.0,-77.00152,67.8686
4641.6,310465.4,-83.67004,67.8726
10000.0,149430.9,-89.43531,67.8597
