Frequency,Impedance,Phase Angle,Temperature (Dry Bath)
10.0,16151420.0,-17.05967,68.0128
21.5,25706450.0,-28.15994,68.0204
46.4,26163620.0,-61.6898,68.0236
100.0,7352576.0,-31.33167,68.0092
215.4,5281481.0,-71.04749,68.0427
464.2,1968479.0,-80.14593,68.0184
1000.0,1045211.0,-82.40632,68.0022
2154.4,524903.1,-90.61299,68.0204
4641.6,261289.5,-88.16554,68.0176
10000.0,115387.0,-95.49043,68.03
