Frequency,Impedance,Phase Angle,Temperature (Dry Bath)
10.0,158149.5,-6.442122,67.9187
21.5,151667.3,-5.367108,67.9266
46.4,146168.0,-4.885545,67.9289
100.0,137351.9,-5.238776,67.9101
215.4,135008.7,-6.625589,67.9178
464.2,134595.4,-7.583861,67.9101
1000.0,126549.2,-12.72514,67.9121
2154.4,119176.6,-21.1247,67.9147
4641.6,101138.2,-35.23038,67.9163
10000.0,70733.45,-54.96724,67.9208
