Frequency,Impedance,Phase Angle,Temperature (Dry Bath)
10.0,191026.7,-19.78249,65.7206
21.544346900318832,164432.0,-17.98296,65.7156
46.41588833612777,145316.2,-14.76019,65.7294
100.0,110563.3,-23.72316,65.7253
215.44346900318823,121261.0,-43.20544,65.7262
464.15888336127773,104048.0,-17.03028,65.727
1000.0,83331.97,-23.04155,65.7385
2154.4346900318824,77078.34,-34.97717,65.7526
4641.588833612777,64847.93,-41.68856,65.7644
10000.0,39571.75,-47.13261,65.7741
