Frequency,Impedance,Phase Angle,Temperature (Dry Bath)
10.0,123010.0,-27.74219,72.2332
21.544346900318832,98564.22,-27.35233,72.2389
46.41588833612777,78323.83,-29.03377,72.227
100.0,51123.32,-26.18607,72.2278
215.44346900318823,47521.65,-19.80918,72.2345
464.15888336127773,33524.29,-37.10334,72.2192
1000.0,25294.7,-29.52933,72.2059
2154.4346900318824,19964.72,-28.3886,72.2146
4641.588833612777,16476.23,-20.49633,72.2196
10000.0,15618.95,-23.69448,72.2122
