Frequency,Impedance,Phase Angle,Temperature (Dry Bath)
10.0,114685.5,-24.49241,67.1946
21.5,96028.0,-21.38297,67.1846
46.4,83052.82,-18.02325,67.1916
100.0,74875.67,-15.74201,67.2092
215.4,42914.35,-13.33657,67.2162
464.2,59791.14,-12.46669,67.2217
1000.0,54998.22,-13.43431,67.2063
2154.4,50846.05,-16.19864,67.1764
4641.6,45528.17,-22.1026,67.1974
10000.0,37901.42,-34.0709,67.1877
