Frequency,Impedance,Phase Angle,Temperature (Dry Bath)
10.0,527758.0,-8.195765,67.0613
21.5,494037.6,-8.535757,67.0545
46.4,463076.4,-10.04596,67.0616
100.0,438767.3,-14.14628,67.063
215.4,421590.1,-15.8586,67.0716
464.2,369982.1,-21.73262,67.0766
1000.0,314061.9,-28.39664,67.0638
2154.4,231126.6,-42.5194,67.06
4641.6,151299.3,-52.71399,67.0515
10000.0,90335.97,-62.07336,67.0616
