Frequency,Impedance,Phase Angle,Temperature (Dry Bath)
10.0,1068053.0,-11.11142,68.0009
21.5,954103.0,-11.52848,67.989
46.4,886669.9,-12.33177,68.0155
100.0,794528.9,-11.71527,67.9903
215.4,713754.3,-20.664,67.9968
464.2,643349.3,-22.6298,68.0058
1000.0,476749.8,-33.1781,67.9977
2154.4,332211.6,-47.64704,68.0014
4641.6,230262.4,-58.80009,68.012
10000.0,140523.5,-71.69187,68.0147
