Frequency,Impedance,Phase Angle,Temperature (Dry Bath)
10.0,2135571.0,-10.42807,67.4006
21.5,1938694.0,-12.33393,67.426
46.4,1780194.0,-12.7812,67.3973
100.0,1226265.0,-11.36818,67.4146
215.4,140061.5,-121.6792,67.4127
464.2,1384818.0,-49.87034,67.4147
1000.0,690076.3,-60.32588,67.4071
2154.4,361280.8,-68.97605,67.433
4641.6,206581.3,-69.7153,67.4151
10000.0,105209.4,-72.91144,67.4182
