Frequency,Impedance,Phase Angle,Temperature (Dry Bath)
10.0,532883.2,-8.577317,66.9802
21.5,502499.3,-8.494748,66.9823
46.4,471962.3,-9.369908,66.9818
100.0,435131.7,-7.940679,66.9876
215.4,225658.2,-31.08677,66.9758
464.2,360106.2,-20.49298,66.974
1000.0,317222.4,-26.28358,66.9935
2154.4,236303.4,-45.30439,66.984
4641.6,153988.5,-53.71034,66.9907
10000.0,90749.3,-62.48458,66.9827
