Frequency,Impedance,Phase Angle,Temperature (Dry Bath)
10.0,164393.0,-8.104024,66.3631
21.544346900318832,150827.1,-7.769284,66.3292
46.41588833612777,143589.7,-8.315047,66.3416
100.0,172525.4,-20.98247,66.3534
215.44346900318823,242664.0,-17.31873,66.3445
464.15888336127773,111947.4,-12.41576,66.3493
1000.0,103375.1,-17.93702,66.3597
2154.4346900318824,89689.97,-20.65216,66.3462
4641.588833612777,69750.48,-46.45509,66.3217
10000.0,42126.91,-59.65931,66.3427
