Frequency,Impedance,Phase Angle,Temperature (Dry Bath)
10.0,116355.1,-14.51577,71.4636
21.544346900318832,103438.7,-13.52882,71.4656
46.41588833612777,94358.64,-11.89818,71.4596
100.0,95831.25,-8.902336,71.4587
215.44346900318823,84474.17,-13.75172,71.4563
464.15888336127773,67611.41,-16.64475,71.454
1000.0,65972.46,-12.82676,71.4602
2154.4346900318824,61986.26,-14.45798,71.4514
4641.588833612777,51139.03,-29.27491,71.455
10000.0,48618.81,-36.93156,71.4508
