Frequency,Impedance,Phase Angle,Temperature (Dry Bath)
10.0,12395.42,-26.96153,71.2082
21.544346900318832,9974.326,-24.37003,71.2038
46.41588833612777,8203.802,-21.63271,71.2125
100.0,7043.247,-18.83127,71.2195
215.44346900318823,5987.387,-15.99704,71.2064
464.15888336127773,5315.808,-14.52848,71.2158
1000.0,4742.1,-13.14416,71.221
2154.4346900318824,4311.678,-11.65797,71.2271
4641.588833612777,3927.44,-11.33836,71.2189
10000.0,3592.152,-12.32681,71.2177
