Frequency,Impedance,Phase Angle,Temperature (Dry Bath)
10.0,21524940.0,-11.67093,68.0167
21.5,14984000.0,-36.23513,68.0098
46.4,13644610.0,-45.99077,68.0125
100.0,8208056.0,-11.66668,68.0273
215.4,7424326.0,-123.6621,68.0122
464.2,2586503.0,-82.39257,68.0085
1000.0,1368952.0,-83.13816,68.0085
2154.4,748962.2,-90.72355,68.0118
4641.6,313913.6,-92.26146,68.0248
10000.0,147570.9,-96.61515,68.0217
