Frequency,Impedance,Phase Angle,Temperature (Dry Bath)
10.0,152386.3,-6.475633,68.2734
21.5,146589.9,-5.322195,68.2686
46.4,141934.4,-4.756769,68.2639
100.0,137326.8,-4.305884,68.2673
215.4,131847.8,-6.204291,68.2602
464.2,125903.8,-7.721416,68.2706
1000.0,121418.1,-10.89273,68.2602
2154.4,116406.5,-17.80413,68.2707
4641.6,99999.4,-33.06331,68.2717
10000.0,70194.68,-55.81723,68.2653
