Frequency,Impedance,Phase Angle,Temperature (Dry Bath)
10.0,36337620.0,-34.41397,67.2069
21.5,25184220.0,-34.39778,67.2092
46.4,20734080.0,-20.52069,67.2003
100.0,4201193.0,-38.77414,67.1999
215.4,3944854.0,-53.31931,67.2157
464.2,2020788.0,-93.53931,67.2218
1000.0,1038309.0,-83.43097,67.2121
2154.4,509551.9,-80.72603,67.2161
4641.6,262071.4,-81.08297,67.1973
10000.0,136463.6,-79.38468,67.1948
