Frequency,Impedance,Phase Angle,Temperature (Dry Bath)
10.0,4350271.0,5.138735,28.7444
21.544346900318832,12566160.0,10.93646,28.8912
46.41588833612777,5374664.0,-12.93927,28.861
100.0,823853.6,-49.7757,28.9168
215.44346900318823,8751788.0,31.65742,28.863
464.15888336127773,590668.4,0.337227,28.8126
1000.0,378435.0,-45.71977,28.7944
2154.4346900318824,966295.4,-78.8367,28.7668
4641.588833612777,218657.4,-79.29511,28.9967
10000.0,132840.1,-89.76062,28.9331
