Frequency,Impedance,Phase Angle,Temperature (Dry Bath)
10.0,25339010.0,-21.1434,67.8338
21.5,31774420.0,-27.99622,67.816
46.4,28520630.0,-54.07892,67.8227
100.0,3481308.0,-46.19092,67.8138
215.4,5393385.0,-72.75392,67.8255
464.2,2731057.0,-78.36848,67.831
1000.0,1440357.0,-83.63028,67.8316
2154.4,617801.9,-82.80613,67.8291
4641.6,321366.6,-90.878,67.8381
10000.0,154202.2,-96.36979,67.824
