Frequency,Impedance,Phase Angle,Temperature (Dry Bath)
10.0,3794787.0,-5.886763,67.1
21.544346900318832,9230456.0,26.40091,67.1
46.41588833612777,6909740.0,-16.56481,67.1
100.0,2804098.0,21.60044,67.1
215.44346900318823,1949252.0,-16.25323,67.1
464.15888336127773,1420516.0,-20.5725,67.1
1000.0,2225352.0,-53.82622,67.1
2154.4346900318824,406119.7,-50.095,67.1
4641.588833612777,834515.6,-66.55913,67.1
10000.0,229331.1,-72.65116,67.1
