Frequency,Impedance,Phase Angle,Temperature (Dry Bath)
10.0,119587.1,-24.62001,67.166
21.5,98432.16,-21.50279,67.173
46.4,85303.03,-18.40603,67.149
100.0,76080.46,-15.96373,67.1654
215.4,72132.04,-23.4642,67.1579
464.2,62617.55,-12.74861,67.1701
1000.0,56931.83,-13.86239,67.1699
2154.4,52479.59,-16.91408,67.1642
4641.6,47213.19,-23.46141,67.1449
10000.0,38734.59,-35.53418,67.1559
