Frequency,Impedance,Phase Angle,Temperature (Dry Bath)
10.0,103991.7,-24.18116,67.7719
21.5,87771.22,-21.68797,67.7788
46.4,76481.53,-19.10418,67.7868
100.0,66664.47,-16.29385,67.772
215.4,61635.75,-15.34513,67.7892
464.2,57120.5,-12.87421,67.785
1000.0,51360.14,-12.6865,67.7842
2154.4,48105.9,-15.58586,67.7952
4641.6,41689.24,-21.71426,67.7676
10000.0,37834.26,-31.83333,67.7917
