Frequency,Impedance,Phase Angle,Temperature (Dry Bath)
10.0,452575.1,-6.933116,71.2949
21.544346900318832,404024.3,-9.581992,71.3175
46.41588833612777,381128.4,-11.40075,71.3048
100.0,286544.1,-19.19775,71.3039
215.44346900318823,189256.5,-56.58684,71.3079
464.15888336127773,246384.5,-3.84933,71.3034
1000.0,253002.2,-21.44074,71.3082
2154.4346900318824,179642.6,-44.50688,71.3042
4641.588833612777,99099.29,-57.52193,71.3085
10000.0,63312.63,-77.1471,71.2973
