Frequency,Impedance,Phase Angle,Temperature (Dry Bath)
10.0,140230.9,-5.740595,67.1546
21.5,135359.8,-4.723867,67.1548
46.4,131556.0,-4.133952,67.1588
100.0,126328.6,-2.941723,67.1478
215.4,144271.7,-25.34847,67.1578
464.2,121051.4,-7.300577,67.1734
1000.0,114428.0,-12.05093,67.1639
2154.4,106927.8,-19.80742,67.1652
4641.6,90167.77,-32.61291,67.1622
10000.0,62876.99,-51.11337,67.166
