Frequency,Impedance,Phase Angle,Temperature (Dry Bath)
10.0,13063.2,-25.09526,71.4998
21.544346900318832,10536.36,-25.51771,71.5068
46.41588833612777,8401.002,-25.47419,71.5055
100.0,6686.968,-23.95968,71.508
215.44346900318823,5473.762,-22.58609,71.5189
464.15888336127773,4535.447,-20.31187,71.492
1000.0,3846.712,-17.94639,71.5127
2154.4346900318824,3345.8,-15.55775,71.516
4641.588833612777,2994.32,-14.34396,71.5099
10000.0,2698.506,-12.96869,71.521
