Frequency,Impedance,Phase Angle,Temperature (Dry Bath)
10.0,48653860.0,-22.17668,68.1713
21.5,36033540.0,-28.35515,68.153
46.4,25017050.0,-49.68783,68.1654
100.0,8957023.0,-46.75722,68.1571
215.4,3169535.0,-63.72382,68.1524
464.2,3054497.0,-98.95303,68.1395
1000.0,1092472.0,-80.39103,68.169
2154.4,548533.7,-81.86954,68.1553
4641.6,282885.7,-82.91862,68.1771
10000.0,148188.6,-89.88552,68.1515
