Frequency,Impedance,Phase Angle,Temperature (Dry Bath)
10.0,3740268.0,0.5470318,71.5137
21.544346900318832,5585216.0,22.6995,71.5222
46.41588833612777,4950722.0,-15.34755,71.5184
100.0,401492.6,-146.825,71.5146
215.44346900318823,482926.0,-55.5058,71.5142
464.15888336127773,1055049.0,74.42393,71.5033
1000.0,425359.3,-88.37781,71.5039
2154.4346900318824,377699.3,-83.33483,71.5142
4641.588833612777,208280.6,-92.37109,71.5151
10000.0,92140.2,-96.07485,71.5168
