Frequency,Impedance,Phase Angle,Temperature (Dry Bath)
10.0,29410650.0,-16.08363,67.4019
21.5,17370740.0,-45.34135,67.4342
46.4,12555160.0,-74.74903,67.4074
100.0,2909132.0,-45.564,67.4188
215.4,515004.3,-152.3356,67.4385
464.2,1514871.0,-65.72824,67.4362
1000.0,803260.3,-74.18877,67.4264
2154.4,442843.2,-76.5102,67.4204
4641.6,235343.1,-76.19495,67.4225
10000.0,118643.5,-82.42752,67.4342
