Frequency,Impedance,Phase Angle,Temperature (Dry Bath)
10.0,18479070.0,-29.67506,68.2499
21.5,23573300.0,-30.55484,68.2499
46.4,13243410.0,-53.6632,68.2499
100.0,7422560.0,-47.37314,68.2499
215.4,5209552.0,-91.59868,68.2499
464.2,2380495.0,-66.25581,68.2499
1000.0,1077754.0,-78.62241,68.2499
2154.4,624761.9,-81.08226,68.2499
4641.6,312109.4,-81.14617,68.2499
10000.0,155237.7,-90.35138,68.2499
