Frequency,Impedance,Phase Angle,Temperature (Dry Bath)
10.0,23421.38,-19.75607,71.0672
21.544346900318832,20194.42,-17.38662,71.0614
46.41588833612777,17581.95,-15.74281,71.0606
100.0,16088.51,-14.29847,71.0705
215.44346900318823,13891.51,-12.48428,71.0758
464.15888336127773,12645.23,-13.17127,71.0739
1000.0,11360.36,-10.3149,71.0614
2154.4346900318824,10902.37,-10.66257,71.0644
4641.588833612777,9958.232,-11.02592,71.0768
10000.0,9571.693,-16.42414,71.0646
