Frequency,Impedance,Phase Angle,Temperature (Dry Bath)
10.0,6903591.0,17.13087,68.1154
21.5,14506030.0,8.87649,68.1154
46.4,21235730.0,-44.55226,68.1154
100.0,4033982.0,-47.87969,68.1154
215.4,2899138.0,-76.73061,68.1154
464.2,1689341.0,-81.72018,68.1154
1000.0,930428.6,-74.67567,68.1154
2154.4,525915.3,-79.34641,68.1154
4641.6,290784.3,-80.85455,68.1154
10000.0,137610.7,-89.27117,68.1154
