Frequency,Impedance,Phase Angle,Temperature (Dry Bath)
10.0,26138590.0,-36.3954,68.007
21.5,23438770.0,-43.96573,68.007
46.4,21080510.0,-50.98467,68.007
100.0,5063837.0,-56.42097,68.007
215.4,3083939.0,-88.65272,68.007
464.2,2669053.0,-85.69452,68.007
1000.0,970675.2,-85.24089,68.007
2154.4,494418.5,-88.79454,68.007
4641.6,228920.4,-90.19121,68.007
10000.0,119064.8,-92.39947,68.007
