Frequency,Impedance,Phase Angle,Temperature (Dry Bath)
10.0,20918240.0,-23.68326,68.2421
21.5,31665840.0,-36.42971,68.2433
46.4,23778500.0,-65.66868,68.2294
100.0,4648547.0,-39.45245,68.2329
215.4,6987344.0,-94.89855,68.2396
464.2,2014824.0,-81.93378,68.2244
1000.0,1035891.0,-73.96394,68.2291
2154.4,490290.7,-78.77982,68.2457
4641.6,229604.0,-86.90167,68.2357
10000.0,117888.3,-93.87038,68.2377
