Frequency,Impedance,Phase Angle,Temperature (Dry Bath)
10.0,19453.01,-19.45597,67.7618
21.5,16729.74,-16.06763,67.7581
46.4,14947.41,-12.62233,67.7646
100.0,13462.0,-9.522357,67.7775
215.4,12721.46,-7.661659,67.7711
464.2,11851.34,-6.151033,67.7677
1000.0,11750.82,-4.796381,67.7646
2154.4,11261.77,-6.24916,67.7741
4641.6,10910.34,-6.213091,67.7799
10000.0,10681.37,-11.11875,67.7848
