Frequency,Impedance,Phase Angle,Temperature (Dry Bath)
10.0,38013810.0,-17.30504,67.0468
21.5,21063260.0,-37.11201,67.0667
46.4,13929770.0,-62.92473,67.0418
100.0,8029436.0,-50.94969,67.0671
215.4,3104418.0,-94.90157,67.053
464.2,1715391.0,-75.3261,67.0613
1000.0,885113.3,-77.20254,67.0451
2154.4,450346.0,-80.78669,67.0628
4641.6,222203.5,-81.75392,67.0577
10000.0,107301.6,-84.53599,67.0542
