Frequency,Impedance,Phase Angle,Temperature (Dry Bath)
10.0,259054.1,-5.93637,66.9743
21.5,249002.2,-5.888571,66.9815
46.4,240693.6,-6.265402,66.9775
100.0,238738.4,-7.016633,66.9893
215.4,216542.7,-11.37976,66.9726
464.2,212547.5,-14.57212,66.9851
1000.0,188311.7,-24.03762,66.977
2154.4,151862.4,-37.30337,66.9778
4641.6,99773.78,-51.70651,66.9746
10000.0,60942.39,-60.87905,66.9842
