Frequency,Impedance,Phase Angle,Temperature (Dry Bath)
10.0,344403.2,-10.40135,67.0093
21.5,316035.0,-10.4419,67.029
46.4,296304.4,-11.83113,67.0267
100.0,278192.6,-13.45997,67.0026
215.4,252066.6,-15.8886,66.996
464.2,228882.1,-21.73058,67.0062
1000.0,199998.7,-25.15462,67.0057
2154.4,164390.0,-34.37758,67.0092
4641.6,121164.5,-41.03072,67.0202
10000.0,79112.69,-54.86327,67.0105
