Frequency,Impedance,Phase Angle,Temperature (Dry Bath)
10.0,33982120.0,-16.29796,67.1588
21.5,30953810.0,-31.12552,67.1491
46.4,22680510.0,-50.41186,67.1507
100.0,10007330.0,-50.2466,67.1532
215.4,229590.5,-79.37173,67.1573
464.2,2037878.0,-79.27823,67.1571
1000.0,1312353.0,-82.74669,67.1638
2154.4,555642.5,-82.18277,67.1563
4641.6,271530.2,-87.97096,67.1533
10000.0,131623.8,-86.24172,67.1673
