Frequency,Impedance,Phase Angle,Temperature (Dry Bath)
10.0,11397.96,-26.46648,70.9327
21.544346900318832,9257.514,-23.19411,70.9373
46.41588833612777,7720.322,-19.9849,70.9243
100.0,6633.272,-16.49382,70.9121
215.44346900318823,5888.524,-14.53673,70.9201
464.15888336127773,5268.529,-11.90598,70.9223
1000.0,4779.702,-10.31461,70.9302
2154.4346900318824,4457.781,-9.976533,70.9366
4641.588833612777,4175.273,-10.45027,70.9073
10000.0,3884.334,-11.80045,70.93
