Frequency,Impedance,Phase Angle,Temperature (Dry Bath)
10.0,125503.5,-24.7574,67.2949
21.5,103171.9,-21.64571,67.3051
46.4,89099.73,-18.2902,67.2785
100.0,78760.85,-15.68531,67.2821
215.4,51755.05,6.307426,67.2996
464.2,64894.6,-12.94204,67.2955
1000.0,59858.64,-13.88439,67.2831
2154.4,55372.6,-17.22387,67.3049
4641.6,48735.59,-23.83956,67.3046
10000.0,39784.15,-36.67632,67.2942
