Frequency,Impedance,Phase Angle,Temperature (Dry Bath)
10.0,34443250.0,-30.73042,66.9695
21.5,32716780.0,-52.90544,66.9906
46.4,16021020.0,-58.25869,66.9744
100.0,5691878.0,-26.55277,66.974
215.4,3846548.0,-108.722,66.9663
464.2,2711116.0,-99.52646,66.9784
1000.0,964598.7,-78.29073,66.9782
2154.4,485840.7,-82.77715,66.9922
4641.6,236186.7,-81.59688,66.9688
10000.0,115974.5,-80.38245,66.962
