Frequency,Impedance,Phase Angle,Temperature (Dry Bath)
10.0,118893.8,-25.1148,67.9926
21.5,98511.84,-22.26091,67.9941
46.4,83857.12,-19.29544,68.0013
100.0,71474.6,-17.08856,68.0012
215.4,65791.29,-13.80977,67.986
464.2,60050.87,-13.2892,67.9885
1000.0,55942.38,-14.44156,67.9985
2154.4,51126.75,-16.87578,68.0051
4641.6,45648.92,-23.18747,68.022
10000.0,39184.22,-36.64045,68.0025
