Frequency,Impedance,Phase Angle,Temperature (Dry Bath)
10.0,147827.9,-6.344654,68.042
21.5,141673.9,-5.39016,68.042
46.4,137400.5,-4.810795,68.042
100.0,131989.6,-6.282588,68.042
215.4,129334.8,-5.530564,68.042
464.2,119990.7,-8.467046,68.042
1000.0,114770.9,-11.27877,68.042
2154.4,105067.9,-18.28911,68.042
4641.6,94481.83,-31.38,68.042
10000.0,72741.09,-52.26531,68.042
