Frequency,Impedance,Phase Angle,Temperature (Dry Bath)
10.0,278331.0,-9.552257,67.2993
21.5,262923.9,-8.755214,67.2982
46.4,249121.2,-9.063323,67.2983
100.0,213678.6,-11.95952,67.2884
215.4,220993.1,-10.09532,67.294
464.2,197789.1,-16.86142,67.2905
1000.0,177070.8,-21.62087,67.3003
2154.4,140632.3,-36.26344,67.2977
4641.6,98666.0,-44.10645,67.2946
10000.0,66379.16,-54.43182,67.2967
