Frequency,Impedance,Phase Angle,Temperature (Dry Bath)
10.0,36916730.0,-15.36734,68.0964
21.5,40056090.0,-28.13483,68.0964
46.4,29939780.0,-44.37671,68.0964
100.0,4871433.0,-37.94132,68.0964
215.4,3667765.0,-55.86355,68.0964
464.2,2343390.0,-81.26669,68.0964
1000.0,1063217.0,-79.82101,68.0964
2154.4,555535.1,-80.50662,68.0964
4641.6,278518.9,-78.012,68.0964
10000.0,151192.9,-89.84516,68.0964
