Frequency,Impedance,Phase Angle,Temperature (Dry Bath)
10.0,26950530.0,-26.79488,67.2111
21.5,21500550.0,-25.71964,67.2144
46.4,15511220.0,-39.28612,67.2077
100.0,4730013.0,-23.06513,67.1983
215.4,171534.4,-5.948282,67.2114
464.2,3859781.0,-62.55535,67.2104
1000.0,1150962.0,-80.70482,67.2039
2154.4,592491.8,-87.6319,67.1985
4641.6,277983.1,-86.74602,67.2026
10000.0,133630.9,-86.34977,67.1933
