Frequency,Impedance,Phase Angle,Temperature (Dry Bath)
10.0,125157.8,-25.08287,67.4596
21.5,104483.6,-22.14206,67.4441
46.4,90130.72,-19.36139,67.449
100.0,77604.54,-15.55846,67.4495
215.4,70461.92,-14.72675,67.4564
464.2,65797.03,-13.93155,67.4439
1000.0,58873.38,-14.6952,67.4392
2154.4,54133.45,-17.63941,67.4285
4641.6,47255.97,-24.66959,67.438
10000.0,39229.74,-34.92455,67.431
