Frequency,Impedance,Phase Angle,Temperature (Dry Bath)
10.0,1145477.0,-12.13262,66.3906
21.544346900318832,1030990.0,-7.472206,66.418
46.41588833612777,1034869.0,-11.05154,66.4076
100.0,1141503.0,-62.13996,66.4024
215.44346900318823,255698.4,17.4967,66.4028
464.15888336127773,633896.9,-58.19483,66.4048
1000.0,578038.3,-82.6875,66.3988
2154.4346900318824,231205.5,-67.63986,66.3987
4641.588833612777,183808.8,-72.50115,66.4011
10000.0,63182.02,-85.39291,66.3961
