Frequency,Impedance,Phase Angle,Temperature (Dry Bath)
10.0,8824.734,-24.41939,70.6765
21.544346900318832,7400.778,-19.76929,70.6932
46.41588833612777,6421.313,-16.28865,70.6763
100.0,5790.183,-12.98381,70.6903
215.44346900318823,5118.598,-11.64546,70.6758
464.15888336127773,4754.859,-10.1257,70.6657
1000.0,4392.273,-8.371056,70.6558
2154.4346900318824,4165.039,-7.48157,70.6666
4641.588833612777,3957.601,-7.721379,70.6501
10000.0,3785.037,-8.678476,70.6613
