Frequency,Impedance,Phase Angle,Temperature (Dry Bath)
10.0,31546930.0,-23.41041,67.3696
21.5,26236790.0,-32.04006,67.3517
46.4,16579890.0,-53.40581,67.334
100.0,3983132.0,-83.17136,67.3629
215.4,12320980.0,-21.1038,67.3545
464.2,1617438.0,-87.58642,67.325
1000.0,1064198.0,-83.01155,67.3467
2154.4,479337.7,-80.67488,67.3565
4641.6,230790.7,-83.41496,67.3335
10000.0,112937.3,-81.37387,67.3308
