Frequency,Impedance,Phase Angle,Temperature (Dry Bath)
10.0,158339.2,-8.548346,65.7667
21.544346900318832,149339.6,-7.670818,65.7411
46.41588833612777,143400.6,-7.398599,65.7562
100.0,151969.4,-4.736089,65.7699
215.44346900318823,35926.12,162.4785,65.7858
464.15888336127773,134003.4,-22.97839,65.7328
1000.0,111972.1,-22.38385,65.7466
2154.4346900318824,86910.07,-20.02203,65.7449
4641.588833612777,67632.52,-40.15604,65.7765
10000.0,43614.2,-61.39815,65.7742
