Frequency,Impedance,Phase Angle,Temperature (Dry Bath)
10.0,2300294.0,-10.54936,67.0933
21.5,2081113.0,-11.38016,67.1008
46.4,1925928.0,-15.04679,67.0937
100.0,1384438.0,-7.361266,67.0988
215.4,1589640.0,-24.66459,67.115
464.2,1082388.0,-45.12228,67.0934
1000.0,650151.6,-62.68005,67.1011
2154.4,381783.2,-65.764,67.1103
4641.6,200657.7,-68.89118,67.1054
10000.0,106022.8,-72.83316,67.1058
