Frequency,Impedance,Phase Angle,Temperature (Dry Bath)
10.0,2050805.0,-10.03649,68.1949
21.5,1990551.0,-11.52422,68.1949
46.4,1840478.0,-12.79595,68.1949
100.0,1488488.0,-11.14129,68.1949
215.4,1471154.0,-25.30886,68.1949
464.2,1281285.0,-42.11866,68.1949
1000.0,862602.8,-51.08269,68.1949
2154.4,515727.3,-63.0241,68.1949
4641.6,280591.9,-76.83842,68.1949
10000.0,149262.1,-90.96825,68.1949
