Frequency,Impedance,Phase Angle,Temperature (Dry Bath)
10.0,134216.3,-19.31838,66.3546
21.544346900318832,113494.5,-18.611,66.3513
46.41588833612777,97758.95,-16.7262,66.3746
100.0,72619.95,-12.34129,66.3511
215.44346900318823,57337.57,-23.50881,66.3382
464.15888336127773,67901.44,-17.13958,66.3279
1000.0,59175.24,-22.97443,66.3647
2154.4346900318824,48799.87,-27.52962,66.3469
4641.588833612777,40236.45,-36.29594,66.3597
10000.0,33110.64,-42.89465,66.3536
