Frequency,Impedance,Phase Angle,Temperature (Dry Bath)
10.0,20413030.0,-1.03983,68.3052
21.5,13304340.0,-41.47837,68.2678
46.4,11215260.0,-60.89991,68.2995
100.0,3949665.0,-4.852092,68.2976
215.4,2827000.0,-62.64489,68.2969
464.2,2014625.0,-81.93384,68.2866
1000.0,1102698.0,-85.3987,68.2816
2154.4,484274.4,-86.17651,68.2926
4641.6,244610.5,-85.8901,68.2777
10000.0,111670.5,-94.39913,68.2922
