Frequency,Impedance,Phase Angle,Temperature (Dry Bath)
10.0,4658706.0,-3.046926,70.5372
21.544346900318832,5220604.0,-29.6388,70.5385
46.41588833612777,4234013.0,-35.14073,70.5535
100.0,474849.5,31.57639,70.5411
215.44346900318823,1454281.0,26.31152,70.5481
464.15888336127773,316925.3,-72.4904,70.5644
1000.0,320229.9,-38.13964,70.5479
2154.4346900318824,153745.0,-73.64363,70.5412
4641.588833612777,95372.26,-79.26596,70.5564
10000.0,46775.0,-80.552,70.5524
