Frequency,Impedance,Phase Angle,Temperature (Dry Bath)
10.0,57872200.0,-31.96272,67.8882
21.5,45403950.0,-36.19497,67.8908
46.4,12890070.0,-52.7341,67.8956
100.0,5778077.0,-77.33529,67.8936
215.4,4383126.0,-73.94076,67.8688
464.2,1798943.0,-83.24073,67.8835
1000.0,912162.2,-82.64378,67.8998
2154.4,516564.7,-82.678,67.8868
4641.6,258083.8,-85.54596,67.9019
10000.0,132784.2,-83.50678,67.8745
