Frequency,Impedance,Phase Angle,Temperature (Dry Bath)
10.0,21082880.0,-28.55912,67.4881
21.5,16635560.0,-32.89808,67.4898
46.4,22577850.0,-52.92392,67.4824
100.0,15047270.0,-107.056,67.49
215.4,376113.0,-159.9565,67.475
464.2,2393600.0,-87.64418,67.4937
1000.0,957908.0,-81.19271,67.4776
2154.4,477514.6,-80.94422,67.4886
4641.6,246934.1,-80.40271,67.5012
10000.0,128095.2,-78.88306,67.48
