Frequency,Impedance,Phase Angle,Temperature (Dry Bath)
10.0,138235.3,-6.024043,67.1678
21.5,132541.4,-5.089214,67.1503
46.4,128326.6,-4.924564,67.166
100.0,125815.0,-6.195633,67.165
215.4,75176.98,-1.269337,67.1434
464.2,114642.3,-8.77681,67.1733
1000.0,106406.2,-12.20123,67.1661
2154.4,100525.6,-20.59857,67.1664
4641.6,85577.55,-34.02435,67.1642
10000.0,59969.29,-51.52373,67.1602
