Frequency,Impedance,Phase Angle,Temperature (Dry Bath)
10.0,182333.3,-26.71036,65.7749
21.544346900318832,150899.3,-24.65068,65.8002
46.41588833612777,120404.2,-21.759,65.7698
100.0,93032.52,-23.25202,65.7818
215.44346900318823,140734.0,-31.65356,65.7681
464.15888336127773,83728.61,-15.33173,65.7774
1000.0,75277.44,-20.08371,65.7718
2154.4346900318824,58459.27,-24.04758,65.7734
4641.588833612777,53182.34,-33.9382,65.7586
10000.0,35642.7,-48.89115,65.7639
