Frequency,Impedance,Phase Angle,Temperature (Dry Bath)
10.0,22261.84,-21.68376,65.8138
21.544346900318832,18717.12,-18.51969,65.8227
46.41588833612777,16217.04,-15.3138,65.8484
100.0,14430.78,-12.43743,65.8226
215.44346900318823,13282.22,-6.314834,65.8427
464.15888336127773,12434.4,-8.794139,65.8371
1000.0,11750.78,-5.8439,65.8304
2154.4346900318824,11199.88,-7.592107,65.8485
4641.588833612777,10778.79,-9.821248,65.8377
10000.0,10113.9,-13.18423,65.8457
