Frequency,Impedance,Phase Angle,Temperature (Dry Bath)
10.0,29684280.0,-20.67011,67.4231
21.5,25762510.0,-30.31092,67.4274
46.4,25583880.0,-55.53497,67.4353
100.0,11088600.0,-22.20398,67.4294
215.4,142914.2,-118.0261,67.4131
464.2,1775440.0,-67.52992,67.4232
1000.0,931558.9,-83.3758,67.4202
2154.4,487351.8,-82.58308,67.4301
4641.6,238268.5,-78.80204,67.4223
10000.0,124626.1,-79.11662,67.4203
