Frequency,Impedance,Phase Angle,Temperature (Dry Bath)
10.0,24060970.0,10.35155,67.3639
21.5,23793560.0,-35.18416,67.3555
46.4,12952470.0,-66.05106,67.3622
100.0,11570460.0,-39.83839,67.3619
215.4,252763.6,125.6799,67.3654
464.2,2283817.0,-88.29545,67.3581
1000.0,928543.2,-78.73262,67.3565
2154.4,485545.3,-80.84596,67.3632
4641.6,256161.7,-78.22185,67.3533
10000.0,132422.6,-79.57429,67.3654
