Frequency,Impedance,Phase Angle,Temperature (Dry Bath)
10.0,12294.31,-26.78385,71.328
21.544346900318832,9907.982,-24.23718,71.3281
46.41588833612777,8169.646,-21.52889,71.3316
100.0,6990.634,-18.39849,71.3305
215.44346900318823,5967.226,-16.45251,71.3393
464.15888336127773,5292.42,-13.99368,71.3312
1000.0,4753.171,-12.67623,71.3325
2154.4346900318824,4277.218,-12.0885,71.338
4641.588833612777,3929.527,-11.77922,71.3298
10000.0,3608.05,-12.33238,71.3227
