Frequency,Impedance,Phase Angle,Temperature (Dry Bath)
10.0,35810600.0,-8.838267,68.076
21.5,30095880.0,-28.2051,68.0839
46.4,29890750.0,-47.23778,68.0677
100.0,8376555.0,-25.03961,68.0736
215.4,5003598.0,-76.74751,68.08
464.2,2410461.0,-79.81078,68.063
1000.0,1081054.0,-84.13676,68.0661
2154.4,505157.0,-80.83151,68.0659
4641.6,268520.7,-81.42438,68.0609
10000.0,137650.7,-91.80703,68.0659
