Frequency,Impedance,Phase Angle,Temperature (Dry Bath)
10.0,17824610.0,-14.97477,68.1367
21.5,20275140.0,-24.31064,68.1367
46.4,17688330.0,-59.54095,68.1367
100.0,5495504.0,-4.759887,68.1367
215.4,4689046.0,-81.68158,68.1367
464.2,1815366.0,-69.06419,68.1367
1000.0,913069.9,-87.62048,68.1367
2154.4,473654.8,-80.32779,68.1367
4641.6,228278.4,-83.83455,68.1367
10000.0,120040.8,-90.61043,68.1367
