Frequency,Impedance,Phase Angle,Temperature (Dry Bath)
10.0,958433.0,-11.18165,68.1154
21.5,873863.8,-9.59941,68.1154
46.4,816742.7,-11.49512,68.1154
100.0,642067.9,-9.655618,68.1154
215.4,659172.9,-15.4221,68.1154
464.2,571959.1,-21.42599,68.1154
1000.0,510665.7,-27.25536,68.1154
2154.4,431034.9,-40.4111,68.1154
4641.6,274994.6,-54.11354,68.1154
10000.0,170598.0,-79.06253,68.1154
