Frequency,Impedance,Phase Angle,Temperature (Dry Bath)
10.0,7605.058,-35.60136,70.6151
21.544346900318832,5739.154,-31.10422,70.5882
46.41588833612777,4515.28,-26.68842,70.6059
100.0,3683.656,-21.63255,70.5919
215.44346900318823,3090.413,-18.38585,70.6076
464.15888336127773,2722.435,-15.31891,70.6127
1000.0,2431.269,-13.04438,70.5982
2154.4346900318824,2194.076,-11.03405,70.6103
4641.588833612777,2034.642,-9.506329,70.5978
10000.0,1902.046,-9.276429,70.6047
