Frequency,Impedance,Phase Angle,Temperature (Dry Bath)
10.0,138855.8,-5.838608,67.309
21.5,133838.9,-4.746457,67.3121
46.4,129810.4,-4.447993,67.3173
100.0,127089.9,-5.365256,67.3163
215.4,119519.3,-6.049573,67.306
464.2,119290.3,-7.465805,67.313
1000.0,114783.7,-10.13886,67.3086
2154.4,104125.2,-21.28536,67.3095
4641.6,89233.86,-32.54965,67.3271
10000.0,63167.55,-49.9897,67.3132
