Frequency,Impedance,Phase Angle,Temperature (Dry Bath)
10.0,33972130.0,-37.9603,67.4173
21.5,27330740.0,-30.79367,67.4211
46.4,14344640.0,-63.11899,67.4201
100.0,10555420.0,-26.35117,67.4125
215.4,5221390.0,-88.1582,67.426
464.2,2726551.0,-89.50879,67.4102
1000.0,1001574.0,-88.50593,67.3997
2154.4,502811.6,-81.57304,67.41
4641.6,238358.7,-76.71763,67.4152
10000.0,131690.9,-78.61693,67.4136
