Frequency,Impedance,Phase Angle,Temperature (Dry Bath)
10.0,12112.89,-20.73839,70.898
21.544346900318832,10361.96,-17.82423,70.9052
46.41588833612777,9055.428,-15.76079,70.9022
100.0,8175.788,-14.84194,70.9037
215.44346900318823,7249.185,-12.85848,70.8958
464.15888336127773,6488.46,-11.40762,70.8845
1000.0,5936.94,-9.986782,70.8844
2154.4346900318824,5595.718,-9.768714,70.8931
4641.588833612777,5220.308,-9.815436,70.9085
10000.0,4934.602,-10.71615,70.8985
