Frequency,Impedance,Phase Angle,Temperature (Dry Bath)
10.0,103003.7,-13.83218,72.1724
21.544346900318832,92958.18,-11.79675,72.1564
46.41588833612777,85117.73,-10.64178,72.1711
100.0,79837.51,-8.483896,72.1635
215.44346900318823,71073.03,-4.587907,72.1622
464.15888336127773,69443.45,3.760671,72.1628
1000.0,62190.0,-6.55991,72.1589
2154.4346900318824,68425.21,-5.188987,72.1637
4641.588833612777,75595.23,-31.80937,72.1606
10000.0,47774.31,-38.09461,72.1482
