Frequency,Impedance,Phase Angle,Temperature (Dry Bath)
10.0,32232260.0,-42.51542,67.1187
21.5,29046420.0,-46.2143,67.1062
46.4,18164790.0,-51.5697,67.1269
100.0,4368874.0,-59.74313,67.1165
215.4,273683.3,56.69746,67.1165
464.2,2253913.0,-72.05529,67.1257
1000.0,1013687.0,-83.65626,67.114
2154.4,477027.2,-84.65127,67.1213
4641.6,238452.7,-81.84948,67.1048
10000.0,118207.6,-80.06573,67.1077
