Frequency,Impedance,Phase Angle,Temperature (Dry Bath)
10.0,153619.5,-6.43174,68.1517
21.5,147434.9,-5.279023,68.1567
46.4,142540.7,-4.779254,68.174
100.0,139972.0,-6.823752,68.1635
215.4,131061.5,-4.027106,68.1665
464.2,128645.9,-7.98952,68.1523
1000.0,122139.5,-13.11335,68.1646
2154.4,117211.0,-20.42149,68.1617
4641.6,102877.4,-32.08728,68.1765
10000.0,72192.89,-53.71391,68.1689
