Frequency,Impedance,Phase Angle,Temperature (Dry Bath)
10.0,31272.5,-29.98,71.4982
21.544346900318832,24317.64,-28.26546,71.4887
46.41588833612777,19203.11,-26.39855,71.499
100.0,15530.54,-22.70275,71.4911
215.44346900318823,12681.63,-22.10072,71.5037
464.15888336127773,10951.51,-17.91037,71.5005
1000.0,9350.635,-15.29824,71.4795
2154.4346900318824,8305.669,-13.48203,71.4901
4641.588833612777,7730.278,-14.09119,71.4879
10000.0,7142.208,-14.14078,71.4861
