Frequency,Impedance,Phase Angle,Temperature (Dry Bath)
10.0,12307.06,-4.747948,67.0581
21.5,12012.35,-4.015998,67.0536
46.4,11776.61,-3.761416,67.0599
100.0,11630.02,-3.727732,67.0531
215.4,11406.4,-3.96532,67.0702
464.2,11236.33,-3.761126,67.0532
1000.0,10922.87,-4.069983,67.0664
2154.4,10734.33,-4.631974,67.0612
4641.6,10451.2,-6.217006,67.0576
10000.0,10173.7,-9.723852,67.0602
