Frequency,Impedance,Phase Angle,Temperature (Dry Bath)
10.0,25530720.0,-14.88666,68.2402
21.5,22490810.0,-6.501753,68.2493
46.4,21933890.0,-39.51707,68.2604
100.0,4553733.0,-48.73721,68.239
215.4,6688468.0,-56.11396,68.252
464.2,3097107.0,-98.80479,68.2619
1000.0,1363970.0,-78.45363,68.2474
2154.4,657498.4,-89.02383,68.2414
4641.6,300329.9,-89.6192,68.2435
10000.0,157653.0,-96.33961,68.262
