Frequency,Impedance,Phase Angle,Temperature (Dry Bath)
10.0,1345585.0,-12.53303,65.7524
21.544346900318832,1255508.0,-9.286344,65.7594
46.41588833612777,1188436.0,-13.41307,65.7629
100.0,67430.99,-154.763,65.7572
215.44346900318823,284882.4,-61.33579,65.7542
464.15888336127773,788973.0,-41.84726,65.7619
1000.0,246260.2,-76.08712,65.7641
2154.4346900318824,245146.7,-62.6344,65.7505
4641.588833612777,108116.1,-77.02514,65.7394
10000.0,64025.75,-81.50128,65.7675
