Frequency,Impedance,Phase Angle,Temperature (Dry Bath)
10.0,12851.75,-20.38058,70.7918
21.544346900318832,11018.06,-17.51994,70.7998
46.41588833612777,9644.884,-15.38685,70.7876
100.0,8703.078,-13.2112,70.787
215.44346900318823,7761.219,-11.26466,70.7864
464.15888336127773,7071.3,-10.8564,70.7762
1000.0,6438.241,-10.27675,70.7917
2154.4346900318824,6034.653,-9.720592,70.7857
4641.588833612777,5657.476,-10.5738,70.7859
10000.0,5207.746,-11.60681,70.7687
