Frequency,Impedance,Phase Angle,Temperature (Dry Bath)
10.0,2022910.0,-9.703131,67.4155
21.5,1864241.0,-12.26511,67.4171
46.4,1748795.0,-14.28265,67.428
100.0,1149003.0,-21.59568,67.428
215.4,274692.6,-115.523,67.4324
464.2,1069125.0,-56.95309,67.4151
1000.0,597589.0,-52.5035,67.3998
2154.4,353700.9,-63.9824,67.4054
4641.6,190499.7,-68.40839,67.4052
10000.0,103611.0,-73.298,67.4112
