Frequency,Impedance,Phase Angle,Temperature (Dry Bath)
10.0,11959.06,-4.405206,67.4239
21.5,11590.68,-3.222794,67.4196
46.4,11504.59,-3.433052,67.4206
100.0,11323.58,-3.436763,67.4339
215.4,11198.61,-1.665911,67.4184
464.2,10998.49,-3.415213,67.435
1000.0,10763.92,-3.644288,67.4237
2154.4,10542.9,-4.172871,67.4225
4641.6,10333.94,-5.855614,67.4302
10000.0,10069.12,-9.343347,67.4252
