Frequency,Impedance,Phase Angle,Temperature (Dry Bath)
10.0,271685.1,-14.20765,71.4515
21.544346900318832,246098.5,-12.62655,71.4351
46.41588833612777,223595.3,-13.04168,71.447
100.0,121957.9,0.5209569,71.4506
215.44346900318823,196147.9,7.262208,71.4504
464.15888336127773,137600.5,-22.13741,71.4531
1000.0,124620.0,-56.68612,71.4442
2154.4346900318824,79879.53,-35.82377,71.4451
4641.588833612777,92267.99,-18.39975,71.4557
10000.0,61171.1,-71.32012,71.4345
