Frequency,Impedance,Phase Angle,Temperature (Dry Bath)
10.0,29031680.0,-19.1373,67.8589
21.5,47283600.0,-48.47699,67.8666
46.4,24901240.0,-61.60139,67.8605
100.0,5029241.0,-12.84561,67.8661
215.4,3843259.0,-62.09829,67.8755
464.2,2318160.0,-81.7014,67.8603
1000.0,1132729.0,-87.00397,67.8819
2154.4,520248.9,-82.85038,67.8558
4641.6,249366.2,-87.85384,67.8713
10000.0,116008.2,-96.5102,67.8817
