Frequency,Impedance,Phase Angle,Temperature (Dry Bath)
10.0,11901.54,-4.470725,67.1457
21.5,11658.85,-3.869931,67.165
46.4,11482.75,-3.726248,67.1513
100.0,11295.33,-3.224792,67.1543
215.4,10662.25,-2.604726,67.1583
464.2,11000.11,-3.826474,67.1638
1000.0,10739.89,-3.774837,67.1413
2154.4,10516.49,-4.220174,67.1633
4641.6,10309.93,-5.888741,67.1557
10000.0,10032.18,-9.342944,67.175
