Frequency,Impedance,Phase Angle,Temperature (Dry Bath)
10.0,36360970.0,-20.54475,68.2014
21.5,27556210.0,-42.65046,68.2114
46.4,26496810.0,-62.54088,68.198
100.0,6862407.0,-61.2693,68.1813
215.4,4785257.0,-74.29387,68.1813
464.2,1587317.0,-80.12214,68.2008
1000.0,1029993.0,-80.53643,68.1944
2154.4,517245.0,-84.23847,68.1964
4641.6,253325.0,-87.9608,68.1909
10000.0,121550.1,-91.60136,68.207
