Frequency,Impedance,Phase Angle,Temperature (Dry Bath)
10.0,49514630.0,-11.1351,67.8815
21.5,60469020.0,-39.63544,67.9013
46.4,14121950.0,-55.8204,67.9011
100.0,5146654.0,-45.16513,67.8887
215.4,4930728.0,-80.60991,67.889
464.2,1862376.0,-95.18595,67.9008
1000.0,1024276.0,-77.12547,67.889
2154.4,534732.5,-81.30347,67.8984
4641.6,282326.5,-79.05818,67.8755
10000.0,160960.8,-93.61682,67.9001
