Frequency,Impedance,Phase Angle,Temperature (Dry Bath)
10.0,23607.95,-19.85041,71.1701
21.544346900318832,20330.61,-17.54133,71.2044
46.41588833612777,17672.81,-15.5807,71.188
100.0,15719.88,-13.59686,71.2009
215.44346900318823,14033.21,-12.54979,71.2106
464.15888336127773,12646.65,-10.3322,71.1879
1000.0,12003.51,-9.423612,71.1874
2154.4346900318824,11045.52,-9.368275,71.1949
4641.588833612777,10272.24,-11.18632,71.1812
10000.0,9596.857,-16.49106,71.1799
