Frequency,Impedance,Phase Angle,Temperature (Dry Bath)
10.0,30850850.0,-25.8912,67.2515
21.5,29082890.0,-43.23643,67.2469
46.4,15325690.0,-56.57369,67.2531
100.0,4576814.0,13.51079,67.2515
215.4,700222.9,-143.8038,67.2563
464.2,1587932.0,-83.80263,67.2407
1000.0,931373.4,-75.46864,67.2525
2154.4,448523.1,-83.88797,67.2461
4641.6,217394.2,-84.02782,67.2492
10000.0,108386.9,-83.59973,67.2717
