Frequency,Impedance,Phase Angle,Temperature (Dry Bath)
10.0,21669500.0,-14.6585,68.0504
21.5,16992640.0,-41.54369,68.0469
46.4,12216270.0,-57.69465,68.062
100.0,4778366.0,-74.62142,68.0338
215.4,4339991.0,-63.23351,68.042
464.2,1950987.0,-82.78356,68.0487
1000.0,952817.3,-76.23074,68.0512
2154.4,520435.4,-79.06219,68.0492
4641.6,257711.9,-81.1121,68.0348
10000.0,136812.4,-86.64056,68.0329
