Frequency,Impedance,Phase Angle,Temperature (Dry Bath)
10.0,2650444.0,-10.52302,67.2535
21.5,2458776.0,-12.89389,67.2677
46.4,2271545.0,-16.83984,67.2628
100.0,1413923.0,-22.52744,67.2479
215.4,455061.3,128.9822,67.2411
464.2,1181087.0,-42.74918,67.2521
1000.0,742095.2,-55.64301,67.2643
2154.4,450367.5,-62.48653,67.2709
4641.6,254494.1,-68.00176,67.2591
10000.0,141574.5,-74.38924,67.2676
