Frequency,Impedance,Phase Angle,Temperature (Dry Bath)
10.0,28998350.0,-12.69343,67.1423
21.5,31650510.0,-39.66995,67.1331
46.4,19974900.0,-47.08144,67.1501
100.0,2538279.0,116.6553,67.151
215.4,2793841.0,-95.32649,67.1488
464.2,3051674.0,-92.74435,67.1608
1000.0,1032882.0,-96.60557,67.167
2154.4,614899.5,-86.00325,67.1619
4641.6,269584.3,-86.76381,67.1732
10000.0,131994.6,-86.8546,67.1652
