Frequency,Impedance,Phase Angle,Temperature (Dry Bath)
10.0,22618890.0,-1.893395,67.9426
21.5,21351000.0,-26.24725,67.9519
46.4,23947010.0,-38.65988,67.9665
100.0,7095346.0,-52.72509,67.9577
215.4,5864551.0,-69.90876,67.9453
464.2,2636625.0,-99.61778,67.946
1000.0,1365375.0,-80.71785,67.9548
2154.4,628930.6,-91.23117,67.9412
4641.6,307924.5,-91.42201,67.944
10000.0,153587.0,-96.37393,67.9461
