Frequency,Impedance,Phase Angle,Temperature (Dry Bath)
10.0,70961210.0,-1.958174,67.8725
21.5,31786070.0,-27.62254,67.8764
46.4,27145440.0,-50.74135,67.875
100.0,5751930.0,-16.35418,67.8902
215.4,8602715.0,-100.8549,67.8883
464.2,2909841.0,-76.29732,67.8714
1000.0,1449688.0,-88.32758,67.8803
2154.4,642200.8,-82.0191,67.872
4641.6,318663.4,-94.02205,67.8867
10000.0,159861.5,-98.0728,67.8752
