Frequency,Impedance,Phase Angle,Temperature (Dry Bath)
10.0,27854650.0,-17.93825,67.2513
21.5,22243960.0,-43.92332,67.2293
46.4,8793645.0,-58.35618,67.2474
100.0,8532634.0,-47.87239,67.2451
215.4,246324.6,-145.6606,67.248
464.2,1669934.0,-89.55329,67.2499
1000.0,799009.4,-77.01027,67.2316
2154.4,397670.2,-78.20008,67.244
4641.6,224966.4,-76.31821,67.2442
10000.0,116743.2,-79.46597,67.2496
