Frequency,Impedance,Phase Angle,Temperature (Dry Bath)
10.0,27467660.0,-11.80906,67.1136
21.5,21335200.0,-40.82042,67.1155
46.4,18440420.0,-58.03638,67.1179
100.0,7743704.0,6.74487,67.12
215.4,2747980.0,-119.8013,67.1375
464.2,2221748.0,-94.25901,67.1233
1000.0,1079268.0,-82.49042,67.1212
2154.4,504366.3,-81.40829,67.1161
4641.6,263702.9,-81.05314,67.1295
10000.0,135098.3,-78.5088,67.1082
