Frequency,Impedance,Phase Angle,Temperature (Dry Bath)
10.0,23564.0,-19.62187,71.1757
21.544346900318832,20266.54,-17.48294,71.1424
46.41588833612777,17651.39,-15.71496,71.1643
100.0,15367.55,-14.32917,71.1606
215.44346900318823,14239.79,-12.56595,71.154
464.15888336127773,12561.91,-12.0887,71.1559
1000.0,11363.02,-9.732973,71.1462
2154.4346900318824,10522.58,-10.40563,71.1344
4641.588833612777,10187.92,-11.6521,71.1467
10000.0,9481.171,-15.6389,71.1433
