Frequency,Impedance,Phase Angle,Temperature (Dry Bath)
10.0,19641150.0,-31.88794,67.9457
21.5,24732230.0,-39.86108,67.9457
46.4,24044280.0,-51.50246,67.9457
100.0,3370007.0,-30.66001,67.9457
215.4,6389610.0,-95.04135,67.9457
464.2,2592091.0,-82.54961,67.9457
1000.0,1130131.0,-84.91168,67.9457
2154.4,559588.4,-88.9738,67.9457
4641.6,255329.9,-86.3414,67.9457
10000.0,117255.0,-92.49632,67.9457
