Frequency,Impedance,Phase Angle,Temperature (Dry Bath)
10.0,20090800.0,-28.06685,68.3157
21.5,21856690.0,-35.17332,68.3157
46.4,19861080.0,-43.85451,68.3157
100.0,8408896.0,-45.65251,68.3157
215.4,8416189.0,-51.39435,68.3157
464.2,2909143.0,-85.18548,68.3157
1000.0,1406781.0,-78.67537,68.3157
2154.4,696062.1,-87.56038,68.3157
4641.6,289634.2,-90.42505,68.3157
10000.0,162668.7,-94.61381,68.3157
