Frequency,Impedance,Phase Angle,Temperature (Dry Bath)
10.0,2539591.0,7.67808,68.0964
21.5,6387076.0,15.42005,68.0964
46.4,21579320.0,-21.60989,68.0964
100.0,3311840.0,-35.92882,68.0964
215.4,5432763.0,-95.97186,68.0964
464.2,1925908.0,-67.71465,68.0964
1000.0,911955.7,-79.79366,68.0964
2154.4,518202.6,-79.98932,68.0964
4641.6,276816.1,-82.98064,68.0964
10000.0,136460.5,-84.73362,68.0964
