Frequency,Impedance,Phase Angle,Temperature (Dry Bath)
10.0,122345.7,-24.70348,67.4738
21.5,101299.9,-21.51074,67.4674
46.4,87629.16,-18.31686,67.4886
100.0,78377.56,-15.75973,67.4695
215.4,58072.72,-32.16149,67.4862
464.2,63715.16,-12.63966,67.4813
1000.0,58907.47,-13.89853,67.4892
2154.4,54202.14,-16.92655,67.4886
4641.6,48278.73,-24.15042,67.4923
10000.0,39261.02,-35.45844,67.4798
