Frequency,Impedance,Phase Angle,Temperature (Dry Bath)
10.0,29681980.0,-24.5202,68.0262
21.5,25787110.0,-25.43342,68.0072
46.4,18066430.0,-60.91028,68.0202
100.0,3370659.0,-59.87812,67.9949
215.4,4023122.0,-61.94318,68.013
464.2,2375287.0,-74.14904,68.0212
1000.0,1027165.0,-70.71222,68.0168
2154.4,482998.6,-76.52675,68.011
4641.6,281096.7,-81.72515,68.02
10000.0,132878.2,-93.38257,68.0239
