Frequency,Impedance,Phase Angle,Temperature (Dry Bath)
10.0,19932430.0,-20.96954,67.3467
21.5,23958730.0,-31.39369,67.3494
46.4,12431930.0,-62.95363,67.3541
100.0,30330210.0,-118.1204,67.346
215.4,1690059.0,-118.4465,67.3434
464.2,1811898.0,-70.27336,67.3546
1000.0,817786.4,-71.43777,67.3501
2154.4,458089.6,-78.07534,67.3426
4641.6,237210.0,-77.9209,67.3469
10000.0,120097.0,-82.1156,67.3393
