Frequency,Impedance,Phase Angle,Temperature (Dry Bath)
10.0,30362690.0,-2.467063,67.3231
21.5,26100990.0,-36.25497,67.3425
46.4,17218450.0,-58.54547,67.3281
100.0,33306890.0,-151.936,67.3284
215.4,40284840.0,-67.53104,67.329
464.2,2000383.0,-77.28419,67.3171
1000.0,1100962.0,-82.98956,67.3143
2154.4,454281.8,-81.36029,67.3313
4641.6,229974.6,-84.53563,67.3182
10000.0,112020.2,-80.37703,67.3083
