Frequency,Impedance,Phase Angle,Temperature (Dry Bath)
10.0,24329270.0,-10.26484,67.7769
21.5,16028680.0,-30.01868,67.762
46.4,14821010.0,-40.63411,67.7663
100.0,6402785.0,-15.25595,67.7811
215.4,5670444.0,-60.36806,67.7927
464.2,1892398.0,-85.61921,67.785
1000.0,1470857.0,-86.1206,67.7583
2154.4,761839.7,-92.86479,67.7647
4641.6,307312.8,-87.22789,67.7685
10000.0,149799.2,-93.42449,67.7678
