Frequency,Impedance,Phase Angle,Temperature (Dry Bath)
10.0,2114026.0,-9.978018,67.5305
21.5,1953860.0,-13.03171,67.5103
46.4,1814166.0,-12.44209,67.5301
100.0,2688866.0,-5.291014,67.5317
215.4,175188.8,8.120578,67.5309
464.2,1068815.0,-51.1806,67.5052
1000.0,627475.8,-60.82008,67.5237
2154.4,388906.3,-66.50464,67.5346
4641.6,193537.2,-70.68377,67.5213
10000.0,104412.7,-74.33678,67.534
