Frequency,Impedance,Phase Angle,Temperature (Dry Bath)
10.0,5099.773,-34.71554,70.9172
21.544346900318832,3881.983,-29.14542,70.9151
46.41588833612777,3128.573,-23.7735,70.9062
100.0,2638.819,-19.15553,70.9087
215.44346900318823,2312.583,-15.66781,70.9091
464.15888336127773,2051.76,-13.31389,70.9064
1000.0,1857.316,-10.76527,70.9135
2154.4346900318824,1705.927,-9.571805,70.9133
4641.588833612777,1591.045,-8.304558,70.9188
10000.0,1503.552,-7.921761,70.9066
