Frequency,Impedance,Phase Angle,Temperature (Dry Bath)
10.0,29123.94,-30.04748,71.4345
21.544346900318832,22762.78,-28.09642,71.4297
46.41588833612777,18030.06,-26.06135,71.4367
100.0,14617.41,-21.22619,71.4347
215.44346900318823,12014.47,-20.93216,71.4643
464.15888336127773,10215.07,-18.48107,71.4594
1000.0,8766.045,-14.13942,71.4445
2154.4346900318824,7952.434,-13.48521,71.4416
4641.588833612777,7309.903,-13.44378,71.4432
10000.0,6837.204,-15.77333,71.4422
