Frequency,Impedance,Phase Angle,Temperature (Dry Bath)
10.0,33148150.0,-6.377795,66.9004
21.5,22978540.0,-37.56103,66.9119
46.4,12772480.0,-56.06669,66.8969
100.0,2587524.0,-40.79027,66.9227
215.4,150025.3,-12.71255,66.9286
464.2,1550132.0,-87.85248,66.8959
1000.0,873874.9,-75.81221,66.9122
2154.4,461722.3,-81.87682,66.9075
4641.6,223755.1,-83.06534,66.906
10000.0,108085.6,-84.50683,66.9064
