Frequency,Impedance,Phase Angle,Temperature (Dry Bath)
10.0,8447.521,-27.37762,70.5595
21.544346900318832,6855.032,-23.15288,70.5739
46.41588833612777,5760.398,-19.26633,70.5445
100.0,5025.192,-16.0915,70.5612
215.44346900318823,4434.218,-13.50931,70.5642
464.15888336127773,4072.606,-10.41323,70.5706
1000.0,3750.664,-9.35203,70.5593
2154.4346900318824,3528.222,-7.861024,70.5331
4641.588833612777,3352.98,-7.330778,70.5637
10000.0,3216.883,-8.176504,70.5397
