Frequency,Impedance,Phase Angle,Temperature (Dry Bath)
10.0,30361010.0,-9.09685,67.0595
21.5,16678290.0,-39.65998,67.0596
46.4,13343110.0,-63.05103,67.0742
100.0,3436530.0,-38.48512,67.0609
215.4,3638249.0,-61.16877,67.0667
464.2,1810606.0,-80.89014,67.0771
1000.0,949095.8,-89.48961,67.0543
2154.4,450546.4,-82.44681,67.073
4641.6,219517.1,-84.35472,67.0572
10000.0,107290.7,-84.7404,67.0561
