Frequency,Impedance,Phase Angle,Temperature (Dry Bath)
10.0,12305.43,-8.236903,67.2154
21.5,11735.69,-4.872314,67.2132
46.4,11471.63,-4.390706,67.2185
100.0,11398.03,-5.320316,67.2111
215.4,11336.93,-5.689628,67.2274
464.2,11189.25,-6.080751,67.1909
1000.0,10862.8,-5.802054,67.1998
2154.4,10515.2,-5.986616,67.2185
4641.6,10181.67,-6.970046,67.1961
10000.0,9816.096,-9.778317,67.2122
