Frequency,Impedance,Phase Angle,Temperature (Dry Bath)
10.0,33825820.0,-4.974913,67.4218
21.5,24063830.0,-43.02047,67.414
46.4,15966430.0,-54.77029,67.4233
100.0,2898027.0,-27.35905,67.4271
215.4,300620.8,57.13485,67.4159
464.2,1246800.0,-83.47875,67.4279
1000.0,807966.6,-69.49023,67.4165
2154.4,456696.1,-78.52013,67.4145
4641.6,237112.2,-77.99059,67.4153
10000.0,118707.1,-79.78026,67.4335
