Frequency,Impedance,Phase Angle,Temperature (Dry Bath)
10.0,7615701.0,25.67225,70.9256
21.544346900318832,7919915.0,-16.86305,70.9327
46.41588833612777,5608604.0,-24.02466,70.931
100.0,302520.5,-88.53591,70.942
215.44346900318823,551770.7,-94.40488,70.9438
464.15888336127773,1018533.0,-107.1353,70.9186
1000.0,315048.9,-122.2324,70.9228
2154.4346900318824,540632.8,-143.1773,70.9346
4641.588833612777,133726.3,-81.43007,70.9301
10000.0,57252.26,-88.70861,70.9435
