Frequency,Impedance,Phase Angle,Temperature (Dry Bath)
10.0,25659610.0,-8.853019,68.1535
21.5,22185950.0,-39.11408,68.1535
46.4,12497550.0,-55.64347,68.1535
100.0,15756430.0,-36.40509,68.1535
215.4,6840235.0,-84.72083,68.1535
464.2,2951551.0,-103.0412,68.1535
1000.0,1054359.0,-86.35374,68.1535
2154.4,504388.0,-87.56364,68.1535
4641.6,250165.9,-89.82041,68.1535
10000.0,120059.5,-95.50609,68.1535
