Frequency,Impedance,Phase Angle,Temperature (Dry Bath)
10.0,12344.68,-4.335477,67.0832
21.5,12058.74,-3.744712,67.0772
46.4,11726.51,-2.960957,67.0852
100.0,11599.81,-2.988405,67.0827
215.4,11927.71,-5.942248,67.0831
464.2,11265.85,-3.381051,67.0877
1000.0,10996.06,-3.541271,67.0951
2154.4,10808.2,-4.293772,67.1005
4641.6,10572.35,-5.866585,67.0892
10000.0,10307.89,-9.502474,67.1094
