Frequency,Impedance,Phase Angle,Temperature (Dry Bath)
10.0,25792770.0,-6.913792,67.0345
21.5,21814230.0,-22.50031,67.047
46.4,17251660.0,-56.95764,67.0383
100.0,5460753.0,14.46827,67.0415
215.4,2113467.0,-81.95381,67.0409
464.2,2075665.0,-94.38003,67.034
1000.0,1032407.0,-80.21442,67.0284
2154.4,477999.9,-83.4745,67.0382
4641.6,241918.5,-80.21368,67.0382
10000.0,117543.9,-79.81799,67.0359
