Frequency,Impedance,Phase Angle,Temperature (Dry Bath)
10.0,18206820.0,-14.35633,68.2901
21.5,21596940.0,-47.23314,68.2783
46.4,21319110.0,-59.3564,68.2909
100.0,5518866.0,-19.96766,68.2908
215.4,4257701.0,-62.16892,68.284
464.2,2384131.0,-88.65366,68.287
1000.0,994694.3,-83.81063,68.2875
2154.4,481854.8,-87.83703,68.2883
4641.6,240049.9,-90.74034,68.2764
10000.0,109757.1,-95.92646,68.2975
