Frequency,Impedance,Phase Angle,Temperature (Dry Bath)
10.0,146480.5,-7.923624,67.2807
21.5,139026.3,-7.110317,67.2554
46.4,133149.9,-7.34099,67.2717
100.0,122519.9,-7.393781,67.286
215.4,118388.9,-12.49969,67.2783
464.2,113411.4,-11.91311,67.2694
1000.0,101203.6,-16.19314,67.2854
2154.4,89970.22,-23.7316,67.2591
4641.6,73244.54,-33.11422,67.2917
10000.0,53003.07,-43.00746,67.2597
