Frequency,Impedance,Phase Angle,Temperature (Dry Bath)
10.0,140900.1,-5.717185,67.4874
21.5,135423.3,-4.738077,67.4891
46.4,131705.3,-4.408817,67.4913
100.0,130631.9,-2.886465,67.5007
215.4,102885.8,33.85263,67.4964
464.2,124335.9,-8.443176,67.4867
1000.0,116384.6,-12.9866,67.4858
2154.4,107919.3,-20.76996,67.4852
4641.6,89081.03,-33.05312,67.4753
10000.0,62319.6,-51.93787,67.497
