Frequency,Impedance,Phase Angle,Temperature (Dry Bath)
10.0,21203010.0,-17.88858,68.0279
21.5,17666560.0,-33.28443,68.0068
46.4,18136750.0,-57.07271,68.0236
100.0,4416159.0,-52.80485,68.0291
215.4,5541509.0,-85.1516,68.0213
464.2,1657460.0,-86.34326,68.0329
1000.0,878265.9,-77.13208,68.0224
2154.4,537231.7,-85.86836,68.0361
4641.6,262421.4,-86.00088,68.0172
10000.0,126513.5,-93.83279,68.0275
