Frequency,Impedance,Phase Angle,Temperature (Dry Bath)
10.0,12315.72,-8.231393,67.3338
21.5,11747.89,-4.833025,67.3318
46.4,11580.56,-4.604376,67.3534
100.0,11462.25,-5.229891,67.3423
215.4,11421.75,-5.613025,67.339
464.2,11227.49,-5.784546,67.362
1000.0,10868.26,-5.661042,67.3545
2154.4,10556.33,-5.85468,67.3401
4641.6,10235.82,-6.807286,67.3456
10000.0,9856.788,-9.663331,67.35
