Frequency,Impedance,Phase Angle,Temperature (Dry Bath)
10.0,30078.64,-30.27015,71.4615
21.544346900318832,23521.3,-28.60712,71.4552
46.41588833612777,18497.4,-26.33707,71.4485
100.0,14561.09,-24.06551,71.4639
215.44346900318823,12417.97,-21.16305,71.457
464.15888336127773,10630.16,-17.20155,71.4486
1000.0,8925.873,-16.45794,71.4577
2154.4346900318824,8228.777,-12.81457,71.4753
4641.588833612777,7588.626,-13.78615,71.4773
10000.0,6849.529,-15.08151,71.4562
