Frequency,Impedance,Phase Angle,Temperature (Dry Bath)
10.0,17875070.0,-12.77085,68.0449
21.5,17522540.0,-37.23528,68.0421
46.4,15566850.0,-56.30316,68.0528
100.0,6370397.0,-52.00298,68.051
215.4,7857929.0,-103.3805,68.0403
464.2,2335558.0,-74.35431,68.0414
1000.0,1064829.0,-83.04478,68.0538
2154.4,594586.9,-81.75178,68.036
4641.6,296520.6,-83.30149,68.0414
10000.0,156250.8,-90.98826,68.038
