Frequency,Impedance,Phase Angle,Temperature (Dry Bath)
10.0,138436.1,-5.979777,67.1103
21.5,133251.3,-5.120849,67.0786
46.4,128629.4,-4.791582,67.0723
100.0,122862.6,-4.908626,67.0872
215.4,121488.9,-6.685382,67.0782
464.2,115842.5,-7.536237,67.111
1000.0,109123.2,-13.36949,67.0792
2154.4,102364.3,-19.59725,67.0739
4641.6,84472.21,-33.87161,67.0964
10000.0,60164.95,-50.69751,67.0895
