Frequency,Impedance,Phase Angle,Temperature (Dry Bath)
10.0,4547705.0,-16.74438,65.8229
21.544346900318832,4009307.0,-3.536107,65.8199
46.41588833612777,4176209.0,-25.10797,65.8205
100.0,473641.1,-39.7999,65.8034
215.44346900318823,30467.7,144.7737,65.8073
464.15888336127773,503134.3,-117.5863,65.8033
1000.0,1194206.0,-133.6288,65.8015
2154.4346900318824,252869.1,-80.13409,65.8123
4641.588833612777,140968.8,-96.26202,65.7965
10000.0,72715.76,-83.45316,65.7982
