Frequency,Impedance,Phase Angle,Temperature (Dry Bath)
10.0,17569540.0,-11.47443,67.7534
21.5,22712290.0,-40.27545,67.7489
46.4,26073880.0,-59.86016,67.7428
100.0,4565307.0,-61.37023,67.7455
215.4,2865618.0,-70.13703,67.7496
464.2,1776264.0,-84.62373,67.7397
1000.0,1013386.0,-80.73424,67.7592
2154.4,505892.3,-79.8967,67.752
4641.6,260420.1,-87.55545,67.7543
10000.0,141336.8,-91.47845,67.7478
