Frequency,Impedance,Phase Angle,Temperature (Dry Bath)
10.0,26296830.0,-28.91882,67.2435
21.5,34270980.0,-36.66399,67.2353
46.4,40883130.0,-48.11355,67.2353
100.0,4707670.0,40.87231,67.2493
215.4,637810.3,51.99117,67.2467
464.2,2255344.0,-71.7505,67.2271
1000.0,1240524.0,-78.87908,67.2365
2154.4,593605.3,-88.79412,67.2242
4641.6,271760.9,-87.84361,67.2234
10000.0,133459.8,-87.11791,67.2303
