Frequency,Impedance,Phase Angle,Temperature (Dry Bath)
10.0,13484.59,-28.16425,71.0638
21.544346900318832,10700.32,-25.64717,71.0657
46.41588833612777,8708.358,-22.91307,71.0597
100.0,7336.682,-20.39128,71.0759
215.44346900318823,6249.243,-17.43025,71.0644
464.15888336127773,5421.057,-15.68372,71.0458
1000.0,4865.19,-13.65342,71.0599
2154.4346900318824,4388.913,-12.57718,71.0388
4641.588833612777,3969.378,-11.80244,71.0423
10000.0,3659.634,-12.86448,71.0445
