Frequency,Impedance,Phase Angle,Temperature (Dry Bath)
10.0,26254900.0,-20.91784,68.0027
21.5,46707530.0,-47.13752,68.0021
46.4,28424720.0,-50.71256,68.0137
100.0,7175994.0,-21.68936,68.0182
215.4,3471030.0,-88.3461,67.9981
464.2,2317157.0,-77.93696,67.9815
1000.0,1044936.0,-79.80666,68.0108
2154.4,533895.3,-82.62611,67.9993
4641.6,268307.2,-76.70793,68.0088
10000.0,144051.2,-89.59742,68.0199
