Frequency,Impedance,Phase Angle,Temperature (Dry Bath)
10.0,8219530.0,-13.35978,65.7515
21.544346900318832,4474694.0,-24.89049,65.7451
46.41588833612777,4144028.0,-30.63812,65.7463
100.0,681599.2,-3.02864,65.7393
215.44346900318823,21405.18,20.85144,65.7563
464.15888336127773,489249.1,-135.8092,65.7309
1000.0,355284.3,-123.5654,65.7405
2154.4346900318824,236222.2,-75.36459,65.729
4641.588833612777,145512.7,-82.88416,65.7356
10000.0,66484.36,-81.75693,65.7314
