Frequency,Impedance,Phase Angle,Temperature (Dry Bath)
10.0,21351870.0,-35.91679,67.9432
21.5,21500100.0,-33.27078,67.9517
46.4,30841030.0,-47.27636,67.9421
100.0,4417284.0,-44.28213,67.9316
215.4,3871574.0,-67.44026,67.952
464.2,2076669.0,-86.72036,67.9533
1000.0,1173751.0,-85.77626,67.9487
2154.4,561550.7,-79.9243,67.9327
4641.6,265892.9,-82.47681,67.9427
10000.0,156597.6,-89.70623,67.9402
