Frequency,Impedance,Phase Angle,Temperature (Dry Bath)
10.0,825425.1,-21.82499,71.1279
21.544346900318832,692192.2,-25.61212,71.1224
46.41588833612777,575291.2,-24.17757,71.1165
100.0,257294.4,-37.62184,71.1133
215.44346900318823,554713.1,-50.45455,71.1255
464.15888336127773,243545.9,-48.65156,71.1324
1000.0,233876.1,-36.9235,71.1137
2154.4346900318824,179921.2,-51.36847,71.1271
4641.588833612777,76106.16,-58.73301,71.1079
10000.0,45416.86,-74.98213,71.1046
