Frequency,Impedance,Phase Angle,Temperature (Dry Bath)
10.0,16913440.0,-23.15375,68.0247
21.5,15670200.0,-18.6339,68.0475
46.4,18331950.0,-42.50173,68.0439
100.0,9157311.0,-30.13215,68.0397
215.4,3929270.0,-101.2676,68.0382
464.2,2517663.0,-67.12913,68.0438
1000.0,1520896.0,-80.25597,68.0308
2154.4,704701.7,-88.30173,68.0436
4641.6,316930.8,-83.69983,68.0408
10000.0,155236.6,-95.96649,68.0355
