Frequency,Impedance,Phase Angle,Temperature (Dry Bath)
10.0,157622.9,-6.300899,67.894
21.5,151475.9,-5.239663,67.884
46.4,146228.5,-4.800109,67.917
100.0,138561.4,-4.042342,67.9076
215.4,138512.6,-4.948316,67.9071
464.2,133419.5,-8.31511,67.9323
1000.0,127692.5,-11.95609,67.917
2154.4,115452.4,-19.80283,67.9163
4641.6,99969.19,-35.67984,67.9238
10000.0,74832.34,-53.18373,67.9128
