Frequency,Impedance,Phase Angle,Temperature (Dry Bath)
10.0,36001520.0,-27.18961,67.9038
21.5,29858120.0,-40.16662,67.9068
46.4,28411990.0,-60.56388,67.8996
100.0,6942298.0,-41.03123,67.9173
215.4,5958068.0,-91.59921,67.9041
464.2,2552495.0,-75.20262,67.9069
1000.0,1028221.0,-80.81626,67.9178
2154.4,583641.6,-79.1405,67.9191
4641.6,264354.2,-80.48614,67.9038
10000.0,151794.5,-89.46403,67.9078
