Frequency,Impedance,Phase Angle,Temperature (Dry Bath)
10.0,24992650.0,-37.55832,67.2521
21.5,22724710.0,-38.90007,67.2542
46.4,18213260.0,-77.08364,67.2438
100.0,8810033.0,17.16899,67.2387
215.4,660840.7,117.4864,67.247
464.2,1968252.0,-83.90126,67.2221
1000.0,881062.1,-81.09799,67.2374
2154.4,449914.0,-80.53511,67.2423
4641.6,226656.8,-82.18522,67.223
10000.0,109456.8,-83.028,67.2482
