Frequency,Impedance,Phase Angle,Temperature (Dry Bath)
10.0,130112.0,-25.11589,67.215
21.5,107912.2,-21.8521,67.2139
46.4,92847.49,-18.69068,67.2059
100.0,80659.9,-16.31001,67.2153
215.4,73398.18,-13.94355,67.2159
464.2,68118.68,-13.25864,67.2318
1000.0,61059.48,-14.60181,67.2354
2154.4,56095.92,-17.28725,67.2324
4641.6,49042.07,-24.5613,67.2037
10000.0,39519.32,-37.49178,67.2537
