Frequency,Impedance,Phase Angle,Temperature (Dry Bath)
10.0,225385.4,-9.744759,68.0068
21.5,211544.7,-9.001752,67.9865
46.4,200245.7,-8.43067,68.0115
100.0,183736.1,-12.22968,68.0031
215.4,182343.0,-9.667811,68.0016
464.2,171339.4,-13.24367,67.9702
1000.0,155694.6,-18.82574,67.9987
2154.4,137636.1,-27.62943,67.983
4641.6,106233.8,-41.58274,67.9868
10000.0,75190.34,-55.74761,67.9818
