Frequency,Impedance,Phase Angle,Temperature (Dry Bath)
10.0,12671.92,-20.47348,70.9902
21.544346900318832,10856.38,-17.57961,71.0064
46.41588833612777,9498.72,-15.48788,70.9845
100.0,8588.993,-14.25364,70.9959
215.44346900318823,7605.992,-12.76956,70.9873
464.15888336127773,6901.318,-11.12283,70.9933
1000.0,6282.473,-10.43535,70.9958
2154.4346900318824,5912.946,-9.702877,70.9877
4641.588833612777,5500.985,-10.15583,70.9864
10000.0,5176.294,-12.0353,70.9951
