Frequency,Impedance,Phase Angle,Temperature (Dry Bath)
10.0,3359226.0,11.46935,71.3778
21.544346900318832,6000746.0,-6.156836,71.3854
46.41588833612777,4735627.0,-12.75539,71.3876
100.0,1509405.0,-151.0994,71.3931
215.44346900318823,976780.2,41.12374,71.3861
464.15888336127773,983765.4,-139.6931,71.3834
1000.0,437953.7,-117.7691,71.3788
2154.4346900318824,277167.1,-80.80729,71.3826
4641.588833612777,250007.6,-85.34248,71.3883
10000.0,71801.6,-83.8358,71.3825
