Frequency,Impedance,Phase Angle,Temperature (Dry Bath)
10.0,21172080.0,-21.74703,68.1425
21.5,30824100.0,-30.42456,68.1427
46.4,34163470.0,-51.93826,68.1445
100.0,5697827.0,-56.49188,68.144
215.4,3687902.0,-88.71104,68.1278
464.2,1839550.0,-83.39524,68.1396
1000.0,1057122.0,-81.65626,68.1245
2154.4,532129.8,-81.76476,68.1463
4641.6,287057.7,-84.57495,68.1439
10000.0,140576.6,-88.56683,68.144
