Frequency,Impedance,Phase Angle,Temperature (Dry Bath)
10.0,22956990.0,-5.981194,68.1248
21.5,37439980.0,-25.96171,68.1113
46.4,23189900.0,-53.1981,68.1153
100.0,3870047.0,-46.40282,68.1281
215.4,3106613.0,-77.05501,68.1324
464.2,2538115.0,-69.97961,68.1406
1000.0,1008605.0,-75.60805,68.1253
2154.4,503393.4,-84.55782,68.145
4641.6,277032.7,-80.96598,68.1286
10000.0,140751.5,-89.7722,68.1362
