Frequency,Impedance,Phase Angle,Temperature (Dry Bath)
10.0,32576290.0,-28.69719,68.1367
21.5,22262440.0,-33.29212,68.1367
46.4,22117280.0,-54.49058,68.1367
100.0,5600556.0,-84.96677,68.1367
215.4,4784378.0,-93.63197,68.1367
464.2,2106077.0,-79.56758,68.1367
1000.0,1059771.0,-81.30591,68.1367
2154.4,548282.0,-77.52116,68.1367
4641.6,291073.2,-81.10992,68.1367
10000.0,161043.2,-88.61695,68.1367
