Frequency,Impedance,Phase Angle,Temperature (Dry Bath)
10.0,6185064.0,-7.092792,71.3667
21.544346900318832,4780649.0,-18.26503,71.3623
46.41588833612777,4851742.0,-21.14642,71.3583
100.0,370044.1,-24.1355,71.359
215.44346900318823,4531438.0,-0.1415861,71.3632
464.15888336127773,1133654.0,54.26951,71.3465
1000.0,666256.4,-53.20661,71.3593
2154.4346900318824,504643.2,-93.66952,71.3457
4641.588833612777,120767.9,-92.94812,71.353
10000.0,74494.51,-87.52502,71.3587
