Frequency,Impedance,Phase Angle,Temperature (Dry Bath)
10.0,139989.7,-5.711012,67.2755
21.5,134686.4,-4.695735,67.278
46.4,130764.3,-4.425097,67.2897
100.0,130188.1,-5.222973,67.311
215.4,120193.8,-7.298225,67.2856
464.2,120950.2,-7.81535,67.2919
1000.0,113608.2,-12.0771,67.3165
2154.4,104045.8,-19.39953,67.2961
4641.6,93916.94,-33.38092,67.3175
10000.0,63344.62,-51.13157,67.3334
