Frequency,Impedance,Phase Angle,Temperature (Dry Bath)
10.0,1367798.0,-9.888373,66.5
21.544346900318832,1394391.0,-13.74861,66.5
46.41588833612777,1313109.0,-7.408189,66.5
100.0,626283.5,-16.67297,66.5
215.44346900318823,3237125.0,17.02658,66.5
464.15888336127773,3266686.0,42.48148,66.5
1000.0,1084361.0,-50.56273,66.5
2154.4346900318824,454413.9,-23.77811,66.5
4641.588833612777,850620.9,-39.42259,66.5
10000.0,226785.4,-70.51685,66.5
