Frequency,Impedance,Phase Angle,Temperature (Dry Bath)
10.0,6438833.0,20.10672,71.5666
21.544346900318832,5880699.0,11.70525,71.5539
46.41588833612777,5079501.0,-14.90969,71.5675
100.0,824421.3,111.6406,71.5438
215.44346900318823,1041925.0,-2.568837,71.5532
464.15888336127773,1333616.0,-58.24378,71.538
1000.0,825970.1,-146.1871,71.5508
2154.4346900318824,330740.0,-65.83258,71.5568
4641.588833612777,290486.1,-89.00378,71.5437
10000.0,131031.7,-81.54826,71.533
