Frequency,Impedance,Phase Angle,Temperature (Dry Bath)
10.0,22408360.0,-28.73692,67.8611
21.5,24534210.0,-37.3158,67.8816
46.4,26836340.0,-48.64244,67.8732
100.0,3729635.0,-32.65652,67.8715
215.4,4387798.0,-93.70064,67.8748
464.2,2475822.0,-81.16977,67.8695
1000.0,1123241.0,-81.41347,67.8793
2154.4,507851.5,-80.51299,67.8606
4641.6,285967.3,-81.85608,67.8643
10000.0,145468.8,-87.63808,67.8674
