Frequency,Impedance,Phase Angle,Temperature (Dry Bath)
10.0,247238.0,-15.85387,71.2368
21.544346900318832,220935.8,-15.15658,71.2388
46.41588833612777,186767.0,-15.65971,71.226
100.0,128653.7,-13.26891,71.239
215.44346900318823,168800.4,-23.90844,71.2293
464.15888336127773,126256.5,-23.41443,71.2074
1000.0,88794.39,-18.6246,71.215
2154.4346900318824,98657.08,-20.14221,71.2228
4641.588833612777,64056.82,-43.5009,71.2183
10000.0,69915.53,-51.05605,71.2152
