Frequency,Impedance,Phase Angle,Temperature (Dry Bath)
10.0,25985510.0,-37.6051,67.5701
21.5,21241500.0,-38.33974,67.5713
46.4,15861900.0,-59.5422,67.5581
100.0,4734050.0,-18.54242,67.5764
215.4,120435.3,83.71357,67.5758
464.2,2088244.0,-90.11737,67.5637
1000.0,940620.1,-74.73649,67.5764
2154.4,471257.0,-81.50874,67.5821
4641.6,238893.8,-82.74306,67.5543
10000.0,113753.0,-84.85824,67.5527
