Frequency,Impedance,Phase Angle,Temperature (Dry Bath)
10.0,2048718.0,-10.77864,67.3507
21.5,1903410.0,-12.03583,67.3563
46.4,1785101.0,-14.22798,67.3566
100.0,1242753.0,-25.57673,67.3519
215.4,1260376.0,-23.86464,67.3462
464.2,1054926.0,-51.78243,67.3482
1000.0,612627.6,-49.66324,67.3478
2154.4,363471.1,-66.16505,67.3518
4641.6,189721.1,-69.30293,67.3775
10000.0,105628.9,-71.2823,67.3517
