Frequency,Impedance,Phase Angle,Temperature (Dry Bath)
10.0,15942530.0,-15.32717,68.1884
21.5,14306150.0,-30.86727,68.187
46.4,18661660.0,-44.04275,68.2051
100.0,4062414.0,-37.87598,68.1852
215.4,3585539.0,-70.62424,68.1846
464.2,2012410.0,-59.04707,68.1891
1000.0,891006.4,-83.7744,68.1939
2154.4,444580.9,-81.332,68.2013
4641.6,224812.4,-85.85359,68.1886
10000.0,114029.4,-90.61946,68.1899
