Frequency,Impedance,Phase Angle,Temperature (Dry Bath)
10.0,4761652.0,-22.06933,65.8173
21.544346900318832,5356039.0,2.452576,65.8321
46.41588833612777,5220478.0,-19.36415,65.8155
100.0,1362450.0,-55.56923,65.8263
215.44346900318823,5745.496,39.48597,65.8143
464.15888336127773,801931.7,-45.6018,65.8296
1000.0,593492.4,-60.41595,65.8275
2154.4346900318824,256967.4,-78.58433,65.826
4641.588833612777,115287.4,-90.68523,65.8052
10000.0,65187.09,-86.4001,65.8365
