Frequency,Impedance,Phase Angle,Temperature (Dry Bath)
10.0,1154883.0,-13.19647,68.0411
21.5,1017757.0,-14.33051,68.0417
46.4,892193.8,-15.47829,68.0213
100.0,774234.4,-18.53321,68.0557
215.4,635550.4,-14.43396,68.0275
464.2,553669.1,-23.41302,68.0238
1000.0,500681.1,-32.64638,68.0368
2154.4,387688.2,-43.29845,68.0434
4641.6,236547.7,-63.0704,68.0449
10000.0,132799.7,-81.21917,68.0231
