Frequency,Impedance,Phase Angle,Temperature (Dry Bath)
10.0,137057.6,-6.303705,67.1953
21.5,131535.5,-5.334307,67.1938
46.4,126961.3,-5.0473,67.1882
100.0,123134.3,-3.674548,67.1798
215.4,118119.7,-5.528715,67.1699
464.2,112238.2,-8.326409,67.2057
1000.0,107172.1,-12.16882,67.1653
2154.4,102767.7,-19.12767,67.1688
4641.6,87993.84,-32.39237,67.1803
10000.0,61582.74,-49.86038,67.1556
