Frequency,Impedance,Phase Angle,Temperature (Dry Bath)
10.0,19395.44,-18.88976,67.6396
21.5,16804.25,-15.51559,67.6581
46.4,15057.35,-12.34933,67.6324
100.0,13760.94,-9.28995,67.6401
215.4,13036.18,-7.95679,67.6631
464.2,12269.05,-6.749259,67.6316
1000.0,12042.25,-5.305783,67.6359
2154.4,11589.21,-6.367722,67.6595
4641.6,11162.22,-7.718068,67.6364
10000.0,10700.26,-10.94976,67.6429
