Frequency,Impedance,Phase Angle,Temperature (Dry Bath)
10.0,327499.5,-8.276646,67.2988
21.5,306064.2,-7.986324,67.295
46.4,286995.7,-7.958519,67.2911
100.0,264106.8,-8.734274,67.3046
215.4,197241.0,-22.79522,67.3009
464.2,249966.9,-12.05429,67.2853
1000.0,212169.6,-19.82943,67.3068
2154.4,193570.3,-30.73442,67.2966
4641.6,140680.4,-43.67319,67.3171
10000.0,88886.36,-59.54531,67.3051
