Frequency,Impedance,Phase Angle,Temperature (Dry Bath)
10.0,4581565.0,-16.08292,65.7617
21.544346900318832,6498683.0,-11.57766,65.7536
46.41588833612777,3313612.0,10.14612,65.7553
100.0,775580.2,-32.72368,65.7668
215.44346900318823,24772.1,11.42325,65.7571
464.15888336127773,1201164.0,-64.95671,65.7594
1000.0,548367.0,-47.8952,65.7567
2154.4346900318824,207453.3,-83.48689,65.752
4641.588833612777,156621.9,-79.17596,65.7703
10000.0,59398.69,-83.77943,65.7542
