Frequency,Impedance,Phase Angle,Temperature (Dry Bath)
10.0,1188568.0,-23.97475,70.9612
21.544346900318832,973668.4,-18.70399,70.9751
46.41588833612777,810341.1,-26.63618,70.95
100.0,269479.4,-2.368198,70.961
215.44346900318823,564163.8,-18.01898,70.9611
464.15888336127773,390878.6,-60.75721,70.9575
1000.0,405457.1,-12.44019,70.9687
2154.4346900318824,262731.4,-46.73849,70.9743
4641.588833612777,102619.6,-65.16285,70.9511
10000.0,52118.77,-79.22936,70.9623
