Frequency,Impedance,Phase Angle,Temperature (Dry Bath)
10.0,25277890.0,-19.51881,68.0333
21.5,18399190.0,-16.60736,68.0319
46.4,19149070.0,-38.41298,68.0458
100.0,11777160.0,-38.59427,68.0364
215.4,15615280.0,-45.45744,68.0353
464.2,2730524.0,-93.27211,68.0272
1000.0,1410403.0,-88.67348,68.0384
2154.4,709765.8,-89.93934,68.0413
4641.6,284727.6,-90.59586,68.0483
10000.0,143723.7,-97.11794,68.0469
