Frequency,Impedance,Phase Angle,Temperature (Dry Bath)
10.0,25350.91,-21.51604,70.9612
21.544346900318832,20967.58,-23.16197,70.9711
46.41588833612777,17011.61,-24.54156,70.985
100.0,13783.33,-27.62745,70.9718
215.44346900318823,11143.14,-25.62101,70.9515
464.15888336127773,8631.755,-25.64959,70.9713
1000.0,6773.357,-25.6646,70.974
2154.4346900318824,5584.971,-25.16555,70.9642
4641.588833612777,4557.753,-23.00139,70.968
10000.0,3791.495,-20.77339,70.9695
