Frequency,Impedance,Phase Angle,Temperature (Dry Bath)
10.0,277337.5,-9.795187,67.0531
21.5,262541.2,-8.732476,67.0799
46.4,250711.9,-8.721971,67.0613
100.0,244442.3,-10.38137,67.0833
215.4,214443.7,-8.790922,67.0888
464.2,209359.9,-14.27608,67.0736
1000.0,185831.1,-23.75271,67.0616
2154.4,153859.2,-34.68063,67.07
4641.6,107249.9,-50.65506,67.0758
10000.0,64037.43,-59.88786,67.0844
