Frequency,Impedance,Phase Angle,Temperature (Dry Bath)
10.0,19889.61,-22.67542,70.3274
21.544346900318832,16275.26,-24.36411,70.3166
46.41588833612777,13055.63,-25.56168,70.3417
100.0,10343.8,-25.81149,70.321
215.44346900318823,8321.773,-25.65227,70.3206
464.15888336127773,6744.295,-24.62719,70.3228
1000.0,5412.607,-23.32875,70.3321
2154.4346900318824,4484.001,-20.69699,70.3326
4641.588833612777,3808.208,-18.69739,70.3544
10000.0,3267.034,-18.09517,70.3481
