Frequency,Impedance,Phase Angle,Temperature (Dry Bath)
10.0,3967331.0,-14.03349,71.0375
21.544346900318832,5260414.0,1.726499,71.0421
46.41588833612777,5745862.0,8.891474,71.0427
100.0,516907.2,-83.00584,71.0507
215.44346900318823,498431.5,-11.60637,71.0539
464.15888336127773,523373.7,96.86147,71.0607
1000.0,313901.2,97.39548,71.0658
2154.4346900318824,671192.7,168.4486,71.0504
4641.588833612777,459692.2,-93.56972,71.0472
10000.0,298417.5,-125.667,71.0722
