Frequency,Impedance,Phase Angle,Temperature (Dry Bath)
10.0,4096994.0,1.074594,65.7119
21.544346900318832,6322979.0,-1.085314,65.7202
46.41588833612777,4324217.0,-24.22119,65.7174
100.0,1387279.0,-45.57386,65.7041
215.44346900318823,28822.42,-92.31058,65.7135
464.15888336127773,1155251.0,-101.5834,65.7193
1000.0,611962.1,-86.49503,65.7038
2154.4346900318824,342324.7,-97.30954,65.7088
4641.588833612777,123917.7,-87.2126,65.6952
10000.0,70998.26,-83.72798,65.6957
