Frequency,Impedance,Phase Angle,Temperature (Dry Bath)
10.0,282400.7,-13.55251,71.8621
21.544346900318832,251225.3,-13.32555,71.8625
46.41588833612777,221867.9,-14.2135,71.856
100.0,297860.8,-42.90061,71.8641
215.44346900318823,155150.4,3.203413,71.8685
464.15888336127773,155138.8,-10.043,71.866
1000.0,142406.8,-39.15896,71.8654
2154.4346900318824,129419.6,-32.63223,71.8574
4641.588833612777,82371.64,-27.76817,71.8517
10000.0,84309.46,-49.75724,71.8639
