Frequency,Impedance,Phase Angle,Temperature (Dry Bath)
10.0,5129680.0,-2.620576,71.1925
21.544346900318832,4699689.0,13.22161,71.1839
46.41588833612777,4812197.0,-3.393504,71.188
100.0,802231.0,-60.56542,71.1886
215.44346900318823,1201484.0,73.25227,71.1954
464.15888336127773,612109.9,-170.05,71.1804
1000.0,20902030.0,40.32661,71.1887
2154.4346900318824,537484.3,-77.59631,71.1774
4641.588833612777,527603.9,-96.29847,71.1846
10000.0,131588.2,-88.52024,71.1947
