Frequency,Impedance,Phase Angle,Temperature (Dry Bath)
10.0,137468.1,-25.74351,66.9699
21.5,111717.4,-22.62758,66.9729
46.4,97049.98,-19.61771,66.9641
100.0,85154.24,-16.61119,66.9659
215.4,46629.71,-2.344731,66.9705
464.2,69021.46,-14.26269,66.9611
1000.0,61062.82,-15.76392,66.9678
2154.4,56470.1,-18.85865,66.9492
4641.6,48535.31,-25.72001,66.972
10000.0,38973.2,-38.37096,66.9546
