Frequency,Impedance,Phase Angle,Temperature (Dry Bath)
10.0,19444.94,-19.39268,67.7745
21.5,16753.84,-15.97608,67.7936
46.4,14950.99,-12.59099,67.7852
100.0,13479.03,-9.674617,67.7663
215.4,12737.77,-7.344664,67.7956
464.2,12292.64,-5.370887,67.7752
1000.0,11581.81,-5.368651,67.7893
2154.4,11376.54,-5.923937,67.7694
4641.6,11079.39,-7.861115,67.7746
10000.0,10790.32,-11.81401,67.7744
