Frequency,Impedance,Phase Angle,Temperature (Dry Bath)
10.0,26643930.0,-26.50912,67.991
21.5,16570950.0,-40.08708,67.9924
46.4,15614810.0,-65.02543,67.9902
100.0,4829695.0,-2.244674,67.9755
215.4,3345939.0,-111.6201,67.978
464.2,2365274.0,-75.15955,67.991
1000.0,1068724.0,-75.34003,67.9898
2154.4,550660.2,-82.6117,67.9884
4641.6,252626.1,-84.30078,67.979
10000.0,125798.4,-89.45451,67.9613
