Frequency,Impedance,Phase Angle,Temperature (Dry Bath)
10.0,23130980.0,-6.46202,68.1066
21.5,18544370.0,-30.65236,68.1223
46.4,19226110.0,-57.37243,68.0993
100.0,5634680.0,-53.99499,68.1177
215.4,3061713.0,-58.50774,68.0958
464.2,1532233.0,-78.18867,68.1038
1000.0,871518.4,-75.01679,68.1235
2154.4,498185.6,-72.76575,68.116
4641.6,267606.2,-81.62091,68.118
10000.0,138511.8,-90.64531,68.1075
