Frequency,Impedance,Phase Angle,Temperature (Dry Bath)
10.0,56291540.0,-20.85303,67.8248
21.5,33010640.0,-37.0653,67.8063
46.4,21420550.0,-54.35017,67.8198
100.0,5512080.0,-54.3664,67.8287
215.4,5081324.0,-66.55925,67.8309
464.2,2066710.0,-74.21291,67.8125
1000.0,901731.1,-76.69494,67.7982
2154.4,509295.5,-79.66423,67.8108
4641.6,271350.0,-84.86332,67.8106
10000.0,131654.5,-91.38546,67.7958
