Frequency,Impedance,Phase Angle,Temperature (Dry Bath)
10.0,2303990.0,-10.81711,67.32
21.5,2086641.0,-12.05305,67.3236
46.4,1980352.0,-16.25147,67.3181
100.0,1736789.0,-26.78701,67.3385
215.4,1562823.0,-21.04983,67.3271
464.2,968506.8,-36.93352,67.3197
1000.0,643061.2,-55.9206,67.3092
2154.4,356980.2,-68.25064,67.3183
4641.6,193696.6,-69.16953,67.335
10000.0,108521.1,-71.23841,67.3305
