Frequency,Impedance,Phase Angle,Temperature (Dry Bath)
10.0,12088.42,-4.372624,67.4147
21.5,11816.15,-3.751917,67.4378
46.4,11504.88,-3.035261,67.4251
100.0,11369.26,-3.141791,67.4259
215.4,10974.99,-6.341139,67.4195
464.2,11037.59,-3.323444,67.4253
1000.0,10783.14,-3.504533,67.4335
2154.4,10598.07,-4.135757,67.4129
4641.6,10401.85,-5.72078,67.4242
10000.0,10102.04,-9.345732,67.4281
