Frequency,Impedance,Phase Angle,Temperature (Dry Bath)
10.0,3485708.0,-2.814849,65.8395
21.544346900318832,4786096.0,-19.12216,65.8223
46.41588833612777,7459428.0,-23.78208,65.8324
100.0,441577.0,30.31929,65.8545
215.44346900318823,26262.72,120.8778,65.8392
464.15888336127773,895984.3,-88.88034,65.8395
1000.0,683272.4,-80.40613,65.8345
2154.4346900318824,233931.3,-86.88882,65.8591
4641.588833612777,154649.3,-90.54468,65.8504
10000.0,66087.6,-87.25381,65.8633
