Frequency,Impedance,Phase Angle,Temperature (Dry Bath)
10.0,23660490.0,-9.408598,67.08
21.5,28182200.0,-25.39741,67.0595
46.4,18423620.0,-50.873,67.0838
100.0,5780674.0,-41.08897,67.0831
215.4,3974067.0,-113.6802,67.0731
464.2,2035435.0,-93.48691,67.1057
1000.0,1038918.0,-95.5687,67.0894
2154.4,543599.0,-89.79372,67.0833
4641.6,266163.5,-86.00979,67.0879
10000.0,128777.9,-89.09154,67.0734
