Frequency,Impedance,Phase Angle,Temperature (Dry Bath)
10.0,18586.9,-23.01097,70.9667
21.544346900318832,15115.36,-24.73946,70.963
46.41588833612777,12110.95,-25.82247,70.9745
100.0,9789.92,-26.48955,70.9711
215.44346900318823,7640.837,-25.34108,70.9667
464.15888336127773,6207.757,-23.9989,70.9754
1000.0,5064.469,-21.85056,70.9739
2154.4346900318824,4215.092,-20.22681,70.9716
4641.588833612777,3604.345,-18.25387,70.9809
10000.0,3143.449,-16.89182,70.985
