Frequency,Impedance,Phase Angle,Temperature (Dry Bath)
10.0,39063120.0,-23.74397,67.8865
21.5,45647290.0,-34.61467,67.8856
46.4,38103970.0,-46.95022,67.9031
100.0,6846336.0,-23.65784,67.8899
215.4,9306900.0,-54.19822,67.9076
464.2,2298156.0,-73.97678,67.8919
1000.0,1234995.0,-91.6224,67.9145
2154.4,611544.8,-84.27381,67.8947
4641.6,344286.8,-84.02319,67.9005
10000.0,150610.2,-95.34382,67.8902
