Frequency,Impedance,Phase Angle,Temperature (Dry Bath)
10.0,1230839.0,-9.973218,65.7287
21.544346900318832,1085375.0,-7.812217,65.7359
46.41588833612777,1063522.0,-13.43758,65.7318
100.0,620941.1,-40.99871,65.7366
215.44346900318823,9193.617,-8.041711,65.7253
464.15888336127773,662019.5,-51.5927,65.7377
1000.0,327883.4,-61.40803,65.7436
2154.4346900318824,276959.1,-83.07821,65.7456
4641.588833612777,146411.1,-74.57085,65.7487
10000.0,61135.92,-81.07815,65.7497
