Frequency,Impedance,Phase Angle,Temperature (Dry Bath)
10.0,12329.97,-4.341206,67.3073
21.5,12055.99,-3.735542,67.3091
46.4,11836.07,-3.52953,67.3035
100.0,11583.87,-3.283368,67.3184
215.4,11446.85,-3.197936,67.306
464.2,11258.43,-3.225857,67.2995
1000.0,11001.65,-3.556878,67.2945
2154.4,10797.64,-4.201516,67.2696
4641.6,10563.56,-5.699425,67.2946
10000.0,10275.61,-9.453244,67.2765
