Frequency,Impedance,Phase Angle,Temperature (Dry Bath)
10.0,32666030.0,-3.240244,68.0326
21.5,31227350.0,-21.43547,68.0326
46.4,30731510.0,-47.80014,68.0326
100.0,9553242.0,-4.059591,68.0326
215.4,5563896.0,-63.7435,68.0326
464.2,2762636.0,-74.49758,68.0326
1000.0,1389906.0,-93.69044,68.0326
2154.4,657773.6,-90.63229,68.0326
4641.6,333747.6,-90.81956,68.0326
10000.0,149469.9,-97.50517,68.0326
