Frequency,Impedance,Phase Angle,Temperature (Dry Bath)
10.0,26054310.0,-19.27657,68.0597
21.5,34567500.0,-23.24319,68.0359
46.4,36246300.0,-44.60082,68.0708
100.0,5649616.0,-18.38521,68.0711
215.4,7854462.0,-58.71101,68.062
464.2,4496449.0,-99.58367,68.0706
1000.0,1403155.0,-87.11325,68.0575
2154.4,612306.8,-87.34685,68.0458
4641.6,351242.9,-86.32255,68.0597
10000.0,167222.5,-98.44726,68.0506
