Frequency,Impedance,Phase Angle,Temperature (Dry Bath)
10.0,247114.3,-6.712282,66.6513
21.5,235562.2,-6.948659,66.6685
46.4,223693.9,-7.792081,66.6604
100.0,208329.9,-7.062108,66.6643
215.4,145235.4,-82.61989,66.6493
464.2,186308.4,-15.01712,66.6606
1000.0,153488.3,-25.69116,66.6571
2154.4,129036.6,-36.28511,66.669
4641.6,87773.64,-47.43927,66.6768
10000.0,54705.74,-56.96274,66.652
