Frequency,Impedance,Phase Angle,Temperature (Dry Bath)
10.0,3390480.0,-12.92362,65.6452
21.544346900318832,4195656.0,-18.84615,65.6576
46.41588833612777,4600050.0,-37.92383,65.6498
100.0,353273.7,-49.95295,65.6667
215.44346900318823,81134.54,69.96272,65.6524
464.15888336127773,910585.6,-96.79145,65.6549
1000.0,883394.1,-99.80914,65.6478
2154.4346900318824,236259.9,-98.39229,65.6683
4641.588833612777,145010.8,-97.58781,65.6566
10000.0,68834.02,-94.11578,65.6543
