Frequency,Impedance,Phase Angle,Temperature (Dry Bath)
10.0,279190.2,-25.06886,71.2608
21.544346900318832,236746.8,-21.53998,71.2552
46.41588833612777,198228.2,-20.67686,71.2676
100.0,124025.7,16.17152,71.268
215.44346900318823,151700.7,-10.19726,71.2731
464.15888336127773,110515.4,-20.13966,71.2601
1000.0,109416.7,-25.14467,71.2942
2154.4346900318824,98111.12,-27.31563,71.2721
4641.588833612777,65508.52,-41.03513,71.2784
10000.0,44190.52,-64.54378,71.2836
