Frequency,Impedance,Phase Angle,Temperature (Dry Bath)
10.0,2134058.0,-19.82183,70.7686
21.544346900318832,1626751.0,-17.13419,70.7853
46.41588833612777,1322696.0,-27.02162,70.7658
100.0,1541133.0,-61.00101,70.7745
215.44346900318823,376809.6,-42.04659,70.7624
464.15888336127773,322569.9,-89.35983,70.7632
1000.0,366148.5,-75.91746,70.7677
2154.4346900318824,162767.8,-65.65532,70.7716
4641.588833612777,125688.3,-73.52752,70.7691
10000.0,54943.98,-80.42378,70.768
