Frequency,Impedance,Phase Angle,Temperature (Dry Bath)
10.0,14334610.0,-33.86609,68.1855
21.5,15694430.0,-20.14643,68.167
46.4,15926630.0,-51.2476,68.1675
100.0,5219974.0,-48.70982,68.1735
215.4,3478245.0,-76.29135,68.1713
464.2,1718281.0,-77.27618,68.1529
1000.0,917541.4,-78.65465,68.1656
2154.4,439373.4,-81.13045,68.1837
4641.6,228391.9,-90.2521,68.1474
10000.0,109932.2,-89.78954,68.1637
