Frequency,Impedance,Phase Angle,Temperature (Dry Bath)
10.0,252270.8,-5.61201,67.1214
21.5,242881.4,-5.641223,67.1101
46.4,235472.2,-6.102759,67.1155
100.0,234374.3,-6.23792,67.1182
215.4,231928.2,-8.917168,67.115
464.2,214511.6,-13.85891,67.1164
1000.0,177411.9,-24.07425,67.1245
2154.4,144862.0,-35.16188,67.1138
4641.6,103412.1,-49.53542,67.1313
10000.0,60451.39,-61.06655,67.1274
