Frequency,Impedance,Phase Angle,Temperature (Dry Bath)
10.0,20658630.0,-19.95878,68.0088
21.5,23465980.0,-21.56643,68.0234
46.4,18816670.0,-41.69286,68.0155
100.0,20198480.0,-108.6057,68.0087
215.4,6014231.0,-77.06494,68.0096
464.2,3404409.0,-88.1196,68.0096
1000.0,1377255.0,-84.28517,68.0076
2154.4,736775.7,-87.05024,68.0146
4641.6,321836.5,-84.72737,68.0026
10000.0,148956.1,-96.99549,68.0011
