Frequency,Impedance,Phase Angle,Temperature (Dry Bath)
10.0,7832343.0,-26.22647,65.7761
21.544346900318832,5112755.0,-2.197017,65.7596
46.41588833612777,5291248.0,-28.26694,65.7797
100.0,374521.1,-117.947,65.7629
215.44346900318823,484635.0,95.7895,65.7654
464.15888336127773,1374817.0,13.12595,65.7803
1000.0,468736.0,-100.5442,65.7719
2154.4346900318824,225290.3,-85.97734,65.7598
4641.588833612777,169105.7,-107.8204,65.7789
10000.0,66897.1,-87.89856,65.7586
