Frequency,Impedance,Phase Angle,Temperature (Dry Bath)
10.0,326930.8,-6.90448,17.6105
21.5,315276.0,-6.231715,17.5885
46.4,298280.9,-6.458009,17.6256
100.0,283577.4,-9.439262,17.6071
215.4,272679.8,-10.31042,17.6167
464.2,256742.5,-15.77241,17.618
1000.0,240988.5,-20.1972,17.6268
2154.4,208567.0,-33.5227,17.6095
4641.6,161196.5,-50.54057,17.6086
10000.0,89928.75,-70.87392,17.6262
