Frequency,Impedance,Phase Angle,Temperature (Dry Bath)
10.0,153955.1,-10.71616,71.244
21.544346900318832,140566.6,-10.04706,71.2427
46.41588833612777,131825.1,-9.313507,71.2512
100.0,126457.4,-2.151091,71.2468
215.44346900318823,107979.4,-9.468412,71.2451
464.15888336127773,115251.9,-6.047785,71.2445
1000.0,88635.63,-13.53702,71.2473
2154.4346900318824,97293.36,-31.83545,71.2557
4641.588833612777,57132.59,-48.14847,71.2545
10000.0,44060.68,-64.73457,71.2615
