Frequency,Impedance,Phase Angle,Temperature (Dry Bath)
10.0,27114300.0,-40.3362,66.9741
21.5,19111420.0,-46.92285,66.9707
46.4,15617440.0,-52.28431,66.9699
100.0,5583948.0,-74.4635,66.9737
215.4,5269965.0,-50.60784,66.9835
464.2,1919347.0,-75.28172,66.9909
1000.0,911561.8,-81.28119,66.9719
2154.4,504414.0,-82.31515,66.9925
4641.6,218898.7,-83.4785,66.9774
10000.0,109634.4,-84.66693,66.9767
