Frequency,Impedance,Phase Angle,Temperature (Dry Bath)
10.0,4118255.0,-14.18516,71.434
21.544346900318832,4060766.0,-14.87786,71.4375
46.41588833612777,6027555.0,8.423124,71.4473
100.0,2353527.0,-40.19799,71.4416
215.44346900318823,2315663.0,7.309961,71.4345
464.15888336127773,1938998.0,33.91679,71.4273
1000.0,589362.6,-89.45544,71.4338
2154.4346900318824,731619.9,-98.14425,71.4433
4641.588833612777,228360.7,-87.40131,71.4385
10000.0,107822.4,-82.89701,71.4399
