Frequency,Impedance,Phase Angle,Temperature (Dry Bath)
10.0,20852550.0,-29.38816,68.0196
21.5,19608990.0,-49.993,68.0196
46.4,22476970.0,-54.16344,68.0196
100.0,4531967.0,-43.78145,68.0196
215.4,4402886.0,-72.61366,68.0196
464.2,2361867.0,-84.86775,68.0196
1000.0,1060979.0,-81.67741,68.0196
2154.4,552523.6,-75.42595,68.0196
4641.6,307757.3,-80.03224,68.0196
10000.0,156664.8,-86.77856,68.0196
