Frequency,Impedance,Phase Angle,Temperature (Dry Bath)
10.0,23641900.0,-35.17626,67.2568
21.5,22173710.0,-38.11729,67.2585
46.4,12610640.0,-70.66232,67.2662
100.0,5920348.0,-77.76991,67.2454
215.4,228457.0,-71.79641,67.2489
464.2,1759943.0,-77.59452,67.2599
1000.0,995803.0,-77.90752,67.2658
2154.4,461109.0,-83.28429,67.2707
4641.6,230604.3,-79.05133,67.2596
10000.0,121013.2,-79.16748,67.2785
