Frequency,Impedance,Phase Angle,Temperature (Dry Bath)
10.0,6217326.0,-34.59752,65.7007
21.544346900318832,6412217.0,-13.72046,65.6845
46.41588833612777,5089742.0,-38.37142,65.6961
100.0,874974.8,71.21818,65.6864
215.44346900318823,9402.039,39.22441,65.6878
464.15888336127773,991680.6,-89.13168,65.6929
1000.0,373398.1,-46.54424,65.6948
2154.4346900318824,325286.2,-90.79316,65.6994
4641.588833612777,132255.3,-95.03004,65.6967
10000.0,61697.6,-84.26908,65.712
