Frequency,Impedance,Phase Angle,Temperature (Dry Bath)
10.0,784524.4,-11.07804,67.9799
21.5,734763.1,-9.692744,67.9897
46.4,701558.5,-11.24901,67.9797
100.0,607928.9,-13.05901,67.9822
215.4,570653.1,-15.63712,67.972
464.2,476972.9,-24.62211,68.0187
1000.0,395214.8,-32.34323,67.9872
2154.4,283376.2,-42.62891,67.9951
4641.6,192787.5,-53.58798,67.9837
10000.0,116312.1,-69.65484,67.9786
