Frequency,Impedance,Phase Angle,Temperature (Dry Bath)
10.0,7763.197,-35.83625,70.508
21.544346900318832,5852.771,-31.35609,70.5115
46.41588833612777,4588.573,-26.94683,70.5138
100.0,3719.179,-22.73094,70.5166
215.44346900318823,3146.692,-18.52395,70.5204
464.15888336127773,2757.412,-15.57597,70.5196
1000.0,2431.251,-13.33156,70.5123
2154.4346900318824,2226.893,-10.98224,70.5197
4641.588833612777,2083.823,-9.463172,70.5159
10000.0,1932.79,-9.169038,70.5053
