Frequency,Impedance,Phase Angle,Temperature (Dry Bath)
10.0,6948.133,-28.23565,70.4803
21.544346900318832,5496.932,-26.12027,70.4772
46.41588833612777,4457.726,-23.54111,70.4689
100.0,3702.027,-20.47158,70.4744
215.44346900318823,3158.932,-17.72272,70.4726
464.15888336127773,2749.633,-15.38587,70.4772
1000.0,2441.567,-12.94208,70.4803
2154.4346900318824,2231.543,-11.40877,70.4699
4641.588833612777,2048.782,-9.988098,70.4823
10000.0,1909.61,-10.58109,70.481
