Frequency,Impedance,Phase Angle,Temperature (Dry Bath)
10.0,23165550.0,-13.45416,67.3652
21.5,37022650.0,-27.90663,67.3638
46.4,16534350.0,-57.93995,67.3677
100.0,4177292.0,-15.55862,67.3711
215.4,2502538.0,-58.42195,67.3686
464.2,1615648.0,-76.80779,67.3761
1000.0,1005147.0,-84.23257,67.3781
2154.4,451587.3,-85.16934,67.3607
4641.6,220228.1,-83.85993,67.3695
10000.0,111220.3,-82.07793,67.3623
