Frequency,Impedance,Phase Angle,Temperature (Dry Bath)
10.0,12636.99,-26.40955,71.3116
21.544346900318832,10201.76,-23.88399,71.2961
46.41588833612777,8437.172,-21.04945,71.3119
100.0,7028.559,-18.3885,71.3061
215.44346900318823,5913.346,-25.97975,71.2943
464.15888336127773,5496.949,-14.09686,71.3144
1000.0,4875.38,-12.52981,71.3084
2154.4346900318824,4496.199,-11.34768,71.3175
4641.588833612777,4090.847,-11.84735,71.3049
10000.0,3807.664,-12.20412,71.3146
