Frequency,Impedance,Phase Angle,Temperature (Dry Bath)
10.0,4786808.0,-34.64732,65.7251
21.544346900318832,5203825.0,-16.18568,65.7496
46.41588833612777,4866265.0,-4.3328,65.7474
100.0,823520.8,-17.45414,65.7539
215.44346900318823,19661.83,-0.3512797,65.7589
464.15888336127773,1204913.0,-103.9223,65.7382
1000.0,557340.8,-81.7923,65.7273
2154.4346900318824,251599.2,-61.93426,65.7494
4641.588833612777,127577.6,-95.85019,65.743
10000.0,78048.6,-86.52697,65.7617
