Frequency,Impedance,Phase Angle,Temperature (Dry Bath)
10.0,22766470.0,-23.11722,68.2813
21.5,18651680.0,-42.0621,68.2813
46.4,10299280.0,-52.14781,68.2813
100.0,3745949.0,-13.76764,68.2813
215.4,8075700.0,-74.61079,68.2813
464.2,2032287.0,-84.06635,68.2813
1000.0,975701.4,-86.01652,68.2813
2154.4,443200.0,-81.51736,68.2813
4641.6,236451.6,-85.44793,68.2813
10000.0,117846.7,-88.10654,68.2813
