Frequency,Impedance,Phase Angle,Temperature (Dry Bath)
10.0,1281458.0,-10.75291,67.796
21.5,1177913.0,-11.37712,67.7993
46.4,1073973.0,-12.54197,67.775
100.0,856617.7,-18.50504,67.7834
215.4,820984.4,-19.10752,67.7778
464.2,723762.4,-29.95563,67.7741
1000.0,528587.6,-41.32653,67.7835
2154.4,362783.7,-53.44134,67.8112
4641.6,224120.5,-61.11057,67.7835
10000.0,121084.1,-74.6518,67.7826
