Frequency,Impedance,Phase Angle,Temperature (Dry Bath)
10.0,113344.2,-24.83855,67.6738
21.5,94832.84,-22.00254,67.6664
46.4,82141.31,-19.02179,67.6665
100.0,70533.44,-15.67327,67.6644
215.4,66178.35,-14.63143,67.6681
464.2,59596.32,-12.73359,67.6781
1000.0,54326.1,-13.6722,67.6786
2154.4,49743.09,-15.94523,67.6595
4641.6,46881.12,-22.07921,67.6803
10000.0,38669.27,-33.11156,67.6612
