Frequency,Impedance,Phase Angle,Temperature (Dry Bath)
10.0,476336.3,-27.654,65.8616
21.544346900318832,366085.8,-26.01943,65.8569
46.41588833612777,296418.9,-24.7826,65.871
100.0,193376.4,-40.5293,65.8533
215.44346900318823,24831.34,-12.55962,65.8888
464.15888336127773,187784.4,-19.85645,65.8687
1000.0,119598.3,-26.67895,65.8759
2154.4346900318824,107439.8,-33.82063,65.8793
4641.588833612777,91834.12,-50.51928,65.8755
10000.0,54152.66,-58.94904,65.8586
