Frequency,Impedance,Phase Angle,Temperature (Dry Bath)
10.0,25099190.0,-12.30161,67.902
21.5,43535470.0,-31.71446,67.9115
46.4,17759910.0,-57.04043,67.9128
100.0,8676599.0,-55.80421,67.8973
215.4,4640310.0,-84.03016,67.9054
464.2,1728533.0,-66.15636,67.896
1000.0,1041109.0,-76.54414,67.8952
2154.4,514350.5,-80.74591,67.8991
4641.6,274150.5,-85.56054,67.9138
10000.0,125389.1,-92.59527,67.9048
