Frequency,Impedance,Phase Angle,Temperature (Dry Bath)
10.0,20400.03,-20.00728,71.1306
21.544346900318832,17501.74,-17.52046,71.1354
46.41588833612777,15279.0,-15.57524,71.1335
100.0,13166.68,-13.6515,71.1248
215.44346900318823,12125.54,-12.60292,71.1327
464.15888336127773,10864.58,-11.33338,71.1119
1000.0,10115.13,-10.54366,71.1325
2154.4346900318824,9341.505,-9.364418,71.1251
4641.588833612777,8892.432,-10.56245,71.1058
10000.0,8226.242,-14.03907,71.1279
