Frequency,Impedance,Phase Angle,Temperature (Dry Bath)
10.0,12319.55,-4.703791,67.2934
21.5,12009.15,-3.972219,67.3039
46.4,11683.62,-3.207757,67.2927
100.0,11578.15,-3.418876,67.3097
215.4,11390.49,-3.792251,67.2912
464.2,11250.77,-3.665853,67.3004
1000.0,10974.13,-4.061721,67.3118
2154.4,10733.99,-4.442519,67.2976
4641.6,10490.86,-6.039456,67.3131
10000.0,10211.89,-9.756023,67.3045
