Frequency,Impedance,Phase Angle,Temperature (Dry Bath)
10.0,220511.3,-27.9865,71.3495
21.544346900318832,178096.1,-23.25947,71.3538
46.41588833612777,148022.0,-22.36532,71.3481
100.0,105916.0,-11.74381,71.3541
215.44346900318823,93710.42,-27.40049,71.3563
464.15888336127773,87409.72,-18.908,71.3489
1000.0,73901.27,-31.00639,71.337
2154.4346900318824,61632.81,-35.13715,71.3533
4641.588833612777,45847.91,-49.69097,71.3554
10000.0,28109.95,-63.52451,71.3609
