Frequency,Impedance,Phase Angle,Temperature (Dry Bath)
10.0,1284446.0,-10.66929,67.7298
21.5,1186513.0,-11.85459,67.7428
46.4,1029053.0,-13.14322,67.7421
100.0,877502.7,-12.11025,67.7378
215.4,818398.9,-22.43982,67.7414
464.2,788097.3,-28.79183,67.73
1000.0,543146.7,-41.61946,67.7396
2154.4,340669.4,-54.47016,67.7397
4641.6,208613.1,-63.00508,67.7458
10000.0,134538.5,-71.7807,67.7415
