Frequency,Impedance,Phase Angle,Temperature (Dry Bath)
10.0,40488750.0,-7.008537,67.9636
21.5,50343420.0,-27.29076,67.9572
46.4,20562690.0,-47.72237,67.9556
100.0,5851643.0,-43.33082,67.9671
215.4,4828464.0,-90.51143,67.9771
464.2,2059547.0,-68.67014,67.9685
1000.0,1106910.0,-82.15793,67.9445
2154.4,501078.2,-81.89893,67.9798
4641.6,294821.0,-78.24817,67.971
10000.0,158630.9,-91.42996,67.9611
