Frequency,Impedance,Phase Angle,Temperature (Dry Bath)
10.0,27264820.0,-5.297046,67.093
21.5,24215250.0,-15.44768,67.0872
46.4,14958510.0,-56.52915,67.0978
100.0,3833287.0,-24.29495,67.1029
215.4,3622222.0,-63.8708,67.1113
464.2,3046011.0,-82.0827,67.0858
1000.0,956771.5,-85.0861,67.0881
2154.4,463611.8,-82.36169,67.0773
4641.6,230020.5,-81.72378,67.0908
10000.0,117403.8,-79.8524,67.087
