Frequency,Impedance,Phase Angle,Temperature (Dry Bath)
10.0,4153580.0,-8.955543,70.8015
21.544346900318832,5384084.0,-17.55512,70.7871
46.41588833612777,3815477.0,-27.02074,70.8093
100.0,650856.4,-107.457,70.8092
215.44346900318823,1466283.0,145.7998,70.8266
464.15888336127773,514387.6,-111.7506,70.8147
1000.0,290412.3,-47.32036,70.7973
2154.4346900318824,207541.2,-61.50324,70.7985
4641.588833612777,100867.7,-82.00709,70.8068
10000.0,53707.38,-83.70504,70.7939
