Frequency,Impedance,Phase Angle,Temperature (Dry Bath)
10.0,16603390.0,-13.9974,68.0821
21.5,15555420.0,-22.4034,68.0716
46.4,16116710.0,-46.30848,68.0771
100.0,4144003.0,-57.51322,68.0868
215.4,5287177.0,-104.2561,68.0751
464.2,2719953.0,-78.39401,68.0735
1000.0,1533821.0,-82.31244,68.0882
2154.4,656249.7,-85.79939,68.0795
4641.6,306692.4,-92.08553,68.0746
10000.0,154316.0,-93.55207,68.0764
