Frequency,Impedance,Phase Angle,Temperature (Dry Bath)
10.0,10689.52,-23.60253,71.2736
21.544346900318832,8694.346,-24.12516,71.2873
46.41588833612777,7013.992,-24.08166,71.2891
100.0,5631.262,-23.66207,71.2659
215.44346900318823,4677.164,-21.40043,71.2934
464.15888336127773,3911.836,-19.25967,71.2982
1000.0,3356.36,-16.66156,71.2882
2154.4346900318824,2940.781,-14.80238,71.2838
4641.588833612777,2625.972,-13.08173,71.2877
10000.0,2384.09,-11.97413,71.2784
